PE UV       SUBTECH     SPECTRUM    ASCII       PEDS        4.00        
   -1
DG05A_9238_bis.Sample.asc
23/12/20
09:38:41.00
23/12/20
09:38:41.00
Administrator

250.000000
1
Lambda 750
750N8071901
PerkinElmer UV WinLab 6.0.4.0738 / 1.61.00 Lambda 900

0
0
3350/servo 860.8/2
0
0
UV/VIS
1
1
1
CommonBeamDepol,150mm sphere / downward view
0
0
0
0
Program
Program
3350/servo 860.8/2
3350/0.2 860.8/0.2
3350/0.2 860.8/0.2
0
1
 
 
 
0
 
860.8
319.2
860.8
Front
100
on
 
 
0
0
0
 
0
 
 
 
0
 
 
0
0
0
0
0
 
 
 
 
0
0


0
0
#HDR
-1
-1
#GR
nm
%R
1.0
0.0
2300.000000
-10.000000
206
8
18.304136
10.792430
#DATA
2300.000000	17.013554
2290.000000	18.219928
2280.000000	17.959149
2270.000000	18.056354
2260.000000	17.612342
2250.000000	17.097446
2240.000000	17.462884
2230.000000	18.196632
2220.000000	18.304136
2210.000000	17.141585
2200.000000	17.912599
2190.000000	17.616362
2180.000000	17.775111
2170.000000	17.880987
2160.000000	17.705080
2150.000000	18.101197
2140.000000	17.794144
2130.000000	17.533406
2120.000000	17.577317
2110.000000	17.638906
2100.000000	16.985343
2090.000000	17.554634
2080.000000	17.213818
2070.000000	17.189940
2060.000000	16.966738
2050.000000	17.221459
2040.000000	17.063620
2030.000000	17.300966
2020.000000	17.088483
2010.000000	16.879685
2000.000000	16.746238
1990.000000	16.599927
1980.000000	16.750415
1970.000000	16.622227
1960.000000	16.308975
1950.000000	16.706425
1940.000000	16.292138
1930.000000	16.429734
1920.000000	16.320443
1910.000000	16.128779
1900.000000	16.099413
1890.000000	15.869747
1880.000000	16.071998
1870.000000	16.047504
1860.000000	16.226764
1850.000000	16.150895
1840.000000	15.834615
1830.000000	15.929012
1820.000000	15.860222
1810.000000	15.772699
1800.000000	15.899935
1790.000000	15.718882
1780.000000	15.793677
1770.000000	15.725526
1760.000000	15.770434
1750.000000	15.593703
1740.000000	15.640556
1730.000000	15.625142
1720.000000	15.541654
1710.000000	15.473066
1700.000000	15.549398
1690.000000	15.371108
1680.000000	15.447379
1670.000000	15.336936
1660.000000	15.252395
1650.000000	15.148388
1640.000000	15.174433
1630.000000	15.274767
1620.000000	15.071695
1610.000000	15.054715
1600.000000	15.033355
1590.000000	15.008194
1580.000000	14.881260
1570.000000	14.754617
1560.000000	14.830694
1550.000000	14.807444
1540.000000	14.797201
1530.000000	14.754214
1520.000000	14.639488
1510.000000	14.568942
1500.000000	14.596908
1490.000000	14.592258
1480.000000	14.530927
1470.000000	14.562989
1460.000000	14.428387
1450.000000	14.329148
1440.000000	14.283018
1430.000000	14.220238
1420.000000	14.236395
1410.000000	14.244814
1400.000000	14.162971
1390.000000	14.161145
1380.000000	14.114625
1370.000000	14.087738
1360.000000	13.985105
1350.000000	13.976160
1340.000000	13.811437
1330.000000	13.953763
1320.000000	14.020823
1310.000000	13.997687
1300.000000	13.971029
1290.000000	13.821063
1280.000000	13.656275
1270.000000	13.707813
1260.000000	13.631864
1250.000000	13.638916
1240.000000	13.492368
1230.000000	13.498072
1220.000000	13.416246
1210.000000	13.429230
1200.000000	13.377115
1190.000000	13.411982
1180.000000	13.292607
1170.000000	13.289470
1160.000000	13.211357
1150.000000	13.336799
1140.000000	13.208965
1130.000000	13.108540
1120.000000	12.951195
1110.000000	12.955701
1100.000000	12.976561
1090.000000	12.933669
1080.000000	12.908913
1070.000000	12.863516
1060.000000	12.869969
1050.000000	12.880841
1040.000000	12.725720
1030.000000	12.683435
1020.000000	12.651407
1010.000000	12.636296
1000.000000	12.591718
990.000000	12.503051
980.000000	12.492807
970.000000	12.424712
960.000000	12.523134
950.000000	12.417509
940.000000	12.355663
930.000000	12.414894
920.000000	12.475692
910.000000	12.334220
900.000000	12.826359
890.000000	12.047482
880.000000	11.859977
870.000000	11.813649
860.000000	12.462426
850.000000	11.866787
840.000000	11.875470
830.000000	11.915010
820.000000	11.788966
810.000000	11.849884
800.000000	11.833628
790.000000	11.707173
780.000000	11.667846
770.000000	11.640720
760.000000	11.594990
750.000000	11.601139
740.000000	11.510668
730.000000	11.500796
720.000000	11.471653
710.000000	11.470222
700.000000	11.377158
690.000000	11.409740
680.000000	11.319215
670.000000	11.299065
660.000000	11.272301
650.000000	11.227259
640.000000	11.196391
630.000000	11.200050
620.000000	11.169101
610.000000	11.123860
600.000000	11.073520
590.000000	11.065257
580.000000	11.045727
570.000000	11.012321
560.000000	10.987715
550.000000	10.934428
540.000000	10.932114
530.000000	10.907680
520.000000	10.929645
510.000000	10.878450
500.000000	10.860768
490.000000	10.846909
480.000000	10.821387
470.000000	10.853818
460.000000	10.830537
450.000000	10.792430
440.000000	10.802652
430.000000	10.837395
420.000000	10.806914
410.000000	10.848528
400.000000	10.835644
390.000000	10.843525
380.000000	10.930221
370.000000	11.031995
360.000000	11.043105
350.000000	11.093236
340.000000	11.464993
330.000000	11.678620
320.000000	12.217502
310.000000	12.078094
300.000000	12.211526
290.000000	12.456404
280.000000	13.061186
270.000000	13.187246
260.000000	13.745617
250.000000	14.580230
