PE UV       SUBTECH     SPECTRUM    ASCII       PEDS        4.00        
   -1
SGRA10_2.Sample.asc
23/09/07
12:02:40.00
23/09/07
12:02:40.00
Administrator

250.000000
1
Lambda 750
750N8071901
PerkinElmer UV WinLab 6.0.4.0738 / 1.61.00 Lambda 900

0
0
3350/servo 860.8/2
0
0
UV/VIS
1
1
1
CommonBeamDepol,150mm sphere / downward view
0
0
0
0
Program
Program
3350/servo 860.8/2
3350/0.2 860.8/0.2
3350/0.2 860.8/0.2
0
1
 
 
 
0
 
860.8
319.2
860.8
Front
100
on
 
 
0
0
0
 
0
 
 
 
0
 
 
0
0
0
0
0
 
 
 
 
0
0


0
0
#HDR
-1
-1
#GR
nm
%R
1.0
0.0
2500.000000
-10.000000
226
8
81.755601
15.773589
#DATA
2500.000000	33.881382
2490.000000	33.546979
2480.000000	35.188135
2470.000000	36.894988
2460.000000	36.992610
2450.000000	37.592870
2440.000000	40.093226
2430.000000	40.963371
2420.000000	38.737441
2410.000000	40.860488
2400.000000	40.941062
2390.000000	40.996077
2380.000000	41.145433
2370.000000	40.157034
2360.000000	41.351294
2350.000000	41.298720
2340.000000	40.278876
2330.000000	40.437089
2320.000000	40.792572
2310.000000	38.930878
2300.000000	38.816300
2290.000000	40.093366
2280.000000	40.490565
2270.000000	41.992813
2260.000000	43.890242
2250.000000	45.197434
2240.000000	45.765386
2230.000000	45.441140
2220.000000	44.147085
2210.000000	43.929159
2200.000000	42.910595
2190.000000	43.622145
2180.000000	44.194074
2170.000000	45.881711
2160.000000	47.257851
2150.000000	47.703820
2140.000000	49.072937
2130.000000	48.806735
2120.000000	48.902502
2110.000000	48.637015
2100.000000	48.396913
2090.000000	46.888292
2080.000000	45.528132
2070.000000	44.023199
2060.000000	42.973859
2050.000000	43.784670
2040.000000	44.233391
2030.000000	43.880183
2020.000000	42.700306
2010.000000	41.625979
2000.000000	40.199371
1990.000000	38.613046
1980.000000	37.348297
1970.000000	36.590101
1960.000000	36.397348
1950.000000	36.686941
1940.000000	38.809625
1930.000000	41.982286
1920.000000	46.888535
1910.000000	53.057033
1900.000000	58.343025
1890.000000	62.543365
1880.000000	64.930924
1870.000000	65.849684
1860.000000	66.031919
1850.000000	66.004752
1840.000000	65.535445
1830.000000	65.214169
1820.000000	64.814544
1810.000000	64.522933
1800.000000	64.158427
1790.000000	63.734731
1780.000000	63.474378
1770.000000	63.121253
1760.000000	62.670292
1750.000000	62.338143
1740.000000	62.694874
1730.000000	63.744603
1720.000000	64.391187
1710.000000	64.805994
1700.000000	65.535065
1690.000000	67.041755
1680.000000	68.352525
1670.000000	68.851397
1660.000000	68.913854
1650.000000	68.598604
1640.000000	68.198281
1630.000000	67.622350
1620.000000	66.896933
1610.000000	66.201942
1600.000000	65.586555
1590.000000	65.001417
1580.000000	64.536119
1570.000000	64.187022
1560.000000	63.651833
1550.000000	62.679311
1540.000000	61.889533
1530.000000	61.363780
1520.000000	60.998689
1510.000000	60.685904
1500.000000	60.640261
1490.000000	60.793452
1480.000000	60.908550
1470.000000	61.344873
1460.000000	62.096058
1450.000000	63.208339
1440.000000	64.711726
1430.000000	66.665859
1420.000000	69.247822
1410.000000	71.862054
1400.000000	73.879593
1390.000000	75.054347
1380.000000	75.715981
1370.000000	76.241096
1360.000000	76.935268
1350.000000	77.428161
1340.000000	77.752978
1330.000000	78.168124
1320.000000	78.571140
1310.000000	78.703198
1300.000000	78.679426
1290.000000	78.800102
1280.000000	78.718042
1270.000000	78.757345
1260.000000	78.707071
1250.000000	78.614760
1240.000000	78.560660
1230.000000	78.280259
1220.000000	77.984932
1210.000000	77.739315
1200.000000	77.781431
1190.000000	78.144884
1180.000000	78.529758
1170.000000	79.209813
1160.000000	79.766954
1150.000000	80.162661
1140.000000	80.384263
1130.000000	80.457968
1120.000000	80.586193
1110.000000	80.686953
1100.000000	80.676035
1090.000000	80.648644
1080.000000	80.634069
1070.000000	80.596099
1060.000000	80.591372
1050.000000	80.578397
1040.000000	80.504931
1030.000000	80.435486
1020.000000	80.466505
1010.000000	80.617935
1000.000000	80.701980
990.000000	80.766929
980.000000	80.906713
970.000000	81.063413
960.000000	81.190920
950.000000	81.212416
940.000000	81.203571
930.000000	81.260849
920.000000	81.348295
910.000000	81.271920
900.000000	81.437244
890.000000	81.400892
880.000000	81.492912
870.000000	81.755601
860.000000	81.616358
850.000000	80.368276
840.000000	81.317376
830.000000	81.128351
820.000000	81.252042
810.000000	80.987420
800.000000	81.238211
790.000000	81.107387
780.000000	80.994105
770.000000	80.984655
760.000000	80.616300
750.000000	80.603156
740.000000	80.320096
730.000000	80.547988
720.000000	80.083974
710.000000	79.897396
700.000000	79.757136
690.000000	79.565402
680.000000	79.356610
670.000000	79.041138
660.000000	78.917002
650.000000	78.463183
640.000000	78.231266
630.000000	77.801660
620.000000	77.399402
610.000000	76.966354
600.000000	76.545419
590.000000	75.982048
580.000000	75.597079
570.000000	75.036785
560.000000	74.448677
550.000000	73.856159
540.000000	73.261892
530.000000	72.631054
520.000000	72.024132
510.000000	71.256712
500.000000	70.673767
490.000000	69.801759
480.000000	69.089980
470.000000	68.276461
460.000000	67.380715
450.000000	66.206214
440.000000	65.114646
430.000000	63.636344
420.000000	62.256402
410.000000	60.577810
400.000000	59.034801
390.000000	57.377283
380.000000	55.618492
370.000000	53.640592
360.000000	51.660774
350.000000	49.517787
340.000000	46.482050
330.000000	44.592633
320.000000	42.152330
310.000000	40.040548
300.000000	34.298798
290.000000	25.533569
280.000000	19.157207
270.000000	16.394156
260.000000	15.773589
250.000000	16.614355
