PE UV       SUBTECH     SPECTRUM    ASCII       PEDS        4.00        
   -1
Empty Chamber.Sample.asc
18/03/12
08:55:48.00
18/03/12
08:55:48.00
Administrator

200.000000
1
Lambda 750
750N8071901
PerkinElmer UV WinLab 6.0.4.0738 / 1.61.00 Lambda 900

0
0
3350/servo 860.8/2
0
0
UV/VIS
1
1
1
CommonBeamDepol,150mm sphere / downward view
0
0
0
0
Program
Program
3350/servo 860.8/2
3350/0.2 860.8/0.2
3350/0.2 860.8/0.2
0
1
 
 
 
0
 
860.8
319.2
860.8
Front
100
on
 
 
0
0
0
 
0
 
 
 
0
 
 
0
0
0
0
0
 
 
 
 
0
0


0
0
#HDR
-1
-1
#GR
nm
%T
1.0
0.0
2350.000000
-1.000000
2151
8
100.959186
99.526102
#DATA
2350.000000	100.001106
2349.000000	100.256060
2348.000000	100.263591
2347.000000	99.980452
2346.000000	100.069175
2345.000000	99.708841
2344.000000	100.001311
2343.000000	99.732275
2342.000000	99.681110
2341.000000	100.241560
2340.000000	100.118719
2339.000000	100.065530
2338.000000	99.856180
2337.000000	99.864554
2336.000000	99.800664
2335.000000	99.831977
2334.000000	99.908669
2333.000000	100.475428
2332.000000	100.085825
2331.000000	99.884655
2330.000000	100.007263
2329.000000	99.852621
2328.000000	99.981142
2327.000000	100.043645
2326.000000	100.170591
2325.000000	99.908697
2324.000000	100.187084
2323.000000	100.129490
2322.000000	99.663147
2321.000000	99.908335
2320.000000	100.071040
2319.000000	100.241511
2318.000000	100.001615
2317.000000	100.102133
2316.000000	99.894729
2315.000000	100.151740
2314.000000	100.198043
2313.000000	99.677324
2312.000000	100.079172
2311.000000	100.140027
2310.000000	100.084585
2309.000000	100.119847
2308.000000	100.036176
2307.000000	99.938238
2306.000000	100.120275
2305.000000	100.051211
2304.000000	100.063219
2303.000000	100.334179
2302.000000	100.062990
2301.000000	100.063837
2300.000000	100.010397
2299.000000	100.146636
2298.000000	99.903259
2297.000000	99.932951
2296.000000	100.176530
2295.000000	100.040605
2294.000000	99.851497
2293.000000	99.924367
2292.000000	99.897212
2291.000000	99.964526
2290.000000	100.074098
2289.000000	100.095673
2288.000000	99.990613
2287.000000	100.035527
2286.000000	99.876218
2285.000000	99.998889
2284.000000	100.090846
2283.000000	99.956297
2282.000000	100.019992
2281.000000	100.121950
2280.000000	100.007482
2279.000000	99.899542
2278.000000	99.758244
2277.000000	99.840369
2276.000000	100.018359
2275.000000	100.076471
2274.000000	99.905458
2273.000000	100.067794
2272.000000	100.263933
2271.000000	99.985153
2270.000000	99.940812
2269.000000	99.938973
2268.000000	100.052675
2267.000000	100.196276
2266.000000	100.145360
2265.000000	99.915542
2264.000000	99.943589
2263.000000	100.214429
2262.000000	100.136052
2261.000000	99.946795
2260.000000	100.010192
2259.000000	99.985063
2258.000000	100.031308
2257.000000	100.189206
2256.000000	100.035572
2255.000000	99.989902
2254.000000	99.967696
2253.000000	99.968214
2252.000000	100.009788
2251.000000	100.115858
2250.000000	100.116720
2249.000000	100.056514
2248.000000	100.107341
2247.000000	100.054521
2246.000000	99.996771
2245.000000	100.000202
2244.000000	99.951940
2243.000000	99.952664
2242.000000	99.933606
2241.000000	99.969091
2240.000000	100.083405
2239.000000	99.992621
2238.000000	99.886511
2237.000000	99.950962
2236.000000	100.100156
2235.000000	100.005560
2234.000000	99.974829
2233.000000	100.038108
2232.000000	100.009501
2231.000000	100.025260
2230.000000	100.107170
2229.000000	100.070119
2228.000000	100.073710
2227.000000	99.899992
2226.000000	99.832930
2225.000000	99.899600
2224.000000	99.870264
2223.000000	99.854173
2222.000000	99.917970
2221.000000	99.982422
2220.000000	99.995756
2219.000000	99.984332
2218.000000	99.897265
2217.000000	99.893992
2216.000000	99.995760
2215.000000	99.923138
2214.000000	99.911540
2213.000000	100.027480
2212.000000	99.957695
2211.000000	99.961830
2210.000000	99.950207
2209.000000	99.934236
2208.000000	99.996366
2207.000000	99.988289
2206.000000	100.081865
2205.000000	100.082241
2204.000000	99.991621
2203.000000	99.910400
2202.000000	99.922536
2201.000000	100.041755
2200.000000	99.983770
2199.000000	100.006559
2198.000000	100.126241
2197.000000	99.968739
2196.000000	100.024920
2195.000000	100.063996
2194.000000	99.877005
2193.000000	99.941796
2192.000000	99.989305
2191.000000	100.131897
2190.000000	100.200693
2189.000000	100.079022
2188.000000	100.009277
2187.000000	99.937197
2186.000000	99.841996
2185.000000	99.970992
2184.000000	99.880248
2183.000000	100.165048
2182.000000	100.082889
2181.000000	100.075479
2180.000000	100.051137
2179.000000	100.015222
2178.000000	100.058432
2177.000000	100.137881
2176.000000	100.062073
2175.000000	100.051375
2174.000000	100.044311
2173.000000	99.983995
2172.000000	99.966166
2171.000000	100.055042
2170.000000	100.102059
2169.000000	100.059230
2168.000000	99.918584
2167.000000	99.788858
2166.000000	99.903002
2165.000000	100.166184
2164.000000	100.085135
2163.000000	100.073241
2162.000000	100.028352
2161.000000	99.997587
2160.000000	100.022127
2159.000000	100.097770
2158.000000	100.013073
2157.000000	99.897982
2156.000000	99.980906
2155.000000	99.900995
2154.000000	100.038090
2153.000000	100.083116
2152.000000	99.922989
2151.000000	99.972376
2150.000000	100.133154
2149.000000	99.801423
2148.000000	99.981403
2147.000000	100.070787
2146.000000	100.268458
2145.000000	100.021026
2144.000000	100.141057
2143.000000	100.135518
2142.000000	99.924165
2141.000000	100.039271
2140.000000	100.051823
2139.000000	100.059335
2138.000000	99.939221
2137.000000	99.908194
2136.000000	99.884052
2135.000000	99.933529
2134.000000	99.901826
2133.000000	100.077230
2132.000000	100.083071
2131.000000	100.055268
2130.000000	100.066578
2129.000000	99.884876
2128.000000	99.840603
2127.000000	99.948547
2126.000000	99.860278
2125.000000	99.859721
2124.000000	100.029875
2123.000000	100.065341
2122.000000	99.967002
2121.000000	100.125713
2120.000000	100.098495
2119.000000	99.927307
2118.000000	100.008245
2117.000000	100.040562
2116.000000	100.011867
2115.000000	100.019811
2114.000000	99.927143
2113.000000	100.070582
2112.000000	100.036751
2111.000000	100.079791
2110.000000	100.073715
2109.000000	100.128865
2108.000000	100.112385
2107.000000	100.120740
2106.000000	100.113047
2105.000000	100.019741
2104.000000	99.747884
2103.000000	99.874494
2102.000000	99.999295
2101.000000	99.927706
2100.000000	99.987111
2099.000000	99.930687
2098.000000	99.947134
2097.000000	99.965444
2096.000000	99.907426
2095.000000	99.981868
2094.000000	100.162210
2093.000000	100.063910
2092.000000	100.032577
2091.000000	100.052744
2090.000000	100.023586
2089.000000	99.997984
2088.000000	100.084781
2087.000000	100.008775
2086.000000	99.949629
2085.000000	100.007057
2084.000000	99.969658
2083.000000	100.034288
2082.000000	99.973076
2081.000000	100.018858
2080.000000	100.126211
2079.000000	100.054462
2078.000000	100.021377
2077.000000	99.980943
2076.000000	100.017153
2075.000000	100.089121
2074.000000	99.927616
2073.000000	99.964110
2072.000000	99.959567
2071.000000	99.905567
2070.000000	99.972171
2069.000000	100.004036
2068.000000	100.004541
2067.000000	99.973461
2066.000000	99.934838
2065.000000	100.025332
2064.000000	100.079222
2063.000000	100.023313
2062.000000	100.019572
2061.000000	99.975187
2060.000000	100.068758
2059.000000	99.992834
2058.000000	99.995158
2057.000000	99.987180
2056.000000	99.988895
2055.000000	99.999798
2054.000000	100.028167
2053.000000	100.092147
2052.000000	100.062332
2051.000000	100.010398
2050.000000	100.005654
2049.000000	100.026872
2048.000000	100.019697
2047.000000	100.017774
2046.000000	100.093321
2045.000000	99.967094
2044.000000	99.908145
2043.000000	100.002626
2042.000000	99.987280
2041.000000	99.977278
2040.000000	99.926581
2039.000000	99.943330
2038.000000	100.012935
2037.000000	99.988684
2036.000000	99.962822
2035.000000	99.986461
2034.000000	100.061763
2033.000000	100.032242
2032.000000	99.986762
2031.000000	100.044482
2030.000000	99.991914
2029.000000	99.986862
2028.000000	100.004043
2027.000000	100.005155
2026.000000	100.039031
2025.000000	100.055931
2024.000000	100.012337
2023.000000	99.966230
2022.000000	99.942277
2021.000000	99.933714
2020.000000	99.983018
2019.000000	99.987462
2018.000000	99.999494
2017.000000	100.006979
2016.000000	99.984124
2015.000000	99.931256
2014.000000	99.980788
2013.000000	100.051997
2012.000000	99.989481
2011.000000	99.992108
2010.000000	99.978047
2009.000000	99.975519
2008.000000	100.015483
2007.000000	99.984213
2006.000000	99.954266
2005.000000	100.024296
2004.000000	100.067536
2003.000000	100.005567
2002.000000	100.015286
2001.000000	100.005467
2000.000000	99.952429
1999.000000	99.989777
1998.000000	100.043534
1997.000000	100.009516
1996.000000	99.985018
1995.000000	100.016404
1994.000000	99.998076
1993.000000	100.001823
1992.000000	99.977316
1991.000000	99.992405
1990.000000	99.993517
1989.000000	100.008205
1988.000000	99.977826
1987.000000	100.015698
1986.000000	99.983189
1985.000000	99.962320
1984.000000	100.020873
1983.000000	100.060107
1982.000000	100.043371
1981.000000	99.980652
1980.000000	99.967986
1979.000000	99.985108
1978.000000	100.002230
1977.000000	99.951173
1976.000000	99.963035
1975.000000	99.992604
1974.000000	100.038717
1973.000000	100.009624
1972.000000	99.991896
1971.000000	99.994733
1970.000000	99.980453
1969.000000	99.987037
1968.000000	100.002126
1967.000000	99.956865
1966.000000	99.989669
1965.000000	99.986224
1964.000000	99.984504
1963.000000	100.003748
1962.000000	100.031396
1961.000000	100.032103
1960.000000	99.988353
1959.000000	99.987544
1958.000000	99.995646
1957.000000	99.994126
1956.000000	100.004658
1955.000000	99.995747
1954.000000	99.993521
1953.000000	99.988258
1952.000000	100.052961
1951.000000	100.010022
1950.000000	99.946469
1949.000000	100.000810
1948.000000	100.027015
1947.000000	100.006577
1946.000000	100.028924
1945.000000	99.968947
1944.000000	100.035309
1943.000000	100.035423
1942.000000	100.038739
1941.000000	99.983917
1940.000000	99.979265
1939.000000	99.990294
1938.000000	100.010917
1937.000000	100.006165
1936.000000	100.015773
1935.000000	99.920169
1934.000000	99.931015
1933.000000	100.113939
1932.000000	99.981919
1931.000000	100.033337
1930.000000	100.056496
1929.000000	100.112296
1928.000000	100.030409
1927.000000	100.043239
1926.000000	100.014840
1925.000000	99.975260
1924.000000	100.002424
1923.000000	100.005855
1922.000000	99.955499
1921.000000	100.030998
1920.000000	99.901658
1919.000000	100.043851
1918.000000	99.927385
1917.000000	99.951751
1916.000000	100.041496
1915.000000	100.039487
1914.000000	100.030513
1913.000000	100.045059
1912.000000	99.973839
1911.000000	99.949988
1910.000000	99.988591
1909.000000	99.984649
1908.000000	100.033434
1907.000000	99.988480
1906.000000	99.939172
1905.000000	100.034459
1904.000000	99.998787
1903.000000	99.992018
1902.000000	99.984034
1901.000000	99.946865
1900.000000	100.048411
1899.000000	100.061690
1898.000000	99.935307
1897.000000	99.967958
1896.000000	100.003639
1895.000000	100.049866
1894.000000	99.932265
1893.000000	99.995146
1892.000000	100.030955
1891.000000	100.043805
1890.000000	99.996561
1889.000000	100.034289
1888.000000	100.021430
1887.000000	99.996463
1886.000000	99.962517
1885.000000	99.959097
1884.000000	99.959506
1883.000000	100.037074
1882.000000	100.010402
1881.000000	100.012320
1880.000000	99.989298
1879.000000	100.004745
1878.000000	100.050900
1877.000000	99.999798
1876.000000	99.978307
1875.000000	99.965189
1874.000000	100.024424
1873.000000	100.003330
1872.000000	100.037430
1871.000000	100.005852
1870.000000	100.000908
1869.000000	100.073482
1868.000000	100.008679
1867.000000	100.019981
1866.000000	100.045422
1865.000000	100.041583
1864.000000	99.966396
1863.000000	99.982839
1862.000000	100.016965
1861.000000	99.996567
1860.000000	100.025242
1859.000000	99.965666
1858.000000	100.005453
1857.000000	100.046958
1856.000000	100.009392
1855.000000	99.987582
1854.000000	99.988795
1853.000000	99.993033
1852.000000	99.975567
1851.000000	100.029180
1850.000000	99.995861
1849.000000	100.014638
1848.000000	100.040080
1847.000000	100.025141
1846.000000	100.016456
1845.000000	99.974470
1844.000000	99.972450
1843.000000	99.972650
1842.000000	99.982841
1841.000000	99.992834
1840.000000	100.009890
1839.000000	100.001918
1838.000000	99.996970
1837.000000	100.049996
1836.000000	100.041926
1835.000000	100.031623
1834.000000	100.051027
1833.000000	100.055583
1832.000000	100.039011
1831.000000	99.988882
1830.000000	99.983930
1829.000000	99.993733
1828.000000	100.005560
1827.000000	99.996057
1826.000000	99.988069
1825.000000	99.985946
1824.000000	99.982911
1823.000000	99.985538
1822.000000	99.997471
1821.000000	100.001821
1820.000000	100.046264
1819.000000	100.044747
1818.000000	100.020250
1817.000000	100.019746
1816.000000	100.019241
1815.000000	100.023092
1814.000000	100.017724
1813.000000	100.021979
1812.000000	100.026538
1811.000000	100.013977
1810.000000	99.999088
1809.000000	99.993111
1808.000000	99.986630
1807.000000	99.976199
1806.000000	100.002533
1805.000000	99.986020
1804.000000	99.966269
1803.000000	99.986019
1802.000000	99.995744
1801.000000	99.998987
1800.000000	100.002837
1799.000000	99.998480
1798.000000	99.993313
1797.000000	99.985611
1796.000000	100.008006
1795.000000	100.016621
1794.000000	100.000507
1793.000000	100.016218
1792.000000	100.005371
1791.000000	100.016624
1790.000000	100.027170
1789.000000	100.023821
1788.000000	100.008312
1787.000000	100.008516
1786.000000	100.025143
1785.000000	100.037211
1784.000000	100.022204
1783.000000	99.990370
1782.000000	99.978107
1781.000000	99.980745
1780.000000	99.975172
1779.000000	99.986620
1778.000000	99.974963
1777.000000	99.964022
1776.000000	99.973750
1775.000000	99.973853
1774.000000	99.994933
1773.000000	100.016220
1772.000000	99.996351
1771.000000	99.989357
1770.000000	99.999088
1769.000000	100.007399
1768.000000	100.004561
1767.000000	99.987231
1766.000000	99.978008
1765.000000	99.995439
1764.000000	99.997365
1763.000000	99.969288
1762.000000	100.015915
1761.000000	100.001622
1760.000000	100.008516
1759.000000	100.014090
1758.000000	100.024025
1757.000000	100.005676
1756.000000	100.025140
1755.000000	100.007703
1754.000000	99.998581
1753.000000	99.965347
1752.000000	99.960379
1751.000000	100.024225
1750.000000	100.008615
1749.000000	100.007095
1748.000000	100.009628
1747.000000	100.024127
1746.000000	100.024936
1745.000000	99.978010
1744.000000	100.001317
1743.000000	99.994730
1742.000000	99.982266
1741.000000	99.998885
1740.000000	100.003648
1739.000000	99.997467
1738.000000	100.007803
1737.000000	99.961400
1736.000000	99.975890
1735.000000	100.011352
1734.000000	100.023720
1733.000000	100.005878
1732.000000	99.983682
1731.000000	99.981054
1730.000000	99.981361
1729.000000	100.031725
1728.000000	100.035681
1727.000000	100.032335
1726.000000	99.999291
1725.000000	99.992602
1724.000000	99.995237
1723.000000	100.002026
1722.000000	99.966466
1721.000000	99.976194
1720.000000	100.007092
1719.000000	100.048148
1718.000000	99.980140
1717.000000	99.987840
1716.000000	100.008004
1715.000000	99.983283
1714.000000	99.985005
1713.000000	100.031218
1712.000000	100.006485
1711.000000	100.005573
1710.000000	100.031925
1709.000000	100.009931
1708.000000	99.979740
1707.000000	100.008513
1706.000000	99.992705
1705.000000	100.027971
1704.000000	99.992501
1703.000000	99.988854
1702.000000	99.943280
1701.000000	100.002331
1700.000000	100.025133
1699.000000	100.015300
1698.000000	100.014992
1697.000000	99.982982
1696.000000	99.977311
1695.000000	100.013880
1694.000000	99.995137
1693.000000	99.975486
1692.000000	100.008511
1691.000000	100.021581
1690.000000	99.985714
1689.000000	99.979435
1688.000000	100.025230
1687.000000	100.002330
1686.000000	100.008002
1685.000000	100.013776
1684.000000	100.011649
1683.000000	99.986528
1682.000000	99.988554
1681.000000	100.012360
1680.000000	100.028874
1679.000000	100.031310
1678.000000	100.006483
1677.000000	99.998177
1676.000000	99.997974
1675.000000	100.008611
1674.000000	99.961411
1673.000000	100.002330
1672.000000	99.999696
1671.000000	99.951898
1670.000000	99.968409
1669.000000	100.001519
1668.000000	99.989978
1667.000000	100.016001
1666.000000	99.987142
1665.000000	100.003139
1664.000000	100.013062
1663.000000	99.972462
1662.000000	99.997975
1661.000000	100.004354
1660.000000	99.999595
1659.000000	99.990990
1658.000000	99.993217
1657.000000	99.995039
1656.000000	100.004354
1655.000000	99.976513
1654.000000	99.971661
1653.000000	99.985524
1652.000000	99.966187
1651.000000	99.999291
1650.000000	100.005670
1649.000000	99.990584
1648.000000	99.989875
1647.000000	99.993520
1646.000000	100.006481
1645.000000	99.997874
1644.000000	100.006784
1643.000000	100.020862
1642.000000	100.017112
1641.000000	99.999494
1640.000000	100.000506
1639.000000	100.020048
1638.000000	100.017819
1637.000000	99.989472
1636.000000	99.981980
1635.000000	100.009922
1634.000000	100.002430
1633.000000	100.005467
1632.000000	99.992813
1631.000000	99.996254
1630.000000	100.017920
1629.000000	100.000911
1628.000000	99.987547
1627.000000	99.991597
1626.000000	99.986838
1625.000000	99.990889
1624.000000	99.984207
1623.000000	99.972669
1622.000000	100.004353
1621.000000	100.004353
1620.000000	99.992914
1619.000000	99.995445
1618.000000	99.988765
1617.000000	99.992711
1616.000000	99.997469
1615.000000	99.986334
1614.000000	100.001316
1613.000000	100.008706
1612.000000	99.990789
1611.000000	100.011034
1610.000000	99.986134
1609.000000	99.992509
1608.000000	100.018425
1607.000000	100.005061
1606.000000	99.993725
1605.000000	99.990890
1604.000000	99.971558
1603.000000	99.993016
1602.000000	100.009414
1601.000000	99.996558
1600.000000	100.013869
1599.000000	100.022779
1598.000000	100.009415
1597.000000	100.002227
1596.000000	99.991802
1595.000000	99.986843
1594.000000	99.989170
1593.000000	99.988260
1592.000000	99.990689
1591.000000	99.994333
1590.000000	100.009919
1589.000000	100.005669
1588.000000	99.992712
1587.000000	99.999494
1586.000000	100.014375
1585.000000	100.020652
1584.000000	100.009921
1583.000000	100.005466
1582.000000	99.998684
1581.000000	99.989070
1580.000000	100.002024
1579.000000	100.006781
1578.000000	99.994434
1577.000000	99.986034
1576.000000	100.002227
1575.000000	100.020547
1574.000000	100.014980
1573.000000	99.998077
1572.000000	100.004352
1571.000000	99.994130
1570.000000	99.969442
1569.000000	99.978041
1568.000000	99.999393
1567.000000	100.004756
1566.000000	99.990185
1565.000000	99.981483
1564.000000	99.996661
1563.000000	99.995851
1562.000000	99.991703
1561.000000	99.992412
1560.000000	100.009815
1559.000000	100.002125
1558.000000	99.991197
1557.000000	99.996256
1556.000000	99.993423
1555.000000	99.997571
1554.000000	99.987758
1553.000000	99.966718
1552.000000	99.987152
1551.000000	99.992008
1550.000000	99.996054
1549.000000	100.020539
1548.000000	100.033899
1547.000000	100.014266
1546.000000	100.002428
1545.000000	99.986443
1544.000000	99.994334
1543.000000	99.990389
1542.000000	99.991906
1541.000000	100.010117
1540.000000	100.011230
1539.000000	100.020538
1538.000000	99.999494
1537.000000	99.993930
1536.000000	99.984220
1535.000000	100.008396
1534.000000	100.015073
1533.000000	99.996459
1532.000000	100.003238
1531.000000	99.988770
1530.000000	99.992918
1529.000000	100.004856
1528.000000	100.012142
1527.000000	100.027929
1526.000000	100.038664
1525.000000	100.012445
1524.000000	100.000708
1523.000000	100.010927
1522.000000	100.005058
1521.000000	99.993222
1520.000000	100.034000
1519.000000	99.984822
1518.000000	100.002226
1517.000000	99.978146
1516.000000	100.031881
1515.000000	99.993423
1514.000000	100.004553
1513.000000	100.005566
1512.000000	100.000000
1511.000000	100.020345
1510.000000	99.982597
1509.000000	100.010524
1508.000000	99.985225
1507.000000	99.985027
1506.000000	99.983915
1505.000000	100.006981
1504.000000	99.999089
1503.000000	100.005059
1502.000000	99.991094
1501.000000	99.997065
1500.000000	99.999393
1499.000000	100.008601
1498.000000	99.986644
1497.000000	99.981690
1496.000000	99.986544
1495.000000	100.009107
1494.000000	99.980879
1493.000000	99.996763
1492.000000	100.011231
1491.000000	100.019730
1490.000000	99.984319
1489.000000	99.983309
