PE UV       SUBTECH     SPECTRUM    ASCII       PEDS        4.00        
   -1
RDgAgneauUK 12 .Sample.asc
18/03/12
14:16:28.00
18/03/12
14:16:28.00
Administrator

200.000000
1
Lambda 750
750N8071901
PerkinElmer UV WinLab 6.0.4.0738 / 1.61.00 Lambda 900

0
0
3350/servo 860.8/2
0
0
UV/VIS
1
1
1
CommonBeamDepol,150mm sphere / downward view
0
0
0
0
Program
Program
3350/servo 860.8/2
3350/0.2 860.8/0.2
3350/0.2 860.8/0.2
0
1
 
 
 
0
 
860.8
319.2
860.8
Front
100
on
 
 
0
0
0
 
0
 
 
 
0
 
 
0
0
0
0
0
 
 
 
 
0
0


0
0
#HDR
-1
-1
#GR
nm
%R
1.0
0.0
2350.000000
-1.000000
2151
8
72.765938
15.826444
#DATA
2350.000000	30.713175
2349.000000	30.681470
2348.000000	30.852866
2347.000000	31.403081
2346.000000	30.627305
2345.000000	30.482716
2344.000000	30.679518
2343.000000	30.493137
2342.000000	30.546689
2341.000000	31.046717
2340.000000	31.047161
2339.000000	31.012707
2338.000000	31.099388
2337.000000	31.133538
2336.000000	31.162282
2335.000000	31.460966
2334.000000	31.682467
2333.000000	31.641958
2332.000000	31.466634
2331.000000	31.423760
2330.000000	31.594864
2329.000000	31.378912
2328.000000	31.571097
2327.000000	31.388426
2326.000000	31.594092
2325.000000	31.261199
2324.000000	31.502934
2323.000000	31.141751
2322.000000	30.878142
2321.000000	30.839130
2320.000000	31.027318
2319.000000	31.012558
2318.000000	30.928488
2317.000000	31.260136
2316.000000	30.814382
2315.000000	30.753216
2314.000000	30.572385
2313.000000	30.545506
2312.000000	30.554748
2311.000000	30.305737
2310.000000	30.615035
2309.000000	30.552553
2308.000000	30.117461
2307.000000	30.212119
2306.000000	30.119841
2305.000000	30.178542
2304.000000	30.049374
2303.000000	29.975518
2302.000000	29.932528
2301.000000	29.807135
2300.000000	29.582508
2299.000000	29.452991
2298.000000	29.513941
2297.000000	29.419801
2296.000000	29.379738
2295.000000	29.080019
2294.000000	28.992366
2293.000000	29.061607
2292.000000	28.825293
2291.000000	28.661682
2290.000000	28.878433
2289.000000	28.805231
2288.000000	28.683860
2287.000000	28.590605
2286.000000	28.377173
2285.000000	28.309798
2284.000000	28.236309
2283.000000	28.331776
2282.000000	28.255086
2281.000000	28.213913
2280.000000	28.444458
2279.000000	28.454716
2278.000000	28.519105
2277.000000	28.335730
2276.000000	28.226679
2275.000000	28.662975
2274.000000	28.666691
2273.000000	28.636210
2272.000000	28.708678
2271.000000	28.746596
2270.000000	28.795326
2269.000000	28.852643
2268.000000	28.926905
2267.000000	29.088059
2266.000000	29.178342
2265.000000	29.264860
2264.000000	29.332238
2263.000000	29.257557
2262.000000	29.371666
2261.000000	29.630422
2260.000000	29.946187
2259.000000	30.191347
2258.000000	30.413644
2257.000000	30.541602
2256.000000	30.799485
2255.000000	30.941311
2254.000000	31.048198
2253.000000	31.297597
2252.000000	31.581874
2251.000000	31.975494
2250.000000	32.229379
2249.000000	32.319725
2248.000000	32.441554
2247.000000	32.768870
2246.000000	33.091531
2245.000000	33.331920
2244.000000	33.562662
2243.000000	33.746170
2242.000000	33.946118
2241.000000	34.097133
2240.000000	34.165634
2239.000000	34.288146
2238.000000	34.464582
2237.000000	34.660926
2236.000000	34.824246
2235.000000	34.972009
2234.000000	35.157601
2233.000000	35.198446
2232.000000	35.267233
2231.000000	35.401153
2230.000000	35.434774
2229.000000	35.448720
2228.000000	35.501109
2227.000000	35.464648
2226.000000	35.517908
2225.000000	35.470059
2224.000000	35.383297
2223.000000	35.394571
2222.000000	35.391735
2221.000000	35.331900
2220.000000	35.399973
2219.000000	35.359829
2218.000000	35.255909
2217.000000	35.181108
2216.000000	35.083085
2215.000000	35.036278
2214.000000	35.010578
2213.000000	35.057764
2212.000000	34.903839
2211.000000	34.783904
2210.000000	34.666793
2209.000000	34.578244
2208.000000	34.501390
2207.000000	34.428947
2206.000000	34.311946
2205.000000	34.362901
2204.000000	34.203736
2203.000000	34.048691
2202.000000	33.999237
2201.000000	33.896994
2200.000000	33.757307
2199.000000	33.587031
2198.000000	33.580132
2197.000000	33.693000
2196.000000	33.488703
2195.000000	33.386832
2194.000000	33.139096
2193.000000	33.101662
2192.000000	33.105164
2191.000000	33.066341
2190.000000	32.914112
2189.000000	32.881272
2188.000000	32.791826
2187.000000	32.662364
2186.000000	32.505350
2185.000000	32.445880
2184.000000	32.359269
2183.000000	32.449073
2182.000000	32.481083
2181.000000	32.376021
2180.000000	32.405244
2179.000000	32.243694
2178.000000	32.174196
2177.000000	32.187284
2176.000000	32.249268
2175.000000	32.157478
2174.000000	32.341339
2173.000000	32.231805
2172.000000	32.311392
2171.000000	32.563515
2170.000000	32.513442
2169.000000	32.555462
2168.000000	32.833746
2167.000000	32.721312
2166.000000	32.718139
2165.000000	33.056227
2164.000000	33.144547
2163.000000	33.232291
2162.000000	33.216271
2161.000000	33.409638
2160.000000	33.525935
2159.000000	33.656651
2158.000000	33.889856
2157.000000	33.902464
2156.000000	34.077212
2155.000000	34.454651
2154.000000	34.672419
2153.000000	34.897387
2152.000000	34.837967
2151.000000	35.029477
2150.000000	35.120256
2149.000000	35.314917
2148.000000	35.481413
2147.000000	35.798668
2146.000000	35.941072
2145.000000	36.069545
2144.000000	36.243684
2143.000000	36.298372
2142.000000	36.549228
2141.000000	36.842972
2140.000000	36.826739
2139.000000	36.897499
2138.000000	37.314497
2137.000000	37.289983
2136.000000	37.255306
2135.000000	37.465384
2134.000000	37.577311
2133.000000	37.565141
2132.000000	37.751851
2131.000000	37.845790
2130.000000	38.224290
2129.000000	37.944019
2128.000000	37.946315
2127.000000	38.149333
2126.000000	38.167071
2125.000000	38.137600
2124.000000	38.462838
2123.000000	38.241071
2122.000000	38.339567
2121.000000	38.393917
2120.000000	38.397018
2119.000000	38.627319
2118.000000	38.608247
2117.000000	38.517863
2116.000000	38.701771
2115.000000	38.720727
2114.000000	38.581135
2113.000000	38.676785
2112.000000	38.742998
2111.000000	38.754549
2110.000000	38.740307
2109.000000	38.839709
2108.000000	38.874259
2107.000000	38.912551
2106.000000	38.911850
2105.000000	38.877631
2104.000000	38.915661
2103.000000	38.899295
2102.000000	38.978817
2101.000000	38.994891
2100.000000	38.949498
2099.000000	38.804772
2098.000000	38.865398
2097.000000	38.859001
2096.000000	38.811542
2095.000000	38.896533
2094.000000	38.878594
2093.000000	38.835026
2092.000000	38.949924
2091.000000	38.848813
2090.000000	38.810422
2089.000000	38.843873
2088.000000	38.777152
2087.000000	38.901032
2086.000000	38.663548
2085.000000	38.610401
2084.000000	38.511320
2083.000000	38.444503
2082.000000	38.252529
2081.000000	38.249047
2080.000000	38.130386
2079.000000	37.994758
2078.000000	37.934352
2077.000000	37.856770
2076.000000	37.732681
2075.000000	37.598343
2074.000000	37.501147
2073.000000	37.332043
2072.000000	37.173187
2071.000000	36.982017
2070.000000	36.859496
2069.000000	36.675394
2068.000000	36.516773
2067.000000	36.347904
2066.000000	36.126096
2065.000000	35.976444
2064.000000	35.799686
2063.000000	35.589057
2062.000000	35.369920
2061.000000	35.164842
2060.000000	35.075901
2059.000000	34.960566
2058.000000	34.657180
2057.000000	34.411290
2056.000000	34.251172
2055.000000	34.115479
2054.000000	33.955399
2053.000000	33.797133
2052.000000	33.647820
2051.000000	33.381656
2050.000000	33.254713
2049.000000	33.220626
2048.000000	33.040610
2047.000000	32.983040
2046.000000	32.877974
2045.000000	32.791960
2044.000000	32.782806
2043.000000	32.681586
2042.000000	32.647983
2041.000000	32.769184
2040.000000	32.783011
2039.000000	32.747511
2038.000000	32.838751
2037.000000	32.937458
2036.000000	33.016812
2035.000000	33.091049
2034.000000	33.147437
2033.000000	33.239674
2032.000000	33.406362
2031.000000	33.520631
2030.000000	33.651038
2029.000000	33.798148
2028.000000	33.902181
2027.000000	34.030710
2026.000000	34.150702
2025.000000	34.252737
2024.000000	34.320345
2023.000000	34.358273
2022.000000	34.403653
2021.000000	34.438671
2020.000000	34.540014
2019.000000	34.575935
2018.000000	34.605657
2017.000000	34.630537
2016.000000	34.552767
2015.000000	34.532741
2014.000000	34.551696
2013.000000	34.521873
2012.000000	34.446567
2011.000000	34.437410
2010.000000	34.342965
2009.000000	34.212683
2008.000000	34.138095
2007.000000	34.084879
2006.000000	33.963822
2005.000000	33.850119
2004.000000	33.762276
2003.000000	33.643479
2002.000000	33.525672
2001.000000	33.386891
2000.000000	33.218387
1999.000000	33.121483
1998.000000	32.968832
1997.000000	32.840517
1996.000000	32.731401
1995.000000	32.599188
1994.000000	32.458270
1993.000000	32.324598
1992.000000	32.154195
1991.000000	32.032697
1990.000000	31.913053
1989.000000	31.734455
1988.000000	31.620609
1987.000000	31.478269
1986.000000	31.339854
1985.000000	31.216207
1984.000000	31.065761
1983.000000	30.918973
1982.000000	30.778273
1981.000000	30.669436
1980.000000	30.507013
1979.000000	30.304099
1978.000000	30.193335
1977.000000	30.074254
1976.000000	29.919325
1975.000000	29.768420
1974.000000	29.654183
1973.000000	29.514622
1972.000000	29.392692
1971.000000	29.260612
1970.000000	29.136743
1969.000000	29.005018
1968.000000	28.863771
1967.000000	28.737401
1966.000000	28.605663
1965.000000	28.500887
1964.000000	28.371438
1963.000000	28.219702
1962.000000	28.118639
1961.000000	27.950872
1960.000000	27.865907
1959.000000	27.716684
1958.000000	27.600885
1957.000000	27.517318
1956.000000	27.431888
1955.000000	27.391834
1954.000000	27.274209
1953.000000	27.198854
1952.000000	27.096179
1951.000000	27.096380
1950.000000	26.999571
1949.000000	26.974666
1948.000000	26.850691
1947.000000	26.808297
1946.000000	26.779449
1945.000000	26.805106
1944.000000	26.768555
1943.000000	26.875555
1942.000000	26.897184
1941.000000	26.839837
1940.000000	26.949068
1939.000000	27.022811
1938.000000	27.093052
1937.000000	27.160320
1936.000000	27.241274
1935.000000	27.302005
1934.000000	27.496505
1933.000000	27.598091
1932.000000	27.785471
1931.000000	27.971108
1930.000000	28.094841
1929.000000	28.357723
1928.000000	28.622289
1927.000000	28.845612
1926.000000	29.028334
1925.000000	29.199851
1924.000000	29.581613
1923.000000	29.963922
1922.000000	30.261620
1921.000000	30.562960
1920.000000	30.890935
1919.000000	31.220503
1918.000000	31.522008
1917.000000	32.027621
1916.000000	32.297759
1915.000000	32.767121
1914.000000	33.278841
1913.000000	33.783280
1912.000000	34.179063
1911.000000	34.617048
1910.000000	35.197705
1909.000000	35.776628
1908.000000	36.344096
1907.000000	36.977132
1906.000000	37.478781
1905.000000	38.103255
1904.000000	38.691769
1903.000000	39.315833
1902.000000	39.976435
1901.000000	40.598546
1900.000000	41.311271
1899.000000	41.994407
1898.000000	42.667151
1897.000000	43.282703
1896.000000	43.928821
1895.000000	44.578005
1894.000000	45.217686
1893.000000	45.878197
1892.000000	46.574961
1891.000000	47.116691
1890.000000	47.767006
1889.000000	48.353121
1888.000000	48.879782
1887.000000	49.449686
1886.000000	50.008638
1885.000000	50.505126
1884.000000	51.032635
1883.000000	51.566200
1882.000000	52.006431
1881.000000	52.504128
1880.000000	52.942358
1879.000000	53.364553
1878.000000	53.815033
1877.000000	54.244292
1876.000000	54.605799
1875.000000	54.991444
1874.000000	55.338394
1873.000000	55.622274
1872.000000	55.946803
1871.000000	56.218363
1870.000000	56.423920
1869.000000	56.731495
1868.000000	56.964985
1867.000000	57.082065
1866.000000	57.300247
1865.000000	57.412802
1864.000000	57.530665
1863.000000	57.679204
1862.000000	57.820291
1861.000000	57.861790
1860.000000	58.002627
1859.000000	58.109750
1858.000000	58.163328
1857.000000	58.212328
1856.000000	58.289842
1855.000000	58.353097
1854.000000	58.432893
1853.000000	58.493980
1852.000000	58.495890
1851.000000	58.504734
1850.000000	58.509174
1849.000000	58.511522
1848.000000	58.526162
1847.000000	58.567776
1846.000000	58.537304
1845.000000	58.491946
1844.000000	58.466679
1843.000000	58.472370
1842.000000	58.497898
1841.000000	58.467633
1840.000000	58.396200
1839.000000	58.368907
1838.000000	58.351722
1837.000000	58.291241
1836.000000	58.248370
1835.000000	58.206119
1834.000000	58.137105
1833.000000	58.101012
1832.000000	58.047338
1831.000000	57.981082
1830.000000	57.925611
1829.000000	57.874974
1828.000000	57.849064
1827.000000	57.797863
1826.000000	57.757129
1825.000000	57.738776
1824.000000	57.679299
1823.000000	57.653479
1822.000000	57.615426
1821.000000	57.575472
1820.000000	57.559944
1819.000000	57.510478
1818.000000	57.478252
1817.000000	57.429954
1816.000000	57.362882
1815.000000	57.326028
1814.000000	57.290150
1813.000000	57.223161
1812.000000	57.166863
1811.000000	57.139442
1810.000000	57.104004
1809.000000	57.071324
1808.000000	57.013673
1807.000000	56.931758
1806.000000	56.906033
1805.000000	56.860741
1804.000000	56.794569
1803.000000	56.772247
1802.000000	56.727044
1801.000000	56.690601
1800.000000	56.668524
1799.000000	56.617595
1798.000000	56.583548
1797.000000	56.569166
1796.000000	56.542691
1795.000000	56.487255
1794.000000	56.462827
1793.000000	56.436171
1792.000000	56.378896
1791.000000	56.351891
1790.000000	56.319275
1789.000000	56.274854
1788.000000	56.241751
1787.000000	56.227190
1786.000000	56.207597
1785.000000	56.180883
1784.000000	56.133668
1783.000000	56.106315
1782.000000	56.058803
1781.000000	56.001812
1780.000000	55.972521
1779.000000	55.943108
1778.000000	55.890590
1777.000000	55.791141
1776.000000	55.729680
1775.000000	55.686222
1774.000000	55.619139
1773.000000	55.586058
1772.000000	55.513139
1771.000000	55.463341
1770.000000	55.390011
1769.000000	55.307896
1768.000000	55.255900
1767.000000	55.193423
1766.000000	55.140294
1765.000000	55.094629
1764.000000	55.066168
1763.000000	54.994243
1762.000000	54.917656
1761.000000	54.861172
1760.000000	54.824304
1759.000000	54.762168
1758.000000	54.719703
1757.000000	54.636772
1756.000000	54.587625
1755.000000	54.531458
1754.000000	54.448269
1753.000000	54.402963
1752.000000	54.371505
1751.000000	54.316140
1750.000000	54.245628
1749.000000	54.214721
1748.000000	54.130042
1747.000000	54.066482
1746.000000	54.019886
1745.000000	53.915921
1744.000000	53.819300
1743.000000	53.773762
1742.000000	53.677252
1741.000000	53.663945
1740.000000	53.593880
1739.000000	53.543215
1738.000000	53.496442
1737.000000	53.481316
1736.000000	53.418463
1735.000000	53.423423
1734.000000	53.412878
1733.000000	53.405584
1732.000000	53.409482
1731.000000	53.404788
1730.000000	53.406256
1729.000000	53.477206
1728.000000	53.535230
1727.000000	53.581279
1726.000000	53.667287
1725.000000	53.744438
1724.000000	53.847666
1723.000000	53.948879
1722.000000	54.005600
1721.000000	54.133861
1720.000000	54.274124
1719.000000	54.449942
1718.000000	54.532521
1717.000000	54.665918
1716.000000	54.765965
1715.000000	54.891615
1714.000000	54.999853
1713.000000	55.144104
1712.000000	55.223105
1711.000000	55.298785
1710.000000	55.413430
1709.000000	55.447436
1708.000000	55.522205
1707.000000	55.588581
1706.000000	55.631092
1705.000000	55.703540
1704.000000	55.747388
1703.000000	55.739371
1702.000000	55.735269
1701.000000	55.772927
1700.000000	55.850222
1699.000000	55.809509
1698.000000	55.840249
1697.000000	55.894341
1696.000000	55.901557
1695.000000	55.927510
1694.000000	55.962415
1693.000000	56.006523
1692.000000	56.087135
1691.000000	56.153576
1690.000000	56.234562
1689.000000	56.327542
1688.000000	56.435291
1687.000000	56.507895
1686.000000	56.664398
1685.000000	56.799813
1684.000000	56.981518
1683.000000	57.128720
1682.000000	57.278903
1681.000000	57.502325
1680.000000	57.673409
1679.000000	57.869826
1678.000000	58.045011
1677.000000	58.232814
1676.000000	58.439342
1675.000000	58.652361
1674.000000	58.837578
1673.000000	59.041445
1672.000000	59.236626
1671.000000	59.395899
1670.000000	59.559916
1669.000000	59.770134
1668.000000	59.898200
1667.000000	60.092177
1666.000000	60.191315
1665.000000	60.314148
1664.000000	60.424196
1663.000000	60.481207
1662.000000	60.574784
1661.000000	60.672930
1660.000000	60.768381
1659.000000	60.838890
1658.000000	60.866849
1657.000000	60.937517
1656.000000	60.997768
1655.000000	61.022946
1654.000000	61.012621
1653.000000	61.041959
1652.000000	61.067940
1651.000000	61.070145
1650.000000	61.053732
1649.000000	61.049179
1648.000000	61.033742
1647.000000	61.043057
1646.000000	61.044615
1645.000000	61.001472
1644.000000	60.984927
1643.000000	60.975644
1642.000000	60.923097
1641.000000	60.893421
1640.000000	60.877712
1639.000000	60.843103
1638.000000	60.796765
1637.000000	60.762058
1636.000000	60.701252
1635.000000	60.654128
1634.000000	60.614277
1633.000000	60.548771
1632.000000	60.495663
1631.000000	60.465024
1630.000000	60.413083
1629.000000	60.368847
1628.000000	60.314463
1627.000000	60.252422
1626.000000	60.199842
1625.000000	60.144405
1624.000000	60.082912
1623.000000	60.014374
1622.000000	59.958049
1621.000000	59.884973
1620.000000	59.812766
1619.000000	59.746324
1618.000000	59.688359
1617.000000	59.636016
1616.000000	59.567957
1615.000000	59.490196
1614.000000	59.428518
1613.000000	59.342405
1612.000000	59.262270
1611.000000	59.194748
1610.000000	59.116434
1609.000000	59.044990
1608.000000	58.991229
1607.000000	58.897332
1606.000000	58.800929
1605.000000	58.728838
1604.000000	58.639642
1603.000000	58.556558
1602.000000	58.479384
1601.000000	58.401583
1600.000000	58.335940
1599.000000	58.259108
1598.000000	58.181030
1597.000000	58.103988
1596.000000	58.021872
1595.000000	57.957801
1594.000000	57.891695
1593.000000	57.827694
1592.000000	57.756065
1591.000000	57.676504
1590.000000	57.612779
1589.000000	57.548491
1588.000000	57.476170
1587.000000	57.413535
1586.000000	57.362717
1585.000000	57.292109
1584.000000	57.217031
1583.000000	57.156233
1582.000000	57.079977
1581.000000	57.025110
1580.000000	56.990590
1579.000000	56.932219
1578.000000	56.855346
1577.000000	56.785363
1576.000000	56.732326
1575.000000	56.684987
1574.000000	56.602945
1573.000000	56.537985
1572.000000	56.486121
1571.000000	56.424085
1570.000000	56.341572
1569.000000	56.292627
1568.000000	56.255136
1567.000000	56.196487
1566.000000	56.140921
1565.000000	56.104220
1564.000000	56.065396
1563.000000	56.035624
1562.000000	55.987797
1561.000000	55.953607
1560.000000	55.936999
1559.000000	55.896757
1558.000000	55.857546
1557.000000	55.830024
1556.000000	55.787984
1555.000000	55.753527
1554.000000	55.709069
1553.000000	55.669486
1552.000000	55.625598
1551.000000	55.597248
1550.000000	55.551160
1549.000000	55.500752
1548.000000	55.452881
1547.000000	55.363109
1546.000000	55.295811
1545.000000	55.216027
1544.000000	55.129011
1543.000000	55.056209
1542.000000	54.943997
1541.000000	54.842806
1540.000000	54.738789
1539.000000	54.624875
1538.000000	54.514278
1537.000000	54.415426
1536.000000	54.300145
1535.000000	54.191561
1534.000000	54.087430
1533.000000	53.969405
1532.000000	53.873369
1531.000000	53.767697
1530.000000	53.650578
1529.000000	53.547711
1528.000000	53.463606
1527.000000	53.385313
1526.000000	53.328246
1525.000000	53.232377
1524.000000	53.140670
1523.000000	53.061753
1522.000000	52.993618
1521.000000	52.923146
1520.000000	52.865247
1519.000000	52.832052
1518.000000	52.783595
1517.000000	52.702621
1516.000000	52.689381
1515.000000	52.630945
1514.000000	52.584610
1513.000000	52.540239
1512.000000	52.500544
1511.000000	52.479250
1510.000000	52.413594
1509.000000	52.394579
1508.000000	52.377757
1507.000000	52.321285
1506.000000	52.292836
1505.000000	52.280502
1504.000000	52.272187
1503.000000	52.236610
1502.000000	52.232901
1501.000000	52.199470
1500.000000	52.184713
1499.000000	52.171484
1498.000000	52.151631
1497.000000	52.141255
1496.000000	52.133406
1495.000000	52.142378
1494.000000	52.131841
1493.000000	52.165674
1492.000000	52.158389
1491.000000	52.193630
1490.000000	52.225874
1489.000000	52.222795
1488.000000	52.243889
1487.000000	52.268532
1486.000000	52.308838
1485.000000	52.322738
1484.000000	52.363891
1483.000000	52.408393
1482.000000	52.426874
1481.000000	52.477301
1480.000000	52.532427
1479.000000	52.561333
1478.000000	52.603746
1477.000000	52.640589
1476.000000	52.667516
1475.000000	52.735531
1474.000000	52.763183
1473.000000	52.800658
1472.000000	52.840568
1471.000000	52.887033
1470.000000	52.918920
