PE UV       SUBTECH     SPECTRUM    ASCII       PEDS        4.00        
   -1
RDgAgneauUK 52.Sample.asc
18/03/12
15:04:25.00
18/03/12
15:04:25.00
Administrator

200.000000
1
Lambda 750
750N8071901
PerkinElmer UV WinLab 6.0.4.0738 / 1.61.00 Lambda 900

0
0
3350/servo 860.8/2
0
0
UV/VIS
1
1
1
CommonBeamDepol,150mm sphere / downward view
0
0
0
0
Program
Program
3350/servo 860.8/2
3350/0.2 860.8/0.2
3350/0.2 860.8/0.2
0
1
 
 
 
0
 
860.8
319.2
860.8
Front
100
on
 
 
0
0
0
 
0
 
 
 
0
 
 
0
0
0
0
0
 
 
 
 
0
0


0
0
#HDR
-1
-1
#GR
nm
%R
1.0
0.0
2350.000000
-1.000000
2151
8
73.451646
15.137533
#DATA
2350.000000	26.032340
2349.000000	25.973673
2348.000000	26.090870
2347.000000	26.649799
2346.000000	26.342888
2345.000000	25.736348
2344.000000	26.165640
2343.000000	26.052530
2342.000000	25.966375
2341.000000	26.031384
2340.000000	26.134220
2339.000000	26.611427
2338.000000	26.694544
2337.000000	26.750474
2336.000000	26.659576
2335.000000	26.901704
2334.000000	26.955528
2333.000000	26.971981
2332.000000	27.138101
2331.000000	26.919152
2330.000000	26.797976
2329.000000	26.553740
2328.000000	26.810811
2327.000000	26.931695
2326.000000	26.589785
2325.000000	26.780266
2324.000000	26.899498
2323.000000	26.479303
2322.000000	26.262343
2321.000000	26.305928
2320.000000	26.578828
2319.000000	26.407407
2318.000000	26.308862
2317.000000	26.412069
2316.000000	26.343817
2315.000000	26.098344
2314.000000	26.422369
2313.000000	25.982792
2312.000000	25.934005
2311.000000	25.969230
2310.000000	25.739034
2309.000000	25.824760
2308.000000	25.720239
2307.000000	25.710586
2306.000000	25.895170
2305.000000	25.874277
2304.000000	25.711998
2303.000000	25.492843
2302.000000	25.365976
2301.000000	25.230854
2300.000000	25.035608
2299.000000	25.244814
2298.000000	25.110197
2297.000000	24.738265
2296.000000	24.809181
2295.000000	24.534353
2294.000000	24.629473
2293.000000	24.121437
2292.000000	24.059123
2291.000000	24.157725
2290.000000	24.270667
2289.000000	24.199334
2288.000000	24.237105
2287.000000	24.149621
2286.000000	23.910732
2285.000000	23.689709
2284.000000	23.849314
2283.000000	23.879012
2282.000000	23.869602
2281.000000	24.039287
2280.000000	24.034561
2279.000000	23.888780
2278.000000	23.836954
2277.000000	23.839521
2276.000000	23.939739
2275.000000	24.031424
2274.000000	24.049940
2273.000000	24.253408
2272.000000	24.324278
2271.000000	24.280658
2270.000000	24.110054
2269.000000	24.145194
2268.000000	24.310887
2267.000000	24.351269
2266.000000	24.498518
2265.000000	24.694319
2264.000000	24.859401
2263.000000	24.993410
2262.000000	25.249403
2261.000000	25.361809
2260.000000	25.460914
2259.000000	25.678708
2258.000000	25.862419
2257.000000	26.039976
2256.000000	26.129176
2255.000000	26.245660
2254.000000	26.515179
2253.000000	26.742340
2252.000000	27.054004
2251.000000	27.336841
2250.000000	27.515657
2249.000000	27.787500
2248.000000	28.065436
2247.000000	28.253100
2246.000000	28.462408
2245.000000	28.649949
2244.000000	28.907906
2243.000000	29.314243
2242.000000	29.544423
2241.000000	29.621609
2240.000000	29.710478
2239.000000	29.773643
2238.000000	29.850150
2237.000000	30.000516
2236.000000	30.096059
2235.000000	30.166270
2234.000000	30.453471
2233.000000	30.618081
2232.000000	30.691811
2231.000000	30.863818
2230.000000	30.891831
2229.000000	30.918779
2228.000000	31.062055
2227.000000	31.085612
2226.000000	30.941453
2225.000000	30.732045
2224.000000	30.668983
2223.000000	30.607222
2222.000000	30.719442
2221.000000	30.735870
2220.000000	30.805060
2219.000000	30.835341
2218.000000	30.730300
2217.000000	30.656777
2216.000000	30.598001
2215.000000	30.498063
2214.000000	30.391558
2213.000000	30.315975
2212.000000	30.379312
2211.000000	30.275169
2210.000000	30.152428
2209.000000	30.158895
2208.000000	29.963535
2207.000000	29.924709
2206.000000	29.875949
2205.000000	29.795164
2204.000000	29.561868
2203.000000	29.470590
2202.000000	29.346986
2201.000000	29.294348
2200.000000	29.430836
2199.000000	29.291182
2198.000000	29.081959
2197.000000	28.883791
2196.000000	28.797147
2195.000000	28.658194
2194.000000	28.475280
2193.000000	28.424904
2192.000000	28.454168
2191.000000	28.403174
2190.000000	28.280498
2189.000000	28.195885
2188.000000	28.136262
2187.000000	28.022637
2186.000000	27.998066
2185.000000	27.865489
2184.000000	27.715121
2183.000000	27.749025
2182.000000	27.712547
2181.000000	27.691981
2180.000000	27.799121
2179.000000	27.664469
2178.000000	27.509707
2177.000000	27.691244
2176.000000	27.620781
2175.000000	27.480820
2174.000000	27.760798
2173.000000	27.784623
2172.000000	27.845978
2171.000000	27.988174
2170.000000	27.831122
2169.000000	27.898389
2168.000000	28.064868
2167.000000	28.141406
2166.000000	28.260028
2165.000000	28.323368
2164.000000	28.325972
2163.000000	28.550589
2162.000000	28.702103
2161.000000	28.684873
2160.000000	29.071057
2159.000000	29.188108
2158.000000	29.214599
2157.000000	29.347909
2156.000000	29.554447
2155.000000	29.703026
2154.000000	29.927428
2153.000000	30.175176
2152.000000	30.244847
2151.000000	30.366454
2150.000000	30.488316
2149.000000	30.560924
2148.000000	30.806510
2147.000000	31.210101
2146.000000	31.164975
2145.000000	31.440581
2144.000000	31.656770
2143.000000	31.679104
2142.000000	31.892574
2141.000000	31.968206
2140.000000	32.153220
2139.000000	32.311816
2138.000000	32.481786
2137.000000	32.602531
2136.000000	32.593570
2135.000000	32.857731
2134.000000	33.098967
2133.000000	32.933559
2132.000000	33.128987
2131.000000	33.330084
2130.000000	33.343256
2129.000000	33.446949
2128.000000	33.306215
2127.000000	33.376646
2126.000000	33.507500
2125.000000	33.518631
2124.000000	33.710269
2123.000000	33.727392
2122.000000	33.879681
2121.000000	33.747679
2120.000000	33.691094
2119.000000	33.902678
2118.000000	34.059931
2117.000000	34.013720
2116.000000	33.962370
2115.000000	34.189347
2114.000000	34.136541
2113.000000	33.999247
2112.000000	34.045025
2111.000000	34.173494
2110.000000	34.089847
2109.000000	34.155122
2108.000000	34.048763
2107.000000	34.297509
2106.000000	34.268773
2105.000000	34.273576
2104.000000	34.294478
2103.000000	34.328052
2102.000000	34.389112
2101.000000	34.383175
2100.000000	34.382540
2099.000000	34.241893
2098.000000	34.293520
2097.000000	34.348661
2096.000000	34.276706
2095.000000	34.307737
2094.000000	34.365672
2093.000000	34.228072
2092.000000	34.319810
2091.000000	34.188395
2090.000000	34.155703
2089.000000	34.100711
2088.000000	34.018204
2087.000000	34.027623
2086.000000	34.046883
2085.000000	33.992484
2084.000000	33.859096
2083.000000	33.889065
2082.000000	33.719885
2081.000000	33.563389
2080.000000	33.579332
2079.000000	33.433886
2078.000000	33.347215
2077.000000	33.169783
2076.000000	32.995765
2075.000000	32.958212
2074.000000	32.892138
2073.000000	32.658077
2072.000000	32.546024
2071.000000	32.455185
2070.000000	32.288710
2069.000000	31.997962
2068.000000	31.800996
2067.000000	31.715250
2066.000000	31.511279
2065.000000	31.319386
2064.000000	31.078846
2063.000000	30.953342
2062.000000	30.799303
2061.000000	30.574891
2060.000000	30.341719
2059.000000	30.103900
2058.000000	29.969393
2057.000000	29.830110
2056.000000	29.698724
2055.000000	29.598039
2054.000000	29.343464
2053.000000	29.136334
2052.000000	28.963155
2051.000000	28.829378
2050.000000	28.703668
2049.000000	28.613613
2048.000000	28.486624
2047.000000	28.330630
2046.000000	28.241733
2045.000000	28.213439
2044.000000	28.184583
2043.000000	28.121576
2042.000000	28.141568
2041.000000	28.183652
2040.000000	28.147823
2039.000000	28.130799
2038.000000	28.177629
2037.000000	28.257786
2036.000000	28.366890
2035.000000	28.438739
2034.000000	28.543688
2033.000000	28.681365
2032.000000	28.816747
2031.000000	28.920759
2030.000000	29.057500
2029.000000	29.201171
2028.000000	29.261181
2027.000000	29.395134
2026.000000	29.594437
2025.000000	29.718596
2024.000000	29.795819
2023.000000	29.830319
2022.000000	29.855864
2021.000000	29.894852
2020.000000	29.931667
2019.000000	29.994742
2018.000000	30.042647
2017.000000	30.040124
2016.000000	30.027748
2015.000000	30.017701
2014.000000	29.975125
2013.000000	29.952029
2012.000000	29.893973
2011.000000	29.812711
2010.000000	29.800026
2009.000000	29.716125
2008.000000	29.605833
2007.000000	29.478762
2006.000000	29.358395
2005.000000	29.308175
2004.000000	29.172569
2003.000000	29.026524
2002.000000	28.922801
2001.000000	28.845233
2000.000000	28.762406
1999.000000	28.600652
1998.000000	28.429691
1997.000000	28.305659
1996.000000	28.187400
1995.000000	28.055791
1994.000000	27.902764
1993.000000	27.755866
1992.000000	27.656377
1991.000000	27.514377
1990.000000	27.366751
1989.000000	27.251538
1988.000000	27.112622
1987.000000	26.997635
1986.000000	26.830903
1985.000000	26.671029
1984.000000	26.551525
1983.000000	26.404945
1982.000000	26.293490
1981.000000	26.186846
1980.000000	26.037050
1979.000000	25.855730
1978.000000	25.702040
1977.000000	25.596110
1976.000000	25.454568
1975.000000	25.344817
1974.000000	25.203264
1973.000000	25.036091
1972.000000	24.925321
1971.000000	24.801963
1970.000000	24.729052
1969.000000	24.625154
1968.000000	24.444604
1967.000000	24.300880
1966.000000	24.200117
1965.000000	24.106388
1964.000000	23.940907
1963.000000	23.825534
1962.000000	23.685287
1961.000000	23.566769
1960.000000	23.501405
1959.000000	23.403814
1958.000000	23.281273
1957.000000	23.183107
1956.000000	23.106709
1955.000000	22.958694
1954.000000	22.972182
1953.000000	22.871140
1952.000000	22.837443
1951.000000	22.738611
1950.000000	22.664874
1949.000000	22.569336
1948.000000	22.609873
1947.000000	22.543196
1946.000000	22.498314
1945.000000	22.508598
1944.000000	22.507249
1943.000000	22.475087
1942.000000	22.472175
1941.000000	22.520281
1940.000000	22.613423
1939.000000	22.683728
1938.000000	22.757703
1937.000000	22.786568
1936.000000	22.978127
1935.000000	23.045613
1934.000000	23.093558
1933.000000	23.286019
1932.000000	23.393262
1931.000000	23.607839
1930.000000	23.813956
1929.000000	23.928332
1928.000000	24.156976
1927.000000	24.442920
1926.000000	24.620903
1925.000000	24.865622
1924.000000	25.167776
1923.000000	25.432811
1922.000000	25.808545
1921.000000	26.258820
1920.000000	26.459785
1919.000000	26.805191
1918.000000	27.185230
1917.000000	27.503033
1916.000000	27.910022
1915.000000	28.450848
1914.000000	28.939897
1913.000000	29.436534
1912.000000	29.871126
1911.000000	30.301751
1910.000000	30.805639
1909.000000	31.270047
1908.000000	31.854922
1907.000000	32.552774
1906.000000	33.148154
1905.000000	33.737204
1904.000000	34.281308
1903.000000	34.988329
1902.000000	35.769410
1901.000000	36.359568
1900.000000	37.068858
1899.000000	37.790992
1898.000000	38.470294
1897.000000	39.131969
1896.000000	39.836417
1895.000000	40.560199
1894.000000	41.219020
1893.000000	41.922500
1892.000000	42.624951
1891.000000	43.291568
1890.000000	43.942874
1889.000000	44.625341
1888.000000	45.188280
1887.000000	45.820298
1886.000000	46.403433
1885.000000	46.999088
1884.000000	47.594726
1883.000000	48.156806
1882.000000	48.595342
1881.000000	49.163608
1880.000000	49.672824
1879.000000	50.170737
1878.000000	50.658621
1877.000000	51.063609
1876.000000	51.474090
1875.000000	51.947378
1874.000000	52.346003
1873.000000	52.634383
1872.000000	52.965431
1871.000000	53.332741
1870.000000	53.576131
1869.000000	53.879921
1868.000000	54.196248
1867.000000	54.347346
1866.000000	54.548997
1865.000000	54.710805
1864.000000	54.886650
1863.000000	55.007768
1862.000000	55.133953
1861.000000	55.240924
1860.000000	55.382859
1859.000000	55.452194
1858.000000	55.542786
1857.000000	55.681854
1856.000000	55.733785
1855.000000	55.787736
1854.000000	55.875895
1853.000000	55.950491
1852.000000	55.923584
1851.000000	55.970352
1850.000000	56.008649
1849.000000	55.992364
1848.000000	55.984356
1847.000000	56.004955
1846.000000	56.040687
1845.000000	56.031367
1844.000000	56.012263
1843.000000	55.983239
1842.000000	55.961120
1841.000000	55.910190
1840.000000	55.839428
1839.000000	55.822735
1838.000000	55.774224
1837.000000	55.735677
1836.000000	55.735348
1835.000000	55.643879
1834.000000	55.557644
1833.000000	55.504363
1832.000000	55.444430
1831.000000	55.364299
1830.000000	55.298008
1829.000000	55.291037
1828.000000	55.256837
1827.000000	55.177580
1826.000000	55.109929
1825.000000	55.062370
1824.000000	55.046206
1823.000000	54.993699
1822.000000	54.918423
1821.000000	54.879462
1820.000000	54.869736
1819.000000	54.802588
1818.000000	54.751616
1817.000000	54.715586
1816.000000	54.664011
1815.000000	54.639497
1814.000000	54.578942
1813.000000	54.500448
1812.000000	54.471946
1811.000000	54.414547
1810.000000	54.358488
1809.000000	54.309025
1808.000000	54.225038
1807.000000	54.138211
1806.000000	54.079493
1805.000000	54.041460
1804.000000	54.025933
1803.000000	53.974333
1802.000000	53.901462
1801.000000	53.857743
1800.000000	53.823076
1799.000000	53.766907
1798.000000	53.723418
1797.000000	53.689146
1796.000000	53.649253
1795.000000	53.610066
1794.000000	53.574085
1793.000000	53.543181
1792.000000	53.512875
1791.000000	53.487415
1790.000000	53.452910
1789.000000	53.383976
1788.000000	53.346666
1787.000000	53.315998
1786.000000	53.291152
1785.000000	53.257053
1784.000000	53.205231
1783.000000	53.162074
1782.000000	53.100909
1781.000000	53.034982
1780.000000	53.004096
1779.000000	52.977661
1778.000000	52.922716
1777.000000	52.843985
1776.000000	52.762271
1775.000000	52.678224
1774.000000	52.592985
1773.000000	52.581970
1772.000000	52.532853
1771.000000	52.443733
1770.000000	52.373210
1769.000000	52.313373
1768.000000	52.235355
1767.000000	52.135702
1766.000000	52.061793
1765.000000	52.002558
1764.000000	51.980267
1763.000000	51.886486
1762.000000	51.812936
1761.000000	51.774514
1760.000000	51.703531
1759.000000	51.618070
1758.000000	51.568977
1757.000000	51.479773
1756.000000	51.436927
1755.000000	51.371661
1754.000000	51.280887
1753.000000	51.246865
1752.000000	51.199515
1751.000000	51.120441
1750.000000	51.023856
1749.000000	50.978210
1748.000000	50.913694
1747.000000	50.830084
1746.000000	50.745084
1745.000000	50.627995
1744.000000	50.587698
1743.000000	50.529988
1742.000000	50.455774
1741.000000	50.399448
1740.000000	50.340361
1739.000000	50.264885
1738.000000	50.197011
1737.000000	50.159819
1736.000000	50.123338
1735.000000	50.097401
1734.000000	50.133701
1733.000000	50.099072
1732.000000	50.101251
1731.000000	50.096909
1730.000000	50.090815
1729.000000	50.168912
1728.000000	50.236033
1727.000000	50.317213
1726.000000	50.376618
1725.000000	50.454449
1724.000000	50.583311
1723.000000	50.685900
1722.000000	50.830743
1721.000000	50.922362
1720.000000	51.101761
1719.000000	51.266800
1718.000000	51.377661
1717.000000	51.536121
1716.000000	51.624757
1715.000000	51.774505
1714.000000	51.890288
1713.000000	52.032556
1712.000000	52.100733
1711.000000	52.254652
1710.000000	52.353081
1709.000000	52.434060
1708.000000	52.492071
1707.000000	52.546133
1706.000000	52.597212
1705.000000	52.683691
1704.000000	52.741785
1703.000000	52.748164
1702.000000	52.722037
1701.000000	52.789214
1700.000000	52.809785
1699.000000	52.808572
1698.000000	52.884062
1697.000000	52.880215
1696.000000	52.932698
1695.000000	52.957398
1694.000000	53.000810
1693.000000	53.068648
1692.000000	53.123230
1691.000000	53.212176
1690.000000	53.291037
1689.000000	53.414830
1688.000000	53.554728
1687.000000	53.679411
1686.000000	53.807981
1685.000000	53.983394
1684.000000	54.183765
1683.000000	54.374956
1682.000000	54.580252
1681.000000	54.805715
1680.000000	55.015916
1679.000000	55.245436
1678.000000	55.508709
1677.000000	55.687860
1676.000000	55.955818
1675.000000	56.176292
1674.000000	56.398141
1673.000000	56.638422
1672.000000	56.846788
1671.000000	57.035152
1670.000000	57.264722
1669.000000	57.496780
1668.000000	57.657713
1667.000000	57.895414
1666.000000	58.001658
1665.000000	58.114689
1664.000000	58.248031
1663.000000	58.344478
1662.000000	58.454573
1661.000000	58.560418
1660.000000	58.670283
1659.000000	58.738476
1658.000000	58.795199
1657.000000	58.830771
1656.000000	58.895738
1655.000000	58.943869
1654.000000	58.941733
1653.000000	58.979766
1652.000000	59.035220
1651.000000	59.015866
1650.000000	59.020774
1649.000000	58.999259
1648.000000	58.981080
1647.000000	58.995905
1646.000000	58.980964
1645.000000	58.946163
1644.000000	58.908939
1643.000000	58.893716
1642.000000	58.854310
1641.000000	58.803771
1640.000000	58.762193
1639.000000	58.730080
1638.000000	58.695102
1637.000000	58.636018
1636.000000	58.586664
1635.000000	58.536879
1634.000000	58.483231
1633.000000	58.419610
1632.000000	58.359795
1631.000000	58.320712
1630.000000	58.248249
1629.000000	58.177082
1628.000000	58.104311
1627.000000	58.051883
1626.000000	58.004297
1625.000000	57.922140
1624.000000	57.838631
1623.000000	57.763100
1622.000000	57.732147
1621.000000	57.655196
1620.000000	57.564868
1619.000000	57.457953
1618.000000	57.374481
1617.000000	57.322093
1616.000000	57.241405
1615.000000	57.162366
1614.000000	57.065631
1613.000000	56.962947
1612.000000	56.880062
1611.000000	56.791748
1610.000000	56.699825
1609.000000	56.624719
1608.000000	56.547303
1607.000000	56.428921
1606.000000	56.317971
1605.000000	56.244616
1604.000000	56.156279
1603.000000	56.059149
1602.000000	55.958789
1601.000000	55.859057
1600.000000	55.772632
1599.000000	55.698866
1598.000000	55.620884
1597.000000	55.522207
1596.000000	55.428566
1595.000000	55.351640
1594.000000	55.260438
1593.000000	55.172075
1592.000000	55.087399
1591.000000	54.992987
1590.000000	54.927958
1589.000000	54.859987
1588.000000	54.768154
1587.000000	54.683418
1586.000000	54.621065
1585.000000	54.555284
1584.000000	54.480142
1583.000000	54.414191
1582.000000	54.342557
1581.000000	54.261439
1580.000000	54.195407
1579.000000	54.129433
1578.000000	54.053195
1577.000000	53.971820
1576.000000	53.897679
1575.000000	53.828191
1574.000000	53.756259
1573.000000	53.683370
1572.000000	53.604525
1571.000000	53.536214
1570.000000	53.471255
1569.000000	53.398940
1568.000000	53.343589
1567.000000	53.281785
1566.000000	53.227148
1565.000000	53.197492
1564.000000	53.151804
1563.000000	53.107519
1562.000000	53.047323
1561.000000	53.003717
1560.000000	52.970700
1559.000000	52.917517
1558.000000	52.878284
1557.000000	52.843547
1556.000000	52.807704
1555.000000	52.780279
1554.000000	52.720202
1553.000000	52.667624
1552.000000	52.630796
1551.000000	52.589104
1550.000000	52.537832
1549.000000	52.480943
1548.000000	52.415863
1547.000000	52.325417
1546.000000	52.236621
1545.000000	52.151061
1544.000000	52.046981
1543.000000	51.939910
1542.000000	51.834492
1541.000000	51.724616
1540.000000	51.601585
1539.000000	51.476368
1538.000000	51.341856
1537.000000	51.228348
1536.000000	51.102841
1535.000000	50.972676
1534.000000	50.857264
1533.000000	50.724202
1532.000000	50.606382
1531.000000	50.489736
1530.000000	50.363566
1529.000000	50.263352
1528.000000	50.157740
1527.000000	50.049281
1526.000000	49.976113
1525.000000	49.876359
1524.000000	49.784491
1523.000000	49.695600
1522.000000	49.617173
1521.000000	49.544212
1520.000000	49.496975
1519.000000	49.426183
1518.000000	49.378972
1517.000000	49.308157
1516.000000	49.274823
1515.000000	49.204636
1514.000000	49.151651
1513.000000	49.112642
1512.000000	49.054550
1511.000000	49.023139
1510.000000	48.962726
1509.000000	48.946677
1508.000000	48.906018
1507.000000	48.860604
1506.000000	48.828241
1505.000000	48.797449
1504.000000	48.780345
1503.000000	48.755067
1502.000000	48.739663
1501.000000	48.709319
1500.000000	48.676323
1499.000000	48.681142
1498.000000	48.671179
1497.000000	48.639618
1496.000000	48.655309
1495.000000	48.666509
1494.000000	48.660701
1493.000000	48.667554
1492.000000	48.678964
1491.000000	48.728119
1490.000000	48.744136
1489.000000	48.753300
1488.000000	48.786056
1487.000000	48.805980
1486.000000	48.857670
1485.000000	48.881461
1484.000000	48.906312
1483.000000	48.968207
1482.000000	48.980122
1481.000000	49.058113
1480.000000	49.075850
1479.000000	49.120167
1478.000000	49.182339
1477.000000	49.234871
1476.000000	49.273213
1475.000000	49.317824
1474.000000	49.373084
1473.000000	49.419100
1472.000000	49.459007
1471.000000	49.518196
1470.000000	49.557994
