PE UV       SUBTECH     SPECTRUM    ASCII       PEDS        4.00        
   -1
RDgAgneauUK 22.Sample.asc
18/03/12
14:26:03.00
18/03/12
14:26:03.00
Administrator

200.000000
1
Lambda 750
750N8071901
PerkinElmer UV WinLab 6.0.4.0738 / 1.61.00 Lambda 900

0
0
3350/servo 860.8/2
0
0
UV/VIS
1
1
1
CommonBeamDepol,150mm sphere / downward view
0
0
0
0
Program
Program
3350/servo 860.8/2
3350/0.2 860.8/0.2
3350/0.2 860.8/0.2
0
1
 
 
 
0
 
860.8
319.2
860.8
Front
100
on
 
 
0
0
0
 
0
 
 
 
0
 
 
0
0
0
0
0
 
 
 
 
0
0


0
0
#HDR
-1
-1
#GR
nm
%R
1.0
0.0
2350.000000
-1.000000
2151
8
70.365600
16.515952
#DATA
2350.000000	29.954384
2349.000000	30.009892
2348.000000	29.780237
2347.000000	30.198436
2346.000000	30.174037
2345.000000	29.982192
2344.000000	29.747369
2343.000000	29.579451
2342.000000	29.579459
2341.000000	30.062781
2340.000000	30.132268
2339.000000	30.292283
2338.000000	30.400732
2337.000000	30.743827
2336.000000	30.650421
2335.000000	30.875602
2334.000000	30.670379
2333.000000	30.771064
2332.000000	30.916023
2331.000000	30.580612
2330.000000	30.569496
2329.000000	30.525825
2328.000000	30.569685
2327.000000	30.504639
2326.000000	30.460858
2325.000000	30.444512
2324.000000	30.542017
2323.000000	30.477459
2322.000000	30.597046
2321.000000	30.551946
2320.000000	30.168680
2319.000000	30.253712
2318.000000	30.367374
2317.000000	30.531180
2316.000000	30.231252
2315.000000	30.120461
2314.000000	29.866546
2313.000000	29.889169
2312.000000	29.828771
2311.000000	30.077914
2310.000000	29.903142
2309.000000	29.934995
2308.000000	30.091896
2307.000000	29.659393
2306.000000	29.396575
2305.000000	29.614108
2304.000000	29.420616
2303.000000	29.431137
2302.000000	29.229244
2301.000000	28.937050
2300.000000	28.880748
2299.000000	28.787419
2298.000000	28.875530
2297.000000	28.665497
2296.000000	28.530270
2295.000000	28.443870
2294.000000	28.358906
2293.000000	28.220456
2292.000000	28.164687
2291.000000	28.067094
2290.000000	28.068803
2289.000000	28.075740
2288.000000	28.085394
2287.000000	28.018236
2286.000000	27.625307
2285.000000	27.683876
2284.000000	27.869792
2283.000000	27.856493
2282.000000	27.699239
2281.000000	27.748054
2280.000000	27.625634
2279.000000	27.674981
2278.000000	27.746213
2277.000000	27.752501
2276.000000	27.852042
2275.000000	27.963637
2274.000000	27.998847
2273.000000	28.031714
2272.000000	28.030051
2271.000000	27.964936
2270.000000	28.017090
2269.000000	28.198494
2268.000000	28.213775
2267.000000	28.412356
2266.000000	28.579010
2265.000000	28.503322
2264.000000	28.617460
2263.000000	28.849908
2262.000000	28.871496
2261.000000	29.051023
2260.000000	29.320973
2259.000000	29.437323
2258.000000	29.742938
2257.000000	29.964281
2256.000000	29.921308
2255.000000	30.094983
2254.000000	30.258960
2253.000000	30.505677
2252.000000	30.879884
2251.000000	31.177734
2250.000000	31.276399
2249.000000	31.460290
2248.000000	31.666515
2247.000000	31.957211
2246.000000	32.300637
2245.000000	32.569725
2244.000000	32.865287
2243.000000	33.105669
2242.000000	33.202967
2241.000000	33.194513
2240.000000	33.447438
2239.000000	33.612472
2238.000000	33.661672
2237.000000	33.840934
2236.000000	34.025828
2235.000000	34.072626
2234.000000	34.077173
2233.000000	34.180946
2232.000000	34.346186
2231.000000	34.439873
2230.000000	34.529943
2229.000000	34.705097
2228.000000	34.874527
2227.000000	34.698021
2226.000000	34.473365
2225.000000	34.418480
2224.000000	34.388318
2223.000000	34.337426
2222.000000	34.491119
2221.000000	34.443910
2220.000000	34.443053
2219.000000	34.444095
2218.000000	34.292399
2217.000000	34.165246
2216.000000	34.307911
2215.000000	34.223876
2214.000000	34.198682
2213.000000	34.046747
2212.000000	33.916181
2211.000000	33.878118
2210.000000	33.940305
2209.000000	33.893930
2208.000000	33.544936
2207.000000	33.487355
2206.000000	33.471258
2205.000000	33.557258
2204.000000	33.441078
2203.000000	33.208586
2202.000000	33.080669
2201.000000	33.019128
2200.000000	33.057584
2199.000000	32.782449
2198.000000	32.658296
2197.000000	32.526975
2196.000000	32.673719
2195.000000	32.538430
2194.000000	32.445386
2193.000000	32.527596
2192.000000	32.351742
2191.000000	32.062062
2190.000000	32.083375
2189.000000	31.953903
2188.000000	31.865674
2187.000000	31.862766
2186.000000	31.770215
2185.000000	31.630543
2184.000000	31.627360
2183.000000	31.708373
2182.000000	31.709167
2181.000000	31.715251
2180.000000	31.640818
2179.000000	31.381681
2178.000000	31.436743
2177.000000	31.354557
2176.000000	31.599615
2175.000000	31.589429
2174.000000	31.672748
2173.000000	31.566540
2172.000000	31.647395
2171.000000	31.996893
2170.000000	31.876531
2169.000000	31.942443
2168.000000	31.852631
2167.000000	32.048089
2166.000000	32.090915
2165.000000	32.192193
2164.000000	32.262103
2163.000000	32.315770
2162.000000	32.381583
2161.000000	32.561740
2160.000000	32.819394
2159.000000	33.010083
2158.000000	33.173781
2157.000000	33.289755
2156.000000	33.446995
2155.000000	33.614516
2154.000000	33.770516
2153.000000	33.889749
2152.000000	34.098083
2151.000000	34.164295
2150.000000	34.361558
2149.000000	34.520811
2148.000000	34.625143
2147.000000	34.922280
2146.000000	35.091324
2145.000000	35.112203
2144.000000	35.261212
2143.000000	35.367843
2142.000000	35.570609
2141.000000	35.789096
2140.000000	35.894928
2139.000000	36.313282
2138.000000	36.138292
2137.000000	36.293873
2136.000000	36.370624
2135.000000	36.542729
2134.000000	36.675854
2133.000000	36.690706
2132.000000	36.760821
2131.000000	36.950246
2130.000000	37.012505
2129.000000	37.152530
2128.000000	37.082235
2127.000000	37.170416
2126.000000	37.208117
2125.000000	37.181369
2124.000000	37.357882
2123.000000	37.365799
2122.000000	37.493586
2121.000000	37.445485
2120.000000	37.357439
2119.000000	37.568897
2118.000000	37.695768
2117.000000	37.624503
2116.000000	37.839175
2115.000000	37.890056
2114.000000	37.736132
2113.000000	37.702835
2112.000000	37.632517
2111.000000	37.742044
2110.000000	37.785342
2109.000000	37.829745
2108.000000	37.723423
2107.000000	37.848867
2106.000000	37.768788
2105.000000	37.776876
2104.000000	37.825306
2103.000000	37.993681
2102.000000	37.964219
2101.000000	37.970591
2100.000000	37.949466
2099.000000	37.961731
2098.000000	37.928205
2097.000000	37.860699
2096.000000	37.859003
2095.000000	37.958930
2094.000000	37.978370
2093.000000	37.880107
2092.000000	37.855834
2091.000000	37.835284
2090.000000	37.757438
2089.000000	37.777977
2088.000000	37.753626
2087.000000	37.735735
2086.000000	37.645055
2085.000000	37.604740
2084.000000	37.501058
2083.000000	37.282449
2082.000000	37.244939
2081.000000	37.306773
2080.000000	37.113334
2079.000000	36.990039
2078.000000	36.951099
2077.000000	36.866597
2076.000000	36.692332
2075.000000	36.636082
2074.000000	36.606020
2073.000000	36.372994
2072.000000	36.208148
2071.000000	36.049379
2070.000000	35.902123
2069.000000	35.775461
2068.000000	35.555152
2067.000000	35.401574
2066.000000	35.195164
2065.000000	35.039461
2064.000000	34.885854
2063.000000	34.641508
2062.000000	34.491087
2061.000000	34.302732
2060.000000	34.146007
2059.000000	33.927724
2058.000000	33.730598
2057.000000	33.585662
2056.000000	33.435697
2055.000000	33.276774
2054.000000	33.074849
2053.000000	32.884251
2052.000000	32.759014
2051.000000	32.632584
2050.000000	32.525722
2049.000000	32.369010
2048.000000	32.280720
2047.000000	32.190487
2046.000000	32.034755
2045.000000	31.953657
2044.000000	31.910583
2043.000000	31.936126
2042.000000	31.993725
2041.000000	32.053184
2040.000000	32.004488
2039.000000	31.967671
2038.000000	32.028416
2037.000000	32.143283
2036.000000	32.207779
2035.000000	32.267604
2034.000000	32.399907
2033.000000	32.474060
2032.000000	32.528902
2031.000000	32.700034
2030.000000	32.828814
2029.000000	32.986727
2028.000000	33.119855
2027.000000	33.214700
2026.000000	33.357029
2025.000000	33.437239
2024.000000	33.479189
2023.000000	33.549807
2022.000000	33.588858
2021.000000	33.598578
2020.000000	33.660780
2019.000000	33.717492
2018.000000	33.724810
2017.000000	33.726311
2016.000000	33.719924
2015.000000	33.699528
2014.000000	33.700996
2013.000000	33.659173
2012.000000	33.633691
2011.000000	33.604117
2010.000000	33.476887
2009.000000	33.398345
2008.000000	33.316872
2007.000000	33.230485
2006.000000	33.135458
2005.000000	33.026198
2004.000000	32.883195
2003.000000	32.760314
2002.000000	32.652555
2001.000000	32.520656
2000.000000	32.372940
1999.000000	32.250091
1998.000000	32.147160
1997.000000	32.041921
1996.000000	31.926541
1995.000000	31.793654
1994.000000	31.674196
1993.000000	31.547511
1992.000000	31.411816
1991.000000	31.257905
1990.000000	31.137203
1989.000000	30.992857
1988.000000	30.861634
1987.000000	30.721031
1986.000000	30.558639
1985.000000	30.438605
1984.000000	30.318371
1983.000000	30.187650
1982.000000	30.036805
1981.000000	29.908679
1980.000000	29.772404
1979.000000	29.608816
1978.000000	29.527196
1977.000000	29.339108
1976.000000	29.206256
1975.000000	29.096516
1974.000000	28.926975
1973.000000	28.784190
1972.000000	28.668338
1971.000000	28.527920
1970.000000	28.433052
1969.000000	28.285759
1968.000000	28.164052
1967.000000	28.059089
1966.000000	27.971105
1965.000000	27.833381
1964.000000	27.743482
1963.000000	27.551835
1962.000000	27.427633
1961.000000	27.333020
1960.000000	27.249323
1959.000000	27.135498
1958.000000	27.019800
1957.000000	26.928904
1956.000000	26.855015
1955.000000	26.751427
1954.000000	26.645577
1953.000000	26.563387
1952.000000	26.514319
1951.000000	26.503155
1950.000000	26.353151
1949.000000	26.284218
1948.000000	26.301491
1947.000000	26.288136
1946.000000	26.204613
1945.000000	26.166147
1944.000000	26.178109
1943.000000	26.237635
1942.000000	26.180569
1941.000000	26.276223
1940.000000	26.390436
1939.000000	26.363091
1938.000000	26.411364
1937.000000	26.522981
1936.000000	26.663654
1935.000000	26.761985
1934.000000	26.805035
1933.000000	26.978860
1932.000000	27.150524
1931.000000	27.291545
1930.000000	27.523410
1929.000000	27.706990
1928.000000	27.936817
1927.000000	28.224305
1926.000000	28.400821
1925.000000	28.663348
1924.000000	28.927677
1923.000000	29.175626
1922.000000	29.529515
1921.000000	29.867363
1920.000000	30.189112
1919.000000	30.539600
1918.000000	30.875546
1917.000000	31.262706
1916.000000	31.593544
1915.000000	32.113823
1914.000000	32.503481
1913.000000	33.046278
1912.000000	33.406361
1911.000000	33.899196
1910.000000	34.403333
1909.000000	34.900904
1908.000000	35.398140
1907.000000	36.008347
1906.000000	36.597378
1905.000000	37.091220
1904.000000	37.765490
1903.000000	38.348743
1902.000000	39.005521
1901.000000	39.586052
1900.000000	40.288871
1899.000000	40.975814
1898.000000	41.595976
1897.000000	42.121196
1896.000000	42.794496
1895.000000	43.465375
1894.000000	44.075195
1893.000000	44.728350
1892.000000	45.340501
1891.000000	45.855038
1890.000000	46.482687
1889.000000	47.066427
1888.000000	47.545266
1887.000000	48.100374
1886.000000	48.630468
1885.000000	49.173710
1884.000000	49.644849
1883.000000	50.142033
1882.000000	50.643934
1881.000000	51.125204
1880.000000	51.494931
1879.000000	51.879416
1878.000000	52.340041
1877.000000	52.686446
1876.000000	53.021128
1875.000000	53.463307
1874.000000	53.765544
1873.000000	54.087161
1872.000000	54.374851
1871.000000	54.626731
1870.000000	54.858281
1869.000000	55.113272
1868.000000	55.302895
1867.000000	55.420244
1866.000000	55.590368
1865.000000	55.755632
1864.000000	55.928776
1863.000000	56.073092
1862.000000	56.161249
1861.000000	56.244624
1860.000000	56.324772
1859.000000	56.415870
1858.000000	56.443601
1857.000000	56.519118
1856.000000	56.626198
1855.000000	56.655510
1854.000000	56.690642
1853.000000	56.787954
1852.000000	56.811241
1851.000000	56.831301
1850.000000	56.833039
1849.000000	56.882761
1848.000000	56.860162
1847.000000	56.912640
1846.000000	56.869965
1845.000000	56.836323
1844.000000	56.816677
1843.000000	56.804640
1842.000000	56.803214
1841.000000	56.784573
1840.000000	56.732088
1839.000000	56.721236
1838.000000	56.679307
1837.000000	56.628639
1836.000000	56.610234
1835.000000	56.532242
1834.000000	56.485231
1833.000000	56.475352
1832.000000	56.439003
1831.000000	56.368725
1830.000000	56.267264
1829.000000	56.223777
1828.000000	56.214592
1827.000000	56.181897
1826.000000	56.138295
1825.000000	56.116856
1824.000000	56.050300
1823.000000	56.012949
1822.000000	55.969730
1821.000000	55.927753
1820.000000	55.909112
1819.000000	55.833688
1818.000000	55.795594
1817.000000	55.766195
1816.000000	55.705543
1815.000000	55.655732
1814.000000	55.610698
1813.000000	55.571626
1812.000000	55.541060
1811.000000	55.509245
1810.000000	55.463886
1809.000000	55.436819
1808.000000	55.386395
1807.000000	55.323306
1806.000000	55.278652
1805.000000	55.213239
1804.000000	55.164160
1803.000000	55.140772
1802.000000	55.109777
1801.000000	55.082174
1800.000000	55.037387
1799.000000	54.980800
1798.000000	54.938940
1797.000000	54.933487
1796.000000	54.911578
1795.000000	54.856612
1794.000000	54.846056
1793.000000	54.812545
1792.000000	54.757226
1791.000000	54.746369
1790.000000	54.730218
1789.000000	54.686336
1788.000000	54.669682
1787.000000	54.642741
1786.000000	54.624726
1785.000000	54.602824
1784.000000	54.541141
1783.000000	54.497352
1782.000000	54.458785
1781.000000	54.427697
1780.000000	54.391124
1779.000000	54.337331
1778.000000	54.298142
1777.000000	54.222196
1776.000000	54.182427
1775.000000	54.127750
1774.000000	54.064919
1773.000000	54.043870
1772.000000	53.983412
1771.000000	53.906252
1770.000000	53.857537
1769.000000	53.800448
1768.000000	53.759210
1767.000000	53.691723
1766.000000	53.651514
1765.000000	53.584374
1764.000000	53.522457
1763.000000	53.460890
1762.000000	53.399914
1761.000000	53.345620
1760.000000	53.293013
1759.000000	53.243590
1758.000000	53.198117
1757.000000	53.121826
1756.000000	53.074365
1755.000000	53.013134
1754.000000	52.954112
1753.000000	52.905164
1752.000000	52.853858
1751.000000	52.819955
1750.000000	52.764473
1749.000000	52.697464
1748.000000	52.633350
1747.000000	52.576721
1746.000000	52.514006
1745.000000	52.417328
1744.000000	52.341822
1743.000000	52.322186
1742.000000	52.246543
1741.000000	52.202968
1740.000000	52.150754
1739.000000	52.081687
1738.000000	52.031729
1737.000000	52.011590
1736.000000	51.991794
1735.000000	52.002850
1734.000000	51.988590
1733.000000	51.956147
1732.000000	51.973932
1731.000000	51.989702
1730.000000	51.976207
1729.000000	52.043308
1728.000000	52.090140
1727.000000	52.159167
1726.000000	52.205905
1725.000000	52.309135
1724.000000	52.396481
1723.000000	52.487915
1722.000000	52.599112
1721.000000	52.692728
1720.000000	52.807541
1719.000000	52.956441
1718.000000	53.049783
1717.000000	53.167138
1716.000000	53.290801
1715.000000	53.381032
1714.000000	53.482760
1713.000000	53.632572
1712.000000	53.684668
1711.000000	53.788118
1710.000000	53.864911
1709.000000	53.936745
1708.000000	53.988498
1707.000000	54.061378
1706.000000	54.083605
1705.000000	54.143754
1704.000000	54.209475
1703.000000	54.211189
1702.000000	54.207485
1701.000000	54.276308
1700.000000	54.268591
1699.000000	54.246473
1698.000000	54.268505
1697.000000	54.327919
1696.000000	54.313607
1695.000000	54.325390
1694.000000	54.362476
1693.000000	54.438265
1692.000000	54.498746
1691.000000	54.556987
1690.000000	54.664777
1689.000000	54.705958
1688.000000	54.844289
1687.000000	54.926902
1686.000000	55.066774
1685.000000	55.195293
1684.000000	55.375943
1683.000000	55.535433
1682.000000	55.673164
1681.000000	55.870702
1680.000000	56.028318
1679.000000	56.229126
1678.000000	56.416477
1677.000000	56.582230
1676.000000	56.773394
1675.000000	56.986756
1674.000000	57.143494
1673.000000	57.327836
1672.000000	57.500846
1671.000000	57.702201
1670.000000	57.830319
1669.000000	58.035606
1668.000000	58.159322
1667.000000	58.319231
1666.000000	58.417073
1665.000000	58.557800
1664.000000	58.649828
1663.000000	58.716951
1662.000000	58.808397
1661.000000	58.914714
1660.000000	58.996020
1659.000000	59.039967
1658.000000	59.086680
1657.000000	59.118588
1656.000000	59.175894
1655.000000	59.220546
1654.000000	59.237877
1653.000000	59.265543
1652.000000	59.252776
1651.000000	59.267499
1650.000000	59.272704
1649.000000	59.252993
1648.000000	59.237941
1647.000000	59.217550
1646.000000	59.222174
1645.000000	59.194623
1644.000000	59.174627
1643.000000	59.164616
1642.000000	59.134981
1641.000000	59.098966
1640.000000	59.072378
1639.000000	59.034544
1638.000000	59.008762
1637.000000	58.964121
1636.000000	58.912741
1635.000000	58.857524
1634.000000	58.814495
1633.000000	58.770792
1632.000000	58.737874
1631.000000	58.698227
1630.000000	58.641367
1629.000000	58.567836
1628.000000	58.545026
1627.000000	58.477311
1626.000000	58.428016
1625.000000	58.375786
1624.000000	58.322029
1623.000000	58.247164
1622.000000	58.191338
1621.000000	58.133750
1620.000000	58.053907
1619.000000	57.980651
1618.000000	57.922155
1617.000000	57.887970
1616.000000	57.835369
1615.000000	57.733618
1614.000000	57.650152
1613.000000	57.597644
1612.000000	57.533435
1611.000000	57.453360
1610.000000	57.386366
1609.000000	57.317801
1608.000000	57.246031
1607.000000	57.169910
1606.000000	57.090530
1605.000000	57.001564
1604.000000	56.908626
1603.000000	56.850186
1602.000000	56.793893
1601.000000	56.704878
1600.000000	56.628755
1599.000000	56.548163
1598.000000	56.485098
1597.000000	56.434966
1596.000000	56.351638
1595.000000	56.277004
1594.000000	56.206788
1593.000000	56.135482
1592.000000	56.050195
1591.000000	55.974359
1590.000000	55.925594
1589.000000	55.857787
1588.000000	55.792226
1587.000000	55.744208
1586.000000	55.690171
1585.000000	55.621607
1584.000000	55.575262
1583.000000	55.521534
1582.000000	55.449488
1581.000000	55.396784
1580.000000	55.350747
1579.000000	55.289636
1578.000000	55.220952
1577.000000	55.158382
1576.000000	55.096637
1575.000000	55.047775
1574.000000	54.983497
1573.000000	54.920657
1572.000000	54.861036
1571.000000	54.810537
1570.000000	54.734045
1569.000000	54.671935
1568.000000	54.639915
1567.000000	54.594782
1566.000000	54.545914
1565.000000	54.502615
1564.000000	54.462273
1563.000000	54.442146
1562.000000	54.389615
1561.000000	54.341716
1560.000000	54.303784
1559.000000	54.275801
1558.000000	54.244424
1557.000000	54.214145
1556.000000	54.170398
1555.000000	54.144818
1554.000000	54.114676
1553.000000	54.068203
1552.000000	54.033503
1551.000000	53.998179
1550.000000	53.970390
1549.000000	53.920783
1548.000000	53.851244
1547.000000	53.757454
1546.000000	53.697517
1545.000000	53.616870
1544.000000	53.537156
1543.000000	53.444491
1542.000000	53.342553
1541.000000	53.258215
1540.000000	53.156225
1539.000000	53.068125
1538.000000	52.954268
1537.000000	52.849150
1536.000000	52.737706
1535.000000	52.644182
1534.000000	52.527987
1533.000000	52.429755
1532.000000	52.329465
1531.000000	52.231257
1530.000000	52.139052
1529.000000	52.041760
1528.000000	51.954906
1527.000000	51.872274
1526.000000	51.810834
1525.000000	51.718936
1524.000000	51.642222
1523.000000	51.564696
1522.000000	51.480015
1521.000000	51.433020
1520.000000	51.394424
1519.000000	51.339986
1518.000000	51.272004
1517.000000	51.226965
1516.000000	51.205728
1515.000000	51.146656
1514.000000	51.094522
1513.000000	51.068898
1512.000000	51.029326
1511.000000	51.001862
1510.000000	50.953600
1509.000000	50.917022
1508.000000	50.889869
1507.000000	50.843975
1506.000000	50.805047
1505.000000	50.805731
1504.000000	50.783403
1503.000000	50.760275
1502.000000	50.741568
1501.000000	50.720474
1500.000000	50.724696
1499.000000	50.703219
1498.000000	50.677918
1497.000000	50.672983
1496.000000	50.676771
1495.000000	50.692674
1494.000000	50.670889
1493.000000	50.686179
1492.000000	50.700003
1491.000000	50.729760
1490.000000	50.754267
1489.000000	50.777215
1488.000000	50.785660
1487.000000	50.808236
1486.000000	50.842382
1485.000000	50.875616
1484.000000	50.911305
1483.000000	50.946033
1482.000000	50.973359
1481.000000	51.015301
1480.000000	51.059327
1479.000000	51.107350
1478.000000	51.132633
1477.000000	51.166551
1476.000000	51.219401
1475.000000	51.253581
1474.000000	51.285987
1473.000000	51.318730
1472.000000	51.377156
1471.000000	51.410026
1470.000000	51.453014
