PE UV       SUBTECH     SPECTRUM    ASCII       PEDS        4.00        
   -1
RDgAgneauUK 32.Sample.asc
18/03/12
14:38:45.00
18/03/12
14:38:45.00
Administrator

200.000000
1
Lambda 750
750N8071901
PerkinElmer UV WinLab 6.0.4.0738 / 1.61.00 Lambda 900

0
0
3350/servo 860.8/2
0
0
UV/VIS
1
1
1
CommonBeamDepol,150mm sphere / downward view
0
0
0
0
Program
Program
3350/servo 860.8/2
3350/0.2 860.8/0.2
3350/0.2 860.8/0.2
0
1
 
 
 
0
 
860.8
319.2
860.8
Front
100
on
 
 
0
0
0
 
0
 
 
 
0
 
 
0
0
0
0
0
 
 
 
 
0
0


0
0
#HDR
-1
-1
#GR
nm
%R
1.0
0.0
2350.000000
-1.000000
2151
8
73.348761
14.545414
#DATA
2350.000000	25.551448
2349.000000	26.429182
2348.000000	25.804170
2347.000000	26.383578
2346.000000	26.249512
2345.000000	26.440098
2344.000000	26.004549
2343.000000	25.817617
2342.000000	25.569145
2341.000000	26.074256
2340.000000	26.143010
2339.000000	26.461515
2338.000000	26.347986
2337.000000	26.463054
2336.000000	26.601977
2335.000000	27.025156
2334.000000	26.994195
2333.000000	26.883539
2332.000000	26.953154
2331.000000	26.860070
2330.000000	26.707594
2329.000000	26.765804
2328.000000	26.822610
2327.000000	26.507240
2326.000000	26.794514
2325.000000	27.175040
2324.000000	26.891201
2323.000000	26.428072
2322.000000	26.509724
2321.000000	26.570247
2320.000000	26.606175
2319.000000	26.899713
2318.000000	26.673551
2317.000000	26.520761
2316.000000	26.083772
2315.000000	26.216802
2314.000000	26.418528
2313.000000	26.410776
2312.000000	26.005704
2311.000000	25.989234
2310.000000	26.091338
2309.000000	26.084598
2308.000000	25.914459
2307.000000	25.795761
2306.000000	25.642502
2305.000000	25.525293
2304.000000	25.643830
2303.000000	25.443253
2302.000000	25.301674
2301.000000	25.265904
2300.000000	24.930526
2299.000000	25.027336
2298.000000	24.876423
2297.000000	24.484003
2296.000000	24.523091
2295.000000	24.401022
2294.000000	24.502256
2293.000000	24.357221
2292.000000	24.188541
2291.000000	24.450787
2290.000000	24.332667
2289.000000	24.009602
2288.000000	24.068537
2287.000000	24.178992
2286.000000	24.068383
2285.000000	23.946824
2284.000000	23.968455
2283.000000	23.964198
2282.000000	23.998845
2281.000000	23.968807
2280.000000	23.816356
2279.000000	23.885347
2278.000000	23.963987
2277.000000	23.971605
2276.000000	23.960519
2275.000000	24.195262
2274.000000	24.159198
2273.000000	24.109447
2272.000000	24.199183
2271.000000	24.241267
2270.000000	24.224592
2269.000000	24.192200
2268.000000	24.352664
2267.000000	24.553101
2266.000000	24.715749
2265.000000	24.743923
2264.000000	24.850218
2263.000000	24.956543
2262.000000	25.087090
2261.000000	25.305474
2260.000000	25.449410
2259.000000	25.676891
2258.000000	25.890596
2257.000000	26.009958
2256.000000	26.168588
2255.000000	26.342502
2254.000000	26.680941
2253.000000	26.755761
2252.000000	26.856635
2251.000000	27.210166
2250.000000	27.517983
2249.000000	27.852809
2248.000000	27.953647
2247.000000	28.103974
2246.000000	28.441420
2245.000000	28.675484
2244.000000	28.943851
2243.000000	29.123385
2242.000000	29.230513
2241.000000	29.356459
2240.000000	29.626061
2239.000000	29.872103
2238.000000	29.834284
2237.000000	29.994651
2236.000000	30.171935
2235.000000	30.175873
2234.000000	30.323269
2233.000000	30.379424
2232.000000	30.530100
2231.000000	30.705895
2230.000000	30.734158
2229.000000	30.852096
2228.000000	31.007859
2227.000000	30.934691
2226.000000	30.743675
2225.000000	30.613766
2224.000000	30.705229
2223.000000	30.683367
2222.000000	30.507295
2221.000000	30.559888
2220.000000	30.675301
2219.000000	30.681691
2218.000000	30.687569
2217.000000	30.560461
2216.000000	30.407615
2215.000000	30.330216
2214.000000	30.282295
2213.000000	30.259498
2212.000000	30.146079
2211.000000	30.032414
2210.000000	29.970629
2209.000000	30.000192
2208.000000	29.848243
2207.000000	29.706952
2206.000000	29.772555
2205.000000	29.699990
2204.000000	29.519874
2203.000000	29.380990
2202.000000	29.249451
2201.000000	29.145482
2200.000000	29.008038
2199.000000	29.078282
2198.000000	28.922517
2197.000000	28.879253
2196.000000	28.730762
2195.000000	28.715629
2194.000000	28.687093
2193.000000	28.359337
2192.000000	28.329657
2191.000000	28.153013
2190.000000	28.231233
2189.000000	28.174187
2188.000000	28.082215
2187.000000	28.149855
2186.000000	27.964734
2185.000000	27.875662
2184.000000	27.823593
2183.000000	27.720576
2182.000000	27.668985
2181.000000	27.651369
2180.000000	27.546162
2179.000000	27.517389
2178.000000	27.506785
2177.000000	27.596905
2176.000000	27.531601
2175.000000	27.634442
2174.000000	27.738340
2173.000000	27.739023
2172.000000	27.704297
2171.000000	27.754321
2170.000000	27.831525
2169.000000	27.784152
2168.000000	27.899422
2167.000000	28.112463
2166.000000	28.246056
2165.000000	28.298305
2164.000000	28.445825
2163.000000	28.400786
2162.000000	28.535708
2161.000000	28.717144
2160.000000	28.797895
2159.000000	29.084706
2158.000000	29.161002
2157.000000	29.203718
2156.000000	29.361593
2155.000000	29.584240
2154.000000	29.800594
2153.000000	29.946935
2152.000000	30.173861
2151.000000	30.191670
2150.000000	30.440445
2149.000000	30.621059
2148.000000	30.693721
2147.000000	30.952996
2146.000000	31.311983
2145.000000	31.362714
2144.000000	31.474090
2143.000000	31.783457
2142.000000	31.764408
2141.000000	31.913970
2140.000000	31.906759
2139.000000	32.104996
2138.000000	32.295932
2137.000000	32.357045
2136.000000	32.470086
2135.000000	32.620967
2134.000000	32.881617
2133.000000	32.544698
2132.000000	32.980623
2131.000000	33.077157
2130.000000	33.192902
2129.000000	33.217103
2128.000000	33.192819
2127.000000	33.347001
2126.000000	33.402558
2125.000000	33.357651
2124.000000	33.384868
2123.000000	33.524633
2122.000000	33.688936
2121.000000	33.716376
2120.000000	33.734557
2119.000000	33.743719
2118.000000	33.832892
2117.000000	33.834163
2116.000000	33.850837
2115.000000	33.988316
2114.000000	33.920988
2113.000000	33.897552
2112.000000	33.881811
2111.000000	33.901176
2110.000000	33.852792
2109.000000	33.944746
2108.000000	34.006568
2107.000000	34.040407
2106.000000	33.979003
2105.000000	34.088657
2104.000000	34.099707
2103.000000	34.085595
2102.000000	34.086957
2101.000000	34.069632
2100.000000	34.210648
2099.000000	34.175703
2098.000000	34.120924
2097.000000	34.118353
2096.000000	34.022151
2095.000000	34.067796
2094.000000	34.026525
2093.000000	34.003278
2092.000000	34.091773
2091.000000	34.104388
2090.000000	34.082426
2089.000000	33.993265
2088.000000	33.975562
2087.000000	33.920000
2086.000000	33.795836
2085.000000	33.824033
2084.000000	33.784702
2083.000000	33.635436
2082.000000	33.580626
2081.000000	33.578616
2080.000000	33.525256
2079.000000	33.331518
2078.000000	33.173575
2077.000000	33.022770
2076.000000	32.885788
2075.000000	32.786935
2074.000000	32.622058
2073.000000	32.403420
2072.000000	32.225487
2071.000000	32.160296
2070.000000	32.100966
2069.000000	31.871346
2068.000000	31.692826
2067.000000	31.517467
2066.000000	31.335866
2065.000000	31.077772
2064.000000	30.899511
2063.000000	30.733031
2062.000000	30.578258
2061.000000	30.362062
2060.000000	30.146047
2059.000000	30.026687
2058.000000	29.858223
2057.000000	29.698882
2056.000000	29.589698
2055.000000	29.384250
2054.000000	29.086729
2053.000000	28.945877
2052.000000	28.851928
2051.000000	28.689356
2050.000000	28.552822
2049.000000	28.368735
2048.000000	28.180770
2047.000000	28.143904
2046.000000	28.126294
2045.000000	28.064149
2044.000000	27.958477
2043.000000	27.928193
2042.000000	27.946533
2041.000000	27.995209
2040.000000	27.996239
2039.000000	28.021601
2038.000000	28.099819
2037.000000	28.179783
2036.000000	28.220096
2035.000000	28.261623
2034.000000	28.429360
2033.000000	28.566447
2032.000000	28.650006
2031.000000	28.773057
2030.000000	28.892550
2029.000000	29.044425
2028.000000	29.172650
2027.000000	29.278388
2026.000000	29.441850
2025.000000	29.542105
2024.000000	29.569704
2023.000000	29.614958
2022.000000	29.673698
2021.000000	29.710949
2020.000000	29.816632
2019.000000	29.848433
2018.000000	29.822789
2017.000000	29.826508
2016.000000	29.826110
2015.000000	29.793072
2014.000000	29.761565
2013.000000	29.745864
2012.000000	29.721324
2011.000000	29.689680
2010.000000	29.585555
2009.000000	29.438947
2008.000000	29.368220
2007.000000	29.285276
2006.000000	29.190334
2005.000000	29.130919
2004.000000	29.020993
2003.000000	28.909309
2002.000000	28.802843
2001.000000	28.666539
2000.000000	28.540544
1999.000000	28.410867
1998.000000	28.292408
1997.000000	28.177604
1996.000000	28.047200
1995.000000	27.881824
1994.000000	27.750283
1993.000000	27.659540
1992.000000	27.503972
1991.000000	27.317110
1990.000000	27.233644
1989.000000	27.096958
1988.000000	26.926726
1987.000000	26.848152
1986.000000	26.652563
1985.000000	26.504711
1984.000000	26.407032
1983.000000	26.268006
1982.000000	26.131152
1981.000000	26.033986
1980.000000	25.889945
1979.000000	25.727575
1978.000000	25.622383
1977.000000	25.460264
1976.000000	25.262755
1975.000000	25.153235
1974.000000	25.060254
1973.000000	24.946636
1972.000000	24.815620
1971.000000	24.710199
1970.000000	24.549584
1969.000000	24.448833
1968.000000	24.349114
1967.000000	24.208332
1966.000000	24.055886
1965.000000	23.967113
1964.000000	23.876998
1963.000000	23.786939
1962.000000	23.567807
1961.000000	23.447472
1960.000000	23.340372
1959.000000	23.253124
1958.000000	23.152379
1957.000000	23.109783
1956.000000	22.968693
1955.000000	22.838004
1954.000000	22.779139
1953.000000	22.725989
1952.000000	22.718559
1951.000000	22.611766
1950.000000	22.539597
1949.000000	22.497680
1948.000000	22.502522
1947.000000	22.483703
1946.000000	22.417205
1945.000000	22.398547
1944.000000	22.407088
1943.000000	22.403431
1942.000000	22.444360
1941.000000	22.453521
1940.000000	22.484057
1939.000000	22.533585
1938.000000	22.619424
1937.000000	22.681861
1936.000000	22.857810
1935.000000	22.941631
1934.000000	22.974272
1933.000000	23.245984
1932.000000	23.332556
1931.000000	23.474088
1930.000000	23.625164
1929.000000	23.881332
1928.000000	24.108887
1927.000000	24.340278
1926.000000	24.466447
1925.000000	24.797158
1924.000000	25.018608
1923.000000	25.464710
1922.000000	25.667169
1921.000000	26.041932
1920.000000	26.331051
1919.000000	26.629888
1918.000000	26.957792
1917.000000	27.321444
1916.000000	27.745655
1915.000000	28.240891
1914.000000	28.757121
1913.000000	29.213060
1912.000000	29.630527
1911.000000	30.097357
1910.000000	30.606239
1909.000000	31.194099
1908.000000	31.705629
1907.000000	32.337433
1906.000000	32.861595
1905.000000	33.547631
1904.000000	34.172459
1903.000000	34.830398
1902.000000	35.445334
1901.000000	36.132785
1900.000000	36.853989
1899.000000	37.534726
1898.000000	38.226179
1897.000000	38.985504
1896.000000	39.726432
1895.000000	40.410702
1894.000000	41.041697
1893.000000	41.762614
1892.000000	42.462285
1891.000000	43.158837
1890.000000	43.814220
1889.000000	44.414449
1888.000000	45.015931
1887.000000	45.635378
1886.000000	46.203997
1885.000000	46.846788
1884.000000	47.389430
1883.000000	47.950424
1882.000000	48.482137
1881.000000	48.987695
1880.000000	49.539147
1879.000000	50.043113
1878.000000	50.509960
1877.000000	50.920307
1876.000000	51.373295
1875.000000	51.802889
1874.000000	52.169986
1873.000000	52.520364
1872.000000	52.858792
1871.000000	53.256464
1870.000000	53.484728
1869.000000	53.784838
1868.000000	54.070203
1867.000000	54.244718
1866.000000	54.482378
1865.000000	54.636521
1864.000000	54.765353
1863.000000	54.916106
1862.000000	55.068113
1861.000000	55.174893
1860.000000	55.279368
1859.000000	55.383930
1858.000000	55.477750
1857.000000	55.570367
1856.000000	55.634212
1855.000000	55.674759
1854.000000	55.737295
1853.000000	55.802971
1852.000000	55.831810
1851.000000	55.924513
1850.000000	55.891556
1849.000000	55.937345
1848.000000	55.972342
1847.000000	55.931957
1846.000000	55.915800
1845.000000	55.884745
1844.000000	55.935263
1843.000000	55.894832
1842.000000	55.888750
1841.000000	55.875065
1840.000000	55.789270
1839.000000	55.751655
1838.000000	55.704944
1837.000000	55.668813
1836.000000	55.612501
1835.000000	55.545172
1834.000000	55.468624
1833.000000	55.404717
1832.000000	55.369036
1831.000000	55.334888
1830.000000	55.268900
1829.000000	55.182278
1828.000000	55.142602
1827.000000	55.098117
1826.000000	55.046434
1825.000000	55.015556
1824.000000	54.961469
1823.000000	54.897519
1822.000000	54.843568
1821.000000	54.813488
1820.000000	54.772146
1819.000000	54.707931
1818.000000	54.670009
1817.000000	54.622019
1816.000000	54.577832
1815.000000	54.515734
1814.000000	54.435831
1813.000000	54.383971
1812.000000	54.347461
1811.000000	54.285002
1810.000000	54.233190
1809.000000	54.211066
1808.000000	54.145831
1807.000000	54.064275
1806.000000	54.004932
1805.000000	53.928810
1804.000000	53.899418
1803.000000	53.881022
1802.000000	53.812903
1801.000000	53.755817
1800.000000	53.722467
1799.000000	53.670149
1798.000000	53.608725
1797.000000	53.586498
1796.000000	53.561692
1795.000000	53.498992
1794.000000	53.491585
1793.000000	53.445163
1792.000000	53.396629
1791.000000	53.371757
1790.000000	53.335712
1789.000000	53.296294
1788.000000	53.253005
1787.000000	53.203873
1786.000000	53.169291
1785.000000	53.153025
1784.000000	53.116008
1783.000000	53.063852
1782.000000	53.000971
1781.000000	52.941647
1780.000000	52.875193
1779.000000	52.850147
1778.000000	52.785366
1777.000000	52.701391
1776.000000	52.649668
1775.000000	52.593906
1774.000000	52.530156
1773.000000	52.472386
1772.000000	52.381614
1771.000000	52.333048
1770.000000	52.265971
1769.000000	52.189509
1768.000000	52.102674
1767.000000	52.040643
1766.000000	51.987810
1765.000000	51.919748
1764.000000	51.856710
1763.000000	51.757964
1762.000000	51.706192
1761.000000	51.650533
1760.000000	51.573363
1759.000000	51.521872
1758.000000	51.452602
1757.000000	51.358545
1756.000000	51.315485
1755.000000	51.245472
1754.000000	51.178736
1753.000000	51.137839
1752.000000	51.081565
1751.000000	51.002761
1750.000000	50.930004
1749.000000	50.878377
1748.000000	50.804949
1747.000000	50.710972
1746.000000	50.640070
1745.000000	50.545809
1744.000000	50.497711
1743.000000	50.417697
1742.000000	50.315115
1741.000000	50.264863
1740.000000	50.200203
1739.000000	50.154330
1738.000000	50.061110
1737.000000	50.047566
1736.000000	49.989920
1735.000000	49.995642
1734.000000	49.989863
1733.000000	49.951300
1732.000000	49.974257
1731.000000	49.980193
1730.000000	49.998227
1729.000000	50.080630
1728.000000	50.129091
1727.000000	50.173583
1726.000000	50.305286
1725.000000	50.412794
1724.000000	50.488457
1723.000000	50.601195
1722.000000	50.753849
1721.000000	50.845473
1720.000000	51.005819
1719.000000	51.179728
1718.000000	51.291127
1717.000000	51.439857
1716.000000	51.603076
1715.000000	51.676332
1714.000000	51.809236
1713.000000	51.972857
1712.000000	52.054525
1711.000000	52.133365
1710.000000	52.216969
1709.000000	52.313565
1708.000000	52.412042
1707.000000	52.480565
1706.000000	52.491642
1705.000000	52.544444
1704.000000	52.638731
1703.000000	52.635179
1702.000000	52.656303
1701.000000	52.686568
1700.000000	52.707937
1699.000000	52.733085
1698.000000	52.751058
1697.000000	52.792899
1696.000000	52.822594
1695.000000	52.851225
1694.000000	52.891804
1693.000000	52.950335
1692.000000	53.031941
1691.000000	53.136896
1690.000000	53.200968
1689.000000	53.307649
1688.000000	53.480052
1687.000000	53.587829
1686.000000	53.741836
1685.000000	53.910461
1684.000000	54.095838
1683.000000	54.290785
1682.000000	54.503779
1681.000000	54.714940
1680.000000	54.928181
1679.000000	55.172987
1678.000000	55.417233
1677.000000	55.626176
1676.000000	55.867486
1675.000000	56.120269
1674.000000	56.328457
1673.000000	56.572986
1672.000000	56.793204
1671.000000	56.988468
1670.000000	57.190706
1669.000000	57.440286
1668.000000	57.590798
1667.000000	57.830601
1666.000000	57.927141
1665.000000	58.044212
1664.000000	58.188288
1663.000000	58.286163
1662.000000	58.395957
1661.000000	58.525788
1660.000000	58.585533
1659.000000	58.666293
1658.000000	58.741236
1657.000000	58.782582
1656.000000	58.840760
1655.000000	58.870372
1654.000000	58.895580
1653.000000	58.942006
1652.000000	58.948056
1651.000000	58.948122
1650.000000	58.953438
1649.000000	58.921600
1648.000000	58.912638
1647.000000	58.926344
1646.000000	58.910688
1645.000000	58.856357
1644.000000	58.860540
1643.000000	58.836498
1642.000000	58.800343
1641.000000	58.731693
1640.000000	58.705703
1639.000000	58.677024
1638.000000	58.620180
1637.000000	58.563129
1636.000000	58.493225
1635.000000	58.452845
1634.000000	58.396466
1633.000000	58.314327
1632.000000	58.258367
1631.000000	58.208946
1630.000000	58.143971
1629.000000	58.067145
1628.000000	58.008737
1627.000000	57.934137
1626.000000	57.864475
1625.000000	57.791240
1624.000000	57.734764
1623.000000	57.665821
1622.000000	57.609149
1621.000000	57.499694
1620.000000	57.414239
1619.000000	57.338818
1618.000000	57.271342
1617.000000	57.201426
1616.000000	57.113035
1615.000000	57.009607
1614.000000	56.932914
1613.000000	56.847952
1612.000000	56.758699
1611.000000	56.679691
1610.000000	56.585553
1609.000000	56.483916
1608.000000	56.395349
1607.000000	56.302100
1606.000000	56.204207
1605.000000	56.113937
1604.000000	56.009312
1603.000000	55.911874
1602.000000	55.837421
1601.000000	55.753481
1600.000000	55.660669
1599.000000	55.571608
1598.000000	55.477742
1597.000000	55.383628
1596.000000	55.281502
1595.000000	55.190209
1594.000000	55.117120
1593.000000	55.037468
1592.000000	54.955321
1591.000000	54.862636
1590.000000	54.785251
1589.000000	54.711587
1588.000000	54.626442
1587.000000	54.556386
1586.000000	54.478430
1585.000000	54.399886
1584.000000	54.327991
1583.000000	54.263981
1582.000000	54.182342
1581.000000	54.100013
1580.000000	54.038932
1579.000000	53.973565
1578.000000	53.889149
1577.000000	53.810812
1576.000000	53.738978
1575.000000	53.670493
1574.000000	53.593302
1573.000000	53.515058
1572.000000	53.445032
1571.000000	53.379353
1570.000000	53.296306
1569.000000	53.236729
1568.000000	53.186216
1567.000000	53.131106
1566.000000	53.073445
1565.000000	53.013330
1564.000000	52.960749
1563.000000	52.909991
1562.000000	52.859933
1561.000000	52.810869
1560.000000	52.778944
1559.000000	52.740447
1558.000000	52.702837
1557.000000	52.679825
1556.000000	52.637304
1555.000000	52.591055
1554.000000	52.556402
1553.000000	52.518411
1552.000000	52.467004
1551.000000	52.396682
1550.000000	52.336708
1549.000000	52.273229
1548.000000	52.209941
1547.000000	52.129743
1546.000000	52.050961
1545.000000	51.945880
1544.000000	51.830774
1543.000000	51.726849
1542.000000	51.624864
1541.000000	51.523279
1540.000000	51.399136
1539.000000	51.274629
1538.000000	51.142669
1537.000000	51.010548
1536.000000	50.878985
1535.000000	50.779355
1534.000000	50.638749
1533.000000	50.519961
1532.000000	50.395335
1531.000000	50.251571
1530.000000	50.161624
1529.000000	50.053116
1528.000000	49.955784
1527.000000	49.851246
1526.000000	49.758704
1525.000000	49.656597
1524.000000	49.571106
1523.000000	49.483123
1522.000000	49.407751
1521.000000	49.340875
1520.000000	49.272835
1519.000000	49.223510
1518.000000	49.166196
1517.000000	49.094574
1516.000000	49.059243
1515.000000	48.988316
1514.000000	48.935124
1513.000000	48.880202
1512.000000	48.844809
1511.000000	48.814932
1510.000000	48.741147
1509.000000	48.705645
1508.000000	48.682779
1507.000000	48.625379
1506.000000	48.598098
1505.000000	48.580219
1504.000000	48.554578
1503.000000	48.544306
1502.000000	48.509021
1501.000000	48.486195
1500.000000	48.462025
1499.000000	48.453970
1498.000000	48.446353
1497.000000	48.424344
1496.000000	48.415437
1495.000000	48.426596
1494.000000	48.426297
1493.000000	48.451760
1492.000000	48.470941
1491.000000	48.474865
1490.000000	48.493945
1489.000000	48.525386
1488.000000	48.549256
1487.000000	48.580416
1486.000000	48.602032
1485.000000	48.633380
1484.000000	48.672341
1483.000000	48.721245
1482.000000	48.747527
1481.000000	48.799244
1480.000000	48.858171
1479.000000	48.895785
1478.000000	48.931069
1477.000000	48.984918
1476.000000	49.019727
1475.000000	49.080707
1474.000000	49.120295
1473.000000	49.160045
1472.000000	49.203678
1471.000000	49.252701
1470.000000	49.301880
