PE UV       SUBTECH     SPECTRUM    ASCII       PEDS        4.00        
   -1
RDgAgneauUK 42.Sample.asc
18/03/12
14:53:41.00
18/03/12
14:53:41.00
Administrator

200.000000
1
Lambda 750
750N8071901
PerkinElmer UV WinLab 6.0.4.0738 / 1.61.00 Lambda 900

0
0
3350/servo 860.8/2
0
0
UV/VIS
1
1
1
CommonBeamDepol,150mm sphere / downward view
0
0
0
0
Program
Program
3350/servo 860.8/2
3350/0.2 860.8/0.2
3350/0.2 860.8/0.2
0
1
 
 
 
0
 
860.8
319.2
860.8
Front
100
on
 
 
0
0
0
 
0
 
 
 
0
 
 
0
0
0
0
0
 
 
 
 
0
0


0
0
#HDR
-1
-1
#GR
nm
%R
1.0
0.0
2350.000000
-1.000000
2151
8
70.181688
13.598975
#DATA
2350.000000	24.818396
2349.000000	24.733061
2348.000000	24.746980
2347.000000	25.673084
2346.000000	24.974211
2345.000000	25.129281
2344.000000	25.157838
2343.000000	24.583668
2342.000000	24.734560
2341.000000	25.269998
2340.000000	25.418775
2339.000000	25.218769
2338.000000	25.528977
2337.000000	25.847296
2336.000000	25.650833
2335.000000	25.799896
2334.000000	25.704187
2333.000000	25.948736
2332.000000	26.142448
2331.000000	25.840884
2330.000000	25.663968
2329.000000	25.779624
2328.000000	25.773094
2327.000000	25.714372
2326.000000	25.951760
2325.000000	25.873789
2324.000000	25.907215
2323.000000	25.520028
2322.000000	25.439484
2321.000000	25.627001
2320.000000	25.652278
2319.000000	25.440154
2318.000000	25.826682
2317.000000	25.577650
2316.000000	25.502460
2315.000000	25.297562
2314.000000	25.237849
2313.000000	25.163202
2312.000000	25.271446
2311.000000	25.142705
2310.000000	24.997698
2309.000000	24.935623
2308.000000	24.977213
2307.000000	24.789713
2306.000000	24.638392
2305.000000	24.756217
2304.000000	24.531234
2303.000000	24.620658
2302.000000	24.490581
2301.000000	24.199257
2300.000000	24.020722
2299.000000	23.943686
2298.000000	23.739663
2297.000000	23.825122
2296.000000	23.917426
2295.000000	23.776590
2294.000000	23.796462
2293.000000	23.523038
2292.000000	23.363010
2291.000000	23.231981
2290.000000	23.263745
2289.000000	23.282731
2288.000000	23.111134
2287.000000	23.234093
2286.000000	23.055647
2285.000000	23.097315
2284.000000	23.076667
2283.000000	22.872026
2282.000000	22.919361
2281.000000	22.895118
2280.000000	22.895205
2279.000000	23.029688
2278.000000	22.887084
2277.000000	22.867810
2276.000000	23.063267
2275.000000	23.333095
2274.000000	23.331701
2273.000000	23.272716
2272.000000	23.216204
2271.000000	23.212150
2270.000000	23.381916
2269.000000	23.412870
2268.000000	23.278580
2267.000000	23.607379
2266.000000	23.887460
2265.000000	23.812155
2264.000000	23.959545
2263.000000	24.157104
2262.000000	24.161089
2261.000000	24.353035
2260.000000	24.579298
2259.000000	24.737868
2258.000000	24.939832
2257.000000	25.168031
2256.000000	25.320929
2255.000000	25.508696
2254.000000	25.797617
2253.000000	25.885234
2252.000000	26.014389
2251.000000	26.511583
2250.000000	26.744838
2249.000000	26.790775
2248.000000	27.083801
2247.000000	27.372784
2246.000000	27.636701
2245.000000	27.766743
2244.000000	27.908137
2243.000000	28.210475
2242.000000	28.460118
2241.000000	28.587071
2240.000000	28.670894
2239.000000	28.800163
2238.000000	28.963564
2237.000000	29.228752
2236.000000	29.368864
2235.000000	29.470479
2234.000000	29.618787
2233.000000	29.737852
2232.000000	29.776323
2231.000000	29.650548
2230.000000	29.713773
2229.000000	29.917312
2228.000000	30.053680
2227.000000	30.063005
2226.000000	29.987616
2225.000000	29.877833
2224.000000	29.827567
2223.000000	29.778109
2222.000000	29.808522
2221.000000	29.799894
2220.000000	29.728386
2219.000000	29.716930
2218.000000	29.718099
2217.000000	29.538440
2216.000000	29.571469
2215.000000	29.714610
2214.000000	29.664992
2213.000000	29.571679
2212.000000	29.338142
2211.000000	29.208927
2210.000000	29.218286
2209.000000	29.100098
2208.000000	28.891487
2207.000000	28.744564
2206.000000	28.839794
2205.000000	28.814126
2204.000000	28.610740
2203.000000	28.510816
2202.000000	28.448691
2201.000000	28.340940
2200.000000	28.258312
2199.000000	28.272791
2198.000000	28.142161
2197.000000	27.945667
2196.000000	27.811054
2195.000000	27.937583
2194.000000	27.735094
2193.000000	27.600573
2192.000000	27.454751
2191.000000	27.417175
2190.000000	27.384748
2189.000000	27.260341
2188.000000	27.310136
2187.000000	27.164571
2186.000000	26.989018
2185.000000	27.063749
2184.000000	26.945847
2183.000000	26.961111
2182.000000	26.899287
2181.000000	26.717302
2180.000000	26.674520
2179.000000	26.767173
2178.000000	26.779810
2177.000000	26.706123
2176.000000	26.583775
2175.000000	26.779699
2174.000000	26.788475
2173.000000	26.744195
2172.000000	26.863375
2171.000000	26.856641
2170.000000	27.082188
2169.000000	27.154139
2168.000000	27.061740
2167.000000	27.175739
2166.000000	27.246922
2165.000000	27.373676
2164.000000	27.608162
2163.000000	27.748054
2162.000000	27.763456
2161.000000	27.798672
2160.000000	28.188108
2159.000000	28.083470
2158.000000	28.185989
2157.000000	28.297005
2156.000000	28.603444
2155.000000	28.721313
2154.000000	28.846028
2153.000000	29.236382
2152.000000	29.225136
2151.000000	29.299768
2150.000000	29.654292
2149.000000	29.573261
2148.000000	29.747080
2147.000000	29.785418
2146.000000	30.058542
2145.000000	30.366035
2144.000000	30.438030
2143.000000	30.674382
2142.000000	30.825162
2141.000000	30.959727
2140.000000	31.020242
2139.000000	31.066278
2138.000000	31.502485
2137.000000	31.317945
2136.000000	31.471164
2135.000000	31.608647
2134.000000	31.813957
2133.000000	31.786962
2132.000000	31.897482
2131.000000	32.073087
2130.000000	32.394666
2129.000000	32.204014
2128.000000	32.226290
2127.000000	32.289597
2126.000000	32.439884
2125.000000	32.447443
2124.000000	32.564072
2123.000000	32.658508
2122.000000	32.701304
2121.000000	32.718223
2120.000000	32.744376
2119.000000	32.784533
2118.000000	32.851236
2117.000000	32.843777
2116.000000	32.883849
2115.000000	32.989701
2114.000000	32.946975
2113.000000	33.030532
2112.000000	33.131589
2111.000000	33.191918
2110.000000	33.150692
2109.000000	33.082286
2108.000000	33.128436
2107.000000	33.284016
2106.000000	33.052664
2105.000000	32.948924
2104.000000	33.056234
2103.000000	33.272778
2102.000000	33.201537
2101.000000	33.302993
2100.000000	33.119081
2099.000000	33.280375
2098.000000	33.170841
2097.000000	33.265531
2096.000000	33.313388
2095.000000	33.166657
2094.000000	33.183901
2093.000000	33.079307
2092.000000	33.122241
2091.000000	33.175976
2090.000000	33.107053
2089.000000	33.066465
2088.000000	33.133595
2087.000000	33.080498
2086.000000	32.948804
2085.000000	32.908595
2084.000000	32.755287
2083.000000	32.731750
2082.000000	32.644027
2081.000000	32.550323
2080.000000	32.537967
2079.000000	32.366233
2078.000000	32.177415
2077.000000	32.074241
2076.000000	32.033611
2075.000000	31.941550
2074.000000	31.778447
2073.000000	31.683805
2072.000000	31.542267
2071.000000	31.336906
2070.000000	31.174851
2069.000000	30.951235
2068.000000	30.732719
2067.000000	30.605144
2066.000000	30.426621
2065.000000	30.276836
2064.000000	30.043103
2063.000000	29.802235
2062.000000	29.698517
2061.000000	29.563095
2060.000000	29.329436
2059.000000	29.136564
2058.000000	28.938502
2057.000000	28.804409
2056.000000	28.646218
2055.000000	28.486596
2054.000000	28.283311
2053.000000	28.077452
2052.000000	27.938675
2051.000000	27.804805
2050.000000	27.708525
2049.000000	27.558133
2048.000000	27.403708
2047.000000	27.290859
2046.000000	27.247827
2045.000000	27.222514
2044.000000	27.165492
2043.000000	27.078114
2042.000000	27.036770
2041.000000	27.148127
2040.000000	27.199437
2039.000000	27.173980
2038.000000	27.225316
2037.000000	27.297804
2036.000000	27.379542
2035.000000	27.440199
2034.000000	27.553452
2033.000000	27.698751
2032.000000	27.811452
2031.000000	27.911719
2030.000000	28.017263
2029.000000	28.135176
2028.000000	28.291586
2027.000000	28.434582
2026.000000	28.566979
2025.000000	28.674621
2024.000000	28.741087
2023.000000	28.821355
2022.000000	28.863856
2021.000000	28.892277
2020.000000	28.986222
2019.000000	29.049949
2018.000000	29.033162
2017.000000	28.992779
2016.000000	29.008334
2015.000000	28.996354
2014.000000	28.935538
2013.000000	28.939510
2012.000000	28.894793
2011.000000	28.861445
2010.000000	28.789180
2009.000000	28.655261
2008.000000	28.564099
2007.000000	28.469742
2006.000000	28.367434
2005.000000	28.312465
2004.000000	28.210765
2003.000000	28.094570
2002.000000	27.986921
2001.000000	27.889094
2000.000000	27.750866
1999.000000	27.607899
1998.000000	27.501716
1997.000000	27.347526
1996.000000	27.213997
1995.000000	27.103731
1994.000000	26.978156
1993.000000	26.852268
1992.000000	26.694251
1991.000000	26.527735
1990.000000	26.427304
1989.000000	26.272296
1988.000000	26.092926
1987.000000	25.979208
1986.000000	25.883703
1985.000000	25.769651
1984.000000	25.611815
1983.000000	25.495429
1982.000000	25.399007
1981.000000	25.250437
1980.000000	25.083607
1979.000000	24.937366
1978.000000	24.799160
1977.000000	24.646204
1976.000000	24.541078
1975.000000	24.420240
1974.000000	24.232200
1973.000000	24.132726
1972.000000	24.034541
1971.000000	23.870145
1970.000000	23.725269
1969.000000	23.619285
1968.000000	23.517755
1967.000000	23.410639
1966.000000	23.282667
1965.000000	23.141087
1964.000000	22.986617
1963.000000	22.913434
1962.000000	22.781805
1961.000000	22.652093
1960.000000	22.540676
1959.000000	22.413093
1958.000000	22.390863
1957.000000	22.328438
1956.000000	22.136343
1955.000000	22.067591
1954.000000	21.975685
1953.000000	21.865710
1952.000000	21.821770
1951.000000	21.806864
1950.000000	21.738149
1949.000000	21.723025
1948.000000	21.735686
1947.000000	21.601219
1946.000000	21.604405
1945.000000	21.559820
1944.000000	21.574839
1943.000000	21.609548
1942.000000	21.579668
1941.000000	21.624082
1940.000000	21.691776
1939.000000	21.797126
1938.000000	21.815530
1937.000000	21.911716
1936.000000	22.041175
1935.000000	22.068747
1934.000000	22.289569
1933.000000	22.338924
1932.000000	22.373569
1931.000000	22.657541
1930.000000	22.803895
1929.000000	23.045426
1928.000000	23.172262
1927.000000	23.419734
1926.000000	23.655607
1925.000000	23.891476
1924.000000	24.210859
1923.000000	24.457258
1922.000000	24.723556
1921.000000	25.159940
1920.000000	25.475960
1919.000000	25.756102
1918.000000	26.113685
1917.000000	26.473254
1916.000000	26.843452
1915.000000	27.419042
1914.000000	27.911742
1913.000000	28.310977
1912.000000	28.628541
1911.000000	29.154500
1910.000000	29.656385
1909.000000	30.228591
1908.000000	30.841997
1907.000000	31.410382
1906.000000	31.896628
1905.000000	32.552471
1904.000000	33.126719
1903.000000	33.723059
1902.000000	34.469367
1901.000000	35.123726
1900.000000	35.849074
1899.000000	36.512290
1898.000000	37.188261
1897.000000	37.756376
1896.000000	38.470800
1895.000000	39.198543
1894.000000	39.828237
1893.000000	40.542178
1892.000000	41.200106
1891.000000	41.819387
1890.000000	42.475688
1889.000000	43.083250
1888.000000	43.655233
1887.000000	44.255246
1886.000000	44.809359
1885.000000	45.338530
1884.000000	45.875518
1883.000000	46.479283
1882.000000	46.986441
1881.000000	47.491732
1880.000000	47.927754
1879.000000	48.380475
1878.000000	48.832883
1877.000000	49.217545
1876.000000	49.645452
1875.000000	50.064274
1874.000000	50.441102
1873.000000	50.778000
1872.000000	51.063572
1871.000000	51.372940
1870.000000	51.666070
1869.000000	51.961107
1868.000000	52.189226
1867.000000	52.341111
1866.000000	52.564971
1865.000000	52.734698
1864.000000	52.858001
1863.000000	53.035915
1862.000000	53.137629
1861.000000	53.207678
1860.000000	53.352328
1859.000000	53.453045
1858.000000	53.472226
1857.000000	53.600559
1856.000000	53.668620
1855.000000	53.689328
1854.000000	53.776593
1853.000000	53.875614
1852.000000	53.888698
1851.000000	53.917382
1850.000000	53.952368
1849.000000	53.952829
1848.000000	53.972475
1847.000000	53.959080
1846.000000	53.926300
1845.000000	53.916201
1844.000000	53.955665
1843.000000	53.911621
1842.000000	53.869563
1841.000000	53.831068
1840.000000	53.789389
1839.000000	53.791997
1838.000000	53.760661
1837.000000	53.717648
1836.000000	53.635017
1835.000000	53.561535
1834.000000	53.524631
1833.000000	53.506800
1832.000000	53.398385
1831.000000	53.328361
1830.000000	53.305627
1829.000000	53.247357
1828.000000	53.210613
1827.000000	53.153478
1826.000000	53.106077
1825.000000	53.086764
1824.000000	53.033770
1823.000000	52.988675
1822.000000	52.926170
1821.000000	52.877286
1820.000000	52.866102
1819.000000	52.817530
1818.000000	52.759643
1817.000000	52.725152
1816.000000	52.672491
1815.000000	52.615028
1814.000000	52.547233
1813.000000	52.501914
1812.000000	52.474814
1811.000000	52.439269
1810.000000	52.381777
1809.000000	52.336273
1808.000000	52.272021
1807.000000	52.205051
1806.000000	52.177067
1805.000000	52.104837
1804.000000	52.051736
1803.000000	52.027667
1802.000000	51.967146
1801.000000	51.925401
1800.000000	51.891325
1799.000000	51.857263
1798.000000	51.829667
1797.000000	51.801963
1796.000000	51.776235
1795.000000	51.728290
1794.000000	51.698765
1793.000000	51.653985
1792.000000	51.596789
1791.000000	51.571412
1790.000000	51.546021
1789.000000	51.497035
1788.000000	51.470299
1787.000000	51.447790
1786.000000	51.407076
1785.000000	51.375124
1784.000000	51.309346
1783.000000	51.261079
1782.000000	51.243141
1781.000000	51.196370
1780.000000	51.170872
1779.000000	51.131352
1778.000000	51.046039
1777.000000	50.977588
1776.000000	50.923223
1775.000000	50.846022
1774.000000	50.779238
1773.000000	50.747524
1772.000000	50.657567
1771.000000	50.592904
1770.000000	50.509186
1769.000000	50.428658
1768.000000	50.372348
1767.000000	50.305955
1766.000000	50.270595
1765.000000	50.219139
1764.000000	50.160250
1763.000000	50.060511
1762.000000	49.986619
1761.000000	49.948350
1760.000000	49.892946
1759.000000	49.816577
1758.000000	49.786360
1757.000000	49.704329
1756.000000	49.643581
1755.000000	49.587985
1754.000000	49.503181
1753.000000	49.460389
1752.000000	49.385879
1751.000000	49.351089
1750.000000	49.276956
1749.000000	49.223381
1748.000000	49.135358
1747.000000	49.100477
1746.000000	49.032115
1745.000000	48.903923
1744.000000	48.821818
1743.000000	48.784408
1742.000000	48.707365
1741.000000	48.644674
1740.000000	48.603036
1739.000000	48.551240
1738.000000	48.469211
1737.000000	48.416451
1736.000000	48.388097
1735.000000	48.398815
1734.000000	48.379265
1733.000000	48.369092
1732.000000	48.372084
1731.000000	48.362980
1730.000000	48.390498
1729.000000	48.471991
1728.000000	48.507420
1727.000000	48.612706
1726.000000	48.631125
1725.000000	48.737901
1724.000000	48.818784
1723.000000	48.921375
1722.000000	49.043024
1721.000000	49.147740
1720.000000	49.312096
1719.000000	49.491202
1718.000000	49.605326
1717.000000	49.715616
1716.000000	49.845543
1715.000000	49.931715
1714.000000	50.094983
1713.000000	50.211177
1712.000000	50.303695
1711.000000	50.385596
1710.000000	50.464130
1709.000000	50.560771
1708.000000	50.621739
1707.000000	50.694335
1706.000000	50.753075
1705.000000	50.808016
1704.000000	50.868160
1703.000000	50.913656
1702.000000	50.909135
1701.000000	50.959832
1700.000000	50.983617
1699.000000	50.946728
1698.000000	50.973577
1697.000000	51.027433
1696.000000	51.075211
1695.000000	51.113248
1694.000000	51.143349
1693.000000	51.208659
1692.000000	51.261683
1691.000000	51.358641
1690.000000	51.449321
1689.000000	51.533297
1688.000000	51.651544
1687.000000	51.766537
1686.000000	51.917311
1685.000000	52.116214
1684.000000	52.271054
1683.000000	52.446197
1682.000000	52.626381
1681.000000	52.840169
1680.000000	53.018060
1679.000000	53.254244
1678.000000	53.463925
1677.000000	53.683782
1676.000000	53.882247
1675.000000	54.134936
1674.000000	54.341155
1673.000000	54.571598
1672.000000	54.754959
1671.000000	54.941447
1670.000000	55.144594
1669.000000	55.339758
1668.000000	55.500946
1667.000000	55.717487
1666.000000	55.813520
1665.000000	55.946721
1664.000000	56.062246
1663.000000	56.176264
1662.000000	56.285566
1661.000000	56.385937
1660.000000	56.478525
1659.000000	56.540063
1658.000000	56.612991
1657.000000	56.647793
1656.000000	56.701368
1655.000000	56.729743
1654.000000	56.749593
1653.000000	56.788401
1652.000000	56.813695
1651.000000	56.804024
1650.000000	56.822867
1649.000000	56.807790
1648.000000	56.771892
1647.000000	56.763965
1646.000000	56.773216
1645.000000	56.733213
1644.000000	56.700715
1643.000000	56.682870
1642.000000	56.655212
1641.000000	56.580393
1640.000000	56.559813
1639.000000	56.534739
1638.000000	56.506165
1637.000000	56.421802
1636.000000	56.368716
1635.000000	56.338533
1634.000000	56.286681
1633.000000	56.243780
1632.000000	56.188701
1631.000000	56.134184
1630.000000	56.058914
1629.000000	56.011840
1628.000000	55.966347
1627.000000	55.900753
1626.000000	55.811182
1625.000000	55.738346
1624.000000	55.675947
1623.000000	55.622567
1622.000000	55.561416
1621.000000	55.488896
1620.000000	55.428726
1619.000000	55.340543
1618.000000	55.262931
1617.000000	55.201114
1616.000000	55.123303
1615.000000	55.032546
1614.000000	54.966254
1613.000000	54.889297
1612.000000	54.786937
1611.000000	54.715808
1610.000000	54.633318
1609.000000	54.561466
1608.000000	54.485137
1607.000000	54.374881
1606.000000	54.287536
1605.000000	54.209522
1604.000000	54.118171
1603.000000	54.022293
1602.000000	53.932374
1601.000000	53.853520
1600.000000	53.761446
1599.000000	53.683898
1598.000000	53.599896
1597.000000	53.510837
1596.000000	53.423717
1595.000000	53.342719
1594.000000	53.268347
1593.000000	53.203057
1592.000000	53.123953
1591.000000	53.038034
1590.000000	52.965074
1589.000000	52.891819
1588.000000	52.816273
1587.000000	52.745857
1586.000000	52.678332
1585.000000	52.605876
1584.000000	52.545410
1583.000000	52.477656
1582.000000	52.403378
1581.000000	52.345583
1580.000000	52.285630
1579.000000	52.209932
1578.000000	52.138273
1577.000000	52.074738
1576.000000	52.002785
1575.000000	51.924572
1574.000000	51.856950
1573.000000	51.783464
1572.000000	51.722390
1571.000000	51.668449
1570.000000	51.601557
1569.000000	51.540143
1568.000000	51.496610
1567.000000	51.430737
1566.000000	51.379377
1565.000000	51.333406
1564.000000	51.271610
1563.000000	51.234143
1562.000000	51.190011
1561.000000	51.144745
1560.000000	51.102724
1559.000000	51.073858
1558.000000	51.037202
1557.000000	51.003840
1556.000000	50.960422
1555.000000	50.928210
1554.000000	50.884813
1553.000000	50.848541
1552.000000	50.803787
1551.000000	50.733573
1550.000000	50.682792
1549.000000	50.625674
1548.000000	50.562971
1547.000000	50.474816
1546.000000	50.380527
1545.000000	50.316776
1544.000000	50.220405
1543.000000	50.110476
1542.000000	50.016542
1541.000000	49.906616
1540.000000	49.803824
1539.000000	49.701489
1538.000000	49.557368
1537.000000	49.439214
1536.000000	49.319177
1535.000000	49.198491
1534.000000	49.080116
1533.000000	48.979198
1532.000000	48.872373
1531.000000	48.759952
1530.000000	48.654853
1529.000000	48.544838
1528.000000	48.435043
1527.000000	48.352273
1526.000000	48.279045
1525.000000	48.163291
1524.000000	48.083282
1523.000000	48.009135
1522.000000	47.945239
1521.000000	47.866935
1520.000000	47.832876
1519.000000	47.755223
1518.000000	47.700640
1517.000000	47.624381
1516.000000	47.611621
1515.000000	47.530940
1514.000000	47.471040
1513.000000	47.444885
1512.000000	47.399190
1511.000000	47.377525
1510.000000	47.318892
1509.000000	47.284956
1508.000000	47.243870
1507.000000	47.200476
1506.000000	47.165746
1505.000000	47.152699
1504.000000	47.133392
1503.000000	47.099742
1502.000000	47.087416
1501.000000	47.065990
1500.000000	47.044403
1499.000000	47.025978
1498.000000	47.006536
1497.000000	47.006350
1496.000000	47.007364
1495.000000	47.022932
1494.000000	47.019470
1493.000000	47.025378
1492.000000	47.046349
1491.000000	47.057538
1490.000000	47.083039
1489.000000	47.108333
1488.000000	47.120968
1487.000000	47.137720
1486.000000	47.180594
1485.000000	47.196978
1484.000000	47.242616
1483.000000	47.296405
1482.000000	47.316159
1481.000000	47.369603
1480.000000	47.409741
1479.000000	47.451610
1478.000000	47.485033
1477.000000	47.528575
1476.000000	47.556951
1475.000000	47.618374
1474.000000	47.671411
1473.000000	47.696925
1472.000000	47.737233
1471.000000	47.769122
1470.000000	47.826571
