PE UV       SUBTECH     SPECTRUM    ASCII       PEDS        4.00        
   -1
RDgChevreUK 32.Sample.asc
18/03/12
09:31:17.00
18/03/12
09:31:17.00
Administrator

200.000000
1
Lambda 750
750N8071901
PerkinElmer UV WinLab 6.0.4.0738 / 1.61.00 Lambda 900

0
0
3350/servo 860.8/2
0
0
UV/VIS
1
1
1
CommonBeamDepol,150mm sphere / downward view
0
0
0
0
Program
Program
3350/servo 860.8/2
3350/0.2 860.8/0.2
3350/0.2 860.8/0.2
0
1
 
 
 
0
 
860.8
319.2
860.8
Front
100
on
 
 
0
0
0
 
0
 
 
 
0
 
 
0
0
0
0
0
 
 
 
 
0
0


0
0
#HDR
-1
-1
#GR
nm
%R
1.0
0.0
2350.000000
-1.000000
2151
8
60.123139
8.805163
#DATA
2350.000000	28.325201
2349.000000	28.217975
2348.000000	28.391237
2347.000000	28.674468
2346.000000	28.771780
2345.000000	28.379009
2344.000000	28.504032
2343.000000	28.034700
2342.000000	28.219122
2341.000000	28.443347
2340.000000	28.627317
2339.000000	28.931885
2338.000000	28.844293
2337.000000	28.989070
2336.000000	28.620771
2335.000000	29.199093
2334.000000	29.156627
2333.000000	29.242001
2332.000000	29.207779
2331.000000	29.176841
2330.000000	29.215888
2329.000000	29.111794
2328.000000	29.219242
2327.000000	28.626996
2326.000000	28.820599
2325.000000	28.550343
2324.000000	29.175769
2323.000000	28.836849
2322.000000	28.729812
2321.000000	28.484843
2320.000000	28.843740
2319.000000	28.977430
2318.000000	29.003702
2317.000000	28.890499
2316.000000	28.849600
2315.000000	28.744889
2314.000000	28.603678
2313.000000	28.436623
2312.000000	28.358539
2311.000000	28.404859
2310.000000	28.448092
2309.000000	28.672246
2308.000000	28.389191
2307.000000	28.149564
2306.000000	28.160298
2305.000000	28.339687
2304.000000	28.112910
2303.000000	28.103832
2302.000000	27.943911
2301.000000	28.017268
2300.000000	27.852740
2299.000000	28.086882
2298.000000	27.854496
2297.000000	27.796986
2296.000000	27.913477
2295.000000	27.716006
2294.000000	27.540422
2293.000000	27.663964
2292.000000	27.450921
2291.000000	27.592834
2290.000000	27.558991
2289.000000	27.592941
2288.000000	27.538912
2287.000000	27.377538
2286.000000	27.262427
2285.000000	27.338801
2284.000000	27.375443
2283.000000	27.228703
2282.000000	27.103812
2281.000000	27.196648
2280.000000	27.147061
2279.000000	27.233269
2278.000000	27.302860
2277.000000	27.273103
2276.000000	27.509583
2275.000000	27.391414
2274.000000	27.407605
2273.000000	27.738343
2272.000000	27.680027
2271.000000	27.581933
2270.000000	27.493182
2269.000000	27.493204
2268.000000	27.581071
2267.000000	27.567550
2266.000000	27.584841
2265.000000	27.749967
2264.000000	27.926902
2263.000000	27.883208
2262.000000	28.003976
2261.000000	28.261328
2260.000000	28.335424
2259.000000	28.532009
2258.000000	28.622503
2257.000000	28.699775
2256.000000	28.787155
2255.000000	28.781716
2254.000000	28.909846
2253.000000	28.982683
2252.000000	29.172889
2251.000000	29.405901
2250.000000	29.528830
2249.000000	29.623541
2248.000000	29.719013
2247.000000	29.882275
2246.000000	30.081632
2245.000000	30.189378
2244.000000	30.166150
2243.000000	30.311429
2242.000000	30.455073
2241.000000	30.463219
2240.000000	30.465169
2239.000000	30.592559
2238.000000	30.719860
2237.000000	30.833147
2236.000000	30.808282
2235.000000	30.782808
2234.000000	30.982161
2233.000000	31.003611
2232.000000	31.167445
2231.000000	31.287271
2230.000000	31.174452
2229.000000	31.172783
2228.000000	31.170546
2227.000000	31.195621
2226.000000	31.129634
2225.000000	31.068397
2224.000000	31.088682
2223.000000	31.089542
2222.000000	31.202734
2221.000000	31.210374
2220.000000	31.220308
2219.000000	31.120301
2218.000000	31.020929
2217.000000	31.086665
2216.000000	31.069122
2215.000000	30.911325
2214.000000	30.989574
2213.000000	31.095934
2212.000000	31.012374
2211.000000	30.834899
2210.000000	30.913761
2209.000000	30.892911
2208.000000	30.750181
2207.000000	30.580401
2206.000000	30.600306
2205.000000	30.660619
2204.000000	30.610813
2203.000000	30.527230
2202.000000	30.469905
2201.000000	30.418005
2200.000000	30.363229
2199.000000	30.335909
2198.000000	30.267378
2197.000000	30.196035
2196.000000	30.211414
2195.000000	30.074585
2194.000000	30.005252
2193.000000	30.017380
2192.000000	29.923275
2191.000000	29.896664
2190.000000	29.987906
2189.000000	29.947178
2188.000000	29.831064
2187.000000	29.935141
2186.000000	30.043756
2185.000000	29.835291
2184.000000	29.861897
2183.000000	29.929764
2182.000000	29.919188
2181.000000	29.755212
2180.000000	29.821083
2179.000000	29.765217
2178.000000	29.833388
2177.000000	29.863369
2176.000000	29.847457
2175.000000	29.804996
2174.000000	29.871609
2173.000000	29.854807
2172.000000	29.957395
2171.000000	29.951881
2170.000000	30.008173
2169.000000	30.058637
2168.000000	30.162491
2167.000000	30.142081
2166.000000	30.090334
2165.000000	30.520393
2164.000000	30.375751
2163.000000	30.413310
2162.000000	30.517864
2161.000000	30.485526
2160.000000	30.727128
2159.000000	30.779483
2158.000000	30.837812
2157.000000	30.895548
2156.000000	31.157273
2155.000000	31.138595
2154.000000	31.515859
2153.000000	31.558392
2152.000000	31.344682
2151.000000	31.598181
2150.000000	31.879095
2149.000000	31.798564
2148.000000	31.919721
2147.000000	31.855326
2146.000000	32.070870
2145.000000	32.087863
2144.000000	32.234571
2143.000000	32.348249
2142.000000	32.430649
2141.000000	32.623752
2140.000000	32.667935
2139.000000	32.645540
2138.000000	32.861230
2137.000000	32.751290
2136.000000	32.883842
2135.000000	32.903919
2134.000000	33.013454
2133.000000	32.879528
2132.000000	33.229536
2131.000000	33.366260
2130.000000	33.387307
2129.000000	33.321871
2128.000000	33.123013
2127.000000	33.334740
2126.000000	33.243838
2125.000000	33.269625
2124.000000	33.297859
2123.000000	33.433054
2122.000000	33.511570
2121.000000	33.482665
2120.000000	33.479214
2119.000000	33.348080
2118.000000	33.619830
2117.000000	33.535537
2116.000000	33.726532
2115.000000	33.639957
2114.000000	33.704832
2113.000000	33.725478
2112.000000	33.705004
2111.000000	33.734339
2110.000000	33.544037
2109.000000	33.685807
2108.000000	33.627118
2107.000000	33.768993
2106.000000	33.750390
2105.000000	33.708746
2104.000000	33.696886
2103.000000	33.656139
2102.000000	33.715532
2101.000000	33.820127
2100.000000	33.868879
2099.000000	33.817148
2098.000000	33.765562
2097.000000	33.708213
2096.000000	33.747853
2095.000000	33.703352
2094.000000	33.705636
2093.000000	33.701974
2092.000000	33.749971
2091.000000	33.783488
2090.000000	33.580276
2089.000000	33.598556
2088.000000	33.685127
2087.000000	33.689018
2086.000000	33.601204
2085.000000	33.611429
2084.000000	33.517469
2083.000000	33.383521
2082.000000	33.478879
2081.000000	33.345367
2080.000000	33.239138
2079.000000	33.138078
2078.000000	33.067193
2077.000000	33.125115
2076.000000	33.085564
2075.000000	32.979912
2074.000000	32.916031
2073.000000	32.887128
2072.000000	32.724492
2071.000000	32.692023
2070.000000	32.583232
2069.000000	32.453881
2068.000000	32.394618
2067.000000	32.319395
2066.000000	32.206780
2065.000000	32.066630
2064.000000	32.001155
2063.000000	31.902809
2062.000000	31.859128
2061.000000	31.697742
2060.000000	31.606314
2059.000000	31.601636
2058.000000	31.460297
2057.000000	31.361746
2056.000000	31.239526
2055.000000	31.180364
2054.000000	31.088512
2053.000000	31.033431
2052.000000	30.878562
2051.000000	30.821486
2050.000000	30.806838
2049.000000	30.735078
2048.000000	30.660739
2047.000000	30.614572
2046.000000	30.527585
2045.000000	30.450161
2044.000000	30.468453
2043.000000	30.478530
2042.000000	30.468166
2041.000000	30.512420
2040.000000	30.511569
2039.000000	30.494663
2038.000000	30.486060
2037.000000	30.534522
2036.000000	30.582640
2035.000000	30.681842
2034.000000	30.766968
2033.000000	30.811642
2032.000000	30.917175
2031.000000	30.944804
2030.000000	30.961603
2029.000000	31.077880
2028.000000	31.104261
2027.000000	31.142888
2026.000000	31.239218
2025.000000	31.270905
2024.000000	31.280837
2023.000000	31.322887
2022.000000	31.359393
2021.000000	31.327376
2020.000000	31.332801
2019.000000	31.328615
2018.000000	31.335601
2017.000000	31.372694
2016.000000	31.344259
2015.000000	31.329997
2014.000000	31.369028
2013.000000	31.331156
2012.000000	31.294281
2011.000000	31.278867
2010.000000	31.206227
2009.000000	31.170096
2008.000000	31.136152
2007.000000	31.066823
2006.000000	30.983655
2005.000000	30.937290
2004.000000	30.833729
2003.000000	30.747001
2002.000000	30.695963
2001.000000	30.664063
2000.000000	30.589131
1999.000000	30.553767
1998.000000	30.498146
1997.000000	30.400796
1996.000000	30.350328
1995.000000	30.280909
1994.000000	30.187149
1993.000000	30.128151
1992.000000	30.025084
1991.000000	29.933336
1990.000000	29.846451
1989.000000	29.790051
1988.000000	29.707983
1987.000000	29.668880
1986.000000	29.602425
1985.000000	29.514032
1984.000000	29.460432
1983.000000	29.404330
1982.000000	29.340836
1981.000000	29.281029
1980.000000	29.205971
1979.000000	29.125979
1978.000000	29.104285
1977.000000	28.999949
1976.000000	28.890687
1975.000000	28.867246
1974.000000	28.804541
1973.000000	28.741641
1972.000000	28.697207
1971.000000	28.576941
1970.000000	28.538180
1969.000000	28.496615
1968.000000	28.460851
1967.000000	28.330151
1966.000000	28.349916
1965.000000	28.307624
1964.000000	28.212930
1963.000000	28.159125
1962.000000	28.113068
1961.000000	28.091739
1960.000000	28.025421
1959.000000	27.911932
1958.000000	27.913551
1957.000000	27.868645
1956.000000	27.829330
1955.000000	27.808378
1954.000000	27.826615
1953.000000	27.764276
1952.000000	27.733430
1951.000000	27.722505
1950.000000	27.639616
1949.000000	27.621899
1948.000000	27.625115
1947.000000	27.668015
1946.000000	27.625321
1945.000000	27.727080
1944.000000	27.638845
1943.000000	27.689883
1942.000000	27.681161
1941.000000	27.719548
1940.000000	27.763499
1939.000000	27.832976
1938.000000	27.888051
1937.000000	27.990601
1936.000000	28.080052
1935.000000	28.095158
1934.000000	28.128788
1933.000000	28.248865
1932.000000	28.333551
1931.000000	28.398525
1930.000000	28.583600
1929.000000	28.620523
1928.000000	28.710890
1927.000000	28.912188
1926.000000	28.999563
1925.000000	29.189248
1924.000000	29.376090
1923.000000	29.547212
1922.000000	29.656057
1921.000000	29.899068
1920.000000	30.037358
1919.000000	30.186872
1918.000000	30.466117
1917.000000	30.723591
1916.000000	30.811891
1915.000000	31.071716
1914.000000	31.407227
1913.000000	31.625718
1912.000000	31.931259
1911.000000	32.151698
1910.000000	32.437898
1909.000000	32.729621
1908.000000	33.039563
1907.000000	33.381400
1906.000000	33.579004
1905.000000	34.028739
1904.000000	34.377119
1903.000000	34.706720
1902.000000	35.128231
1901.000000	35.502742
1900.000000	35.867064
1899.000000	36.236101
1898.000000	36.607136
1897.000000	36.973817
1896.000000	37.369936
1895.000000	37.780142
1894.000000	38.161562
1893.000000	38.573785
1892.000000	38.977309
1891.000000	39.300329
1890.000000	39.635580
1889.000000	39.967006
1888.000000	40.375043
1887.000000	40.755000
1886.000000	41.094635
1885.000000	41.445883
1884.000000	41.784865
1883.000000	42.093338
1882.000000	42.358173
1881.000000	42.706750
1880.000000	42.975444
1879.000000	43.213040
1878.000000	43.548161
1877.000000	43.769269
1876.000000	43.990940
1875.000000	44.250491
1874.000000	44.459752
1873.000000	44.634217
1872.000000	44.856778
1871.000000	45.056860
1870.000000	45.205781
1869.000000	45.381926
1868.000000	45.507664
1867.000000	45.608758
1866.000000	45.724039
1865.000000	45.829069
1864.000000	45.913487
1863.000000	45.992948
1862.000000	46.066830
1861.000000	46.067086
1860.000000	46.167981
1859.000000	46.290056
1858.000000	46.348217
1857.000000	46.414488
1856.000000	46.446302
1855.000000	46.436169
1854.000000	46.460330
1853.000000	46.521610
1852.000000	46.543823
1851.000000	46.566150
1850.000000	46.541640
1849.000000	46.563945
1848.000000	46.618833
1847.000000	46.594718
1846.000000	46.569409
1845.000000	46.575935
1844.000000	46.539336
1843.000000	46.507809
1842.000000	46.534376
1841.000000	46.499084
1840.000000	46.439907
1839.000000	46.428211
1838.000000	46.409105
1837.000000	46.388203
1836.000000	46.355991
1835.000000	46.277826
1834.000000	46.195173
1833.000000	46.174050
1832.000000	46.147129
1831.000000	46.114142
1830.000000	46.062083
1829.000000	46.033681
1828.000000	46.010971
1827.000000	45.966556
1826.000000	45.917527
1825.000000	45.889083
1824.000000	45.873355
1823.000000	45.838146
1822.000000	45.797958
1821.000000	45.798588
1820.000000	45.786668
1819.000000	45.736905
1818.000000	45.711092
1817.000000	45.674177
1816.000000	45.661057
1815.000000	45.661910
1814.000000	45.598402
1813.000000	45.550802
1812.000000	45.522281
1811.000000	45.481432
1810.000000	45.458174
1809.000000	45.430730
1808.000000	45.392097
1807.000000	45.350723
1806.000000	45.322802
1805.000000	45.296014
1804.000000	45.282035
1803.000000	45.278267
1802.000000	45.237873
1801.000000	45.198477
1800.000000	45.179436
1799.000000	45.153345
1798.000000	45.132794
1797.000000	45.129237
1796.000000	45.118014
1795.000000	45.095857
1794.000000	45.077018
1793.000000	45.075855
1792.000000	45.053253
1791.000000	45.056577
1790.000000	45.065194
1789.000000	45.032980
1788.000000	45.013755
1787.000000	45.005981
1786.000000	44.985563
1785.000000	44.969405
1784.000000	44.965700
1783.000000	44.954670
1782.000000	44.914120
1781.000000	44.857247
1780.000000	44.838597
1779.000000	44.854409
1778.000000	44.804877
1777.000000	44.749948
1776.000000	44.724280
1775.000000	44.689866
1774.000000	44.640590
1773.000000	44.608072
1772.000000	44.566738
1771.000000	44.514766
1770.000000	44.504979
1769.000000	44.448229
1768.000000	44.402211
1767.000000	44.354384
1766.000000	44.311624
1765.000000	44.284443
1764.000000	44.257661
1763.000000	44.198943
1762.000000	44.166651
1761.000000	44.144544
1760.000000	44.100902
1759.000000	44.019199
1758.000000	43.979296
1757.000000	43.949441
1756.000000	43.914930
1755.000000	43.873491
1754.000000	43.845570
1753.000000	43.796072
1752.000000	43.761558
1751.000000	43.764393
1750.000000	43.714261
1749.000000	43.677336
1748.000000	43.615494
1747.000000	43.572770
1746.000000	43.540763
1745.000000	43.498934
1744.000000	43.419094
1743.000000	43.387239
1742.000000	43.329688
1741.000000	43.311237
1740.000000	43.240669
1739.000000	43.203080
1738.000000	43.176765
1737.000000	43.160310
1736.000000	43.153603
1735.000000	43.122342
1734.000000	43.173128
1733.000000	43.137497
1732.000000	43.134818
1731.000000	43.126644
1730.000000	43.109437
1729.000000	43.188653
1728.000000	43.257514
1727.000000	43.266357
1726.000000	43.283597
1725.000000	43.371069
1724.000000	43.438558
1723.000000	43.517358
1722.000000	43.569136
1721.000000	43.653990
1720.000000	43.723254
1719.000000	43.863661
1718.000000	43.939851
1717.000000	43.988513
1716.000000	44.064441
1715.000000	44.109739
1714.000000	44.227011
1713.000000	44.320226
1712.000000	44.366902
1711.000000	44.435640
1710.000000	44.484714
1709.000000	44.561887
1708.000000	44.565826
1707.000000	44.651799
1706.000000	44.642560
1705.000000	44.688357
1704.000000	44.749746
1703.000000	44.741447
1702.000000	44.722641
1701.000000	44.767355
1700.000000	44.823899
1699.000000	44.774426
1698.000000	44.821938
1697.000000	44.827384
1696.000000	44.866437
1695.000000	44.871321
1694.000000	44.943268
1693.000000	44.950720
1692.000000	45.021100
1691.000000	45.063066
1690.000000	45.135226
1689.000000	45.198106
1688.000000	45.290169
1687.000000	45.386237
1686.000000	45.488221
1685.000000	45.591672
1684.000000	45.732056
1683.000000	45.850109
1682.000000	45.992235
1681.000000	46.162925
1680.000000	46.269621
1679.000000	46.451500
1678.000000	46.577102
1677.000000	46.709316
1676.000000	46.888428
1675.000000	47.050266
1674.000000	47.173454
1673.000000	47.331939
1672.000000	47.447281
1671.000000	47.600366
1670.000000	47.734625
1669.000000	47.879020
1668.000000	48.012342
1667.000000	48.168672
1666.000000	48.219024
1665.000000	48.295042
1664.000000	48.377572
1663.000000	48.442026
1662.000000	48.522595
1661.000000	48.615420
1660.000000	48.666932
1659.000000	48.709704
1658.000000	48.776722
1657.000000	48.809906
1656.000000	48.839686
1655.000000	48.868792
1654.000000	48.893758
1653.000000	48.894144
1652.000000	48.884986
1651.000000	48.919242
1650.000000	48.920691
1649.000000	48.908012
1648.000000	48.897076
1647.000000	48.892687
1646.000000	48.881341
1645.000000	48.848723
1644.000000	48.834073
1643.000000	48.820092
1642.000000	48.793478
1641.000000	48.756809
1640.000000	48.731366
1639.000000	48.707268
1638.000000	48.676918
1637.000000	48.658988
1636.000000	48.609796
1635.000000	48.572386
1634.000000	48.552794
1633.000000	48.501074
1632.000000	48.435806
1631.000000	48.391133
1630.000000	48.359037
1629.000000	48.313178
1628.000000	48.268276
1627.000000	48.232736
1626.000000	48.183525
1625.000000	48.152213
1624.000000	48.119356
1623.000000	48.061971
1622.000000	48.023028
1621.000000	47.959893
1620.000000	47.893721
1619.000000	47.843620
1618.000000	47.801355
1617.000000	47.771515
1616.000000	47.707414
1615.000000	47.641497
1614.000000	47.587964
1613.000000	47.530854
1612.000000	47.473807
1611.000000	47.420664
1610.000000	47.370941
1609.000000	47.318267
1608.000000	47.276057
1607.000000	47.209829
1606.000000	47.126815
1605.000000	47.079050
1604.000000	47.018497
1603.000000	46.949220
1602.000000	46.894226
1601.000000	46.840062
1600.000000	46.800496
1599.000000	46.759328
1598.000000	46.708860
1597.000000	46.644343
1596.000000	46.576181
1595.000000	46.527935
1594.000000	46.474671
1593.000000	46.431984
1592.000000	46.383060
1591.000000	46.315780
1590.000000	46.273820
1589.000000	46.235295
1588.000000	46.180608
1587.000000	46.147298
1586.000000	46.116710
1585.000000	46.062360
1584.000000	46.016904
1583.000000	45.966294
1582.000000	45.920791
1581.000000	45.878227
1580.000000	45.838499
1579.000000	45.808220
1578.000000	45.768084
1577.000000	45.719016
1576.000000	45.663263
1575.000000	45.627353
1574.000000	45.580577
1573.000000	45.540353
1572.000000	45.499037
1571.000000	45.451270
1570.000000	45.403971
1569.000000	45.372184
1568.000000	45.334683
1567.000000	45.304732
1566.000000	45.261224
1565.000000	45.244718
1564.000000	45.223316
1563.000000	45.198519
1562.000000	45.162145
1561.000000	45.130026
1560.000000	45.104960
1559.000000	45.070150
1558.000000	45.042860
1557.000000	45.027650
1556.000000	44.979423
1555.000000	44.955001
1554.000000	44.936316
1553.000000	44.907033
1552.000000	44.883281
1551.000000	44.861753
1550.000000	44.818614
1549.000000	44.775156
1548.000000	44.749195
1547.000000	44.676249
1546.000000	44.624562
1545.000000	44.571508
1544.000000	44.508892
1543.000000	44.444422
1542.000000	44.368645
1541.000000	44.321293
1540.000000	44.239455
1539.000000	44.147895
1538.000000	44.072597
1537.000000	43.987242
1536.000000	43.927217
1535.000000	43.862379
1534.000000	43.789239
1533.000000	43.729515
1532.000000	43.629572
1531.000000	43.579097
1530.000000	43.508683
1529.000000	43.446559
1528.000000	43.386952
1527.000000	43.330669
1526.000000	43.291080
1525.000000	43.243850
1524.000000	43.169162
1523.000000	43.138842
1522.000000	43.080179
1521.000000	43.039655
1520.000000	43.026972
1519.000000	42.997226
1518.000000	42.969175
1517.000000	42.920797
1516.000000	42.912693
1515.000000	42.866610
1514.000000	42.849612
1513.000000	42.825542
1512.000000	42.798258
1511.000000	42.797482
1510.000000	42.762050
1509.000000	42.748871
1508.000000	42.734666
1507.000000	42.702682
1506.000000	42.682147
1505.000000	42.671727
1504.000000	42.683232
1503.000000	42.667298
1502.000000	42.669280
1501.000000	42.667657
1500.000000	42.656663
1499.000000	42.640206
1498.000000	42.640946
1497.000000	42.641797
1496.000000	42.656380
1495.000000	42.671089
1494.000000	42.651181
1493.000000	42.685430
1492.000000	42.714293
1491.000000	42.720666
1490.000000	42.734280
1489.000000	42.734970
1488.000000	42.778951
1487.000000	42.796381
1486.000000	42.811273
1485.000000	42.825575
1484.000000	42.852389
1483.000000	42.896584
1482.000000	42.913543
1481.000000	42.946086
1480.000000	42.987511
1479.000000	42.998145
1478.000000	43.023563
1477.000000	43.037501
1476.000000	43.083589
1475.000000	43.106393
1474.000000	43.137088
1473.000000	43.166610
1472.000000	43.213115
1471.000000	43.222137
1470.000000	43.251100
