PE UV       SUBTECH     SPECTRUM    ASCII       PEDS        4.00        
   -1
RDgChevreUK 62.Sample.asc
18/03/12
10:07:02.00
18/03/12
10:07:02.00
Administrator

200.000000
1
Lambda 750
750N8071901
PerkinElmer UV WinLab 6.0.4.0738 / 1.61.00 Lambda 900

0
0
3350/servo 860.8/2
0
0
UV/VIS
1
1
1
CommonBeamDepol,150mm sphere / downward view
0
0
0
0
Program
Program
3350/servo 860.8/2
3350/0.2 860.8/0.2
3350/0.2 860.8/0.2
0
1
 
 
 
0
 
860.8
319.2
860.8
Front
100
on
 
 
0
0
0
 
0
 
 
 
0
 
 
0
0
0
0
0
 
 
 
 
0
0


0
0
#HDR
-1
-1
#GR
nm
%R
1.0
0.0
2350.000000
-1.000000
2151
8
59.196350
10.198489
#DATA
2350.000000	27.348234
2349.000000	27.652870
2348.000000	27.291461
2347.000000	28.122679
2346.000000	27.693819
2345.000000	27.654634
2344.000000	27.621209
2343.000000	27.139231
2342.000000	27.987321
2341.000000	27.820993
2340.000000	27.589663
2339.000000	27.771102
2338.000000	27.948338
2337.000000	28.005571
2336.000000	28.087097
2335.000000	28.436047
2334.000000	28.455384
2333.000000	28.702462
2332.000000	28.301376
2331.000000	28.179899
2330.000000	28.110024
2329.000000	28.209010
2328.000000	28.303449
2327.000000	27.941578
2326.000000	27.975016
2325.000000	28.092413
2324.000000	28.262306
2323.000000	28.102366
2322.000000	27.988474
2321.000000	27.910474
2320.000000	27.993982
2319.000000	28.103330
2318.000000	28.087186
2317.000000	27.882495
2316.000000	27.934696
2315.000000	27.734504
2314.000000	27.692314
2313.000000	27.659257
2312.000000	27.735263
2311.000000	27.772513
2310.000000	27.964863
2309.000000	27.794547
2308.000000	27.515304
2307.000000	27.392480
2306.000000	27.362403
2305.000000	27.424552
2304.000000	27.390939
2303.000000	27.618655
2302.000000	27.473608
2301.000000	27.077892
2300.000000	27.234158
2299.000000	27.085696
2298.000000	27.108842
2297.000000	27.077822
2296.000000	26.862998
2295.000000	26.921072
2294.000000	26.868122
2293.000000	26.636811
2292.000000	26.606729
2291.000000	26.620934
2290.000000	26.497932
2289.000000	26.362000
2288.000000	26.414253
2287.000000	26.604420
2286.000000	26.613377
2285.000000	26.502622
2284.000000	26.391999
2283.000000	26.367562
2282.000000	26.306341
2281.000000	26.655557
2280.000000	26.736537
2279.000000	26.528954
2278.000000	26.386186
2277.000000	26.508146
2276.000000	26.441152
2275.000000	26.384275
2274.000000	26.377617
2273.000000	26.490812
2272.000000	26.660267
2271.000000	26.643214
2270.000000	26.600711
2269.000000	26.607960
2268.000000	26.755528
2267.000000	26.804265
2266.000000	26.859961
2265.000000	26.804662
2264.000000	26.930572
2263.000000	27.137200
2262.000000	27.144737
2261.000000	27.298793
2260.000000	27.388824
2259.000000	27.510529
2258.000000	27.692847
2257.000000	27.574040
2256.000000	27.601665
2255.000000	28.021929
2254.000000	28.127574
2253.000000	28.030724
2252.000000	28.166875
2251.000000	28.447396
2250.000000	28.560476
2249.000000	28.727509
2248.000000	28.945996
2247.000000	29.075663
2246.000000	29.138068
2245.000000	29.112898
2244.000000	29.218378
2243.000000	29.440001
2242.000000	29.482266
2241.000000	29.537266
2240.000000	29.604932
2239.000000	29.774250
2238.000000	29.971016
2237.000000	30.088379
2236.000000	30.112853
2235.000000	30.102382
2234.000000	30.172951
2233.000000	30.167858
2232.000000	30.333419
2231.000000	30.412277
2230.000000	30.394972
2229.000000	30.416328
2228.000000	30.528899
2227.000000	30.546983
2226.000000	30.447817
2225.000000	30.347008
2224.000000	30.434550
2223.000000	30.391612
2222.000000	30.203419
2221.000000	30.332183
2220.000000	30.496630
2219.000000	30.412500
2218.000000	30.296023
2217.000000	30.213662
2216.000000	30.179676
2215.000000	30.352609
2214.000000	30.389437
2213.000000	30.187463
2212.000000	30.026736
2211.000000	29.916490
2210.000000	30.023250
2209.000000	29.904222
2208.000000	29.835321
2207.000000	29.859695
2206.000000	29.913445
2205.000000	29.889429
2204.000000	29.806060
2203.000000	29.616595
2202.000000	29.648872
2201.000000	29.697981
2200.000000	29.609572
2199.000000	29.702454
2198.000000	29.585008
2197.000000	29.432870
2196.000000	29.496209
2195.000000	29.342365
2194.000000	29.190867
2193.000000	29.250345
2192.000000	29.151389
2191.000000	29.141536
2190.000000	29.238637
2189.000000	29.199853
2188.000000	29.071186
2187.000000	29.123547
2186.000000	29.011445
2185.000000	28.993766
2184.000000	29.129485
2183.000000	29.170097
2182.000000	28.914033
2181.000000	28.791618
2180.000000	28.808639
2179.000000	28.865401
2178.000000	28.857371
2177.000000	28.934186
2176.000000	28.844712
2175.000000	28.964154
2174.000000	28.989016
2173.000000	29.004226
2172.000000	29.080424
2171.000000	29.202624
2170.000000	29.212739
2169.000000	29.307045
2168.000000	29.292745
2167.000000	29.320928
2166.000000	29.315251
2165.000000	29.564158
2164.000000	29.579548
2163.000000	29.710677
2162.000000	29.697051
2161.000000	29.705085
2160.000000	30.044424
2159.000000	29.963427
2158.000000	29.965971
2157.000000	30.065950
2156.000000	30.258930
2155.000000	30.317036
2154.000000	30.550840
2153.000000	30.550352
2152.000000	30.833621
2151.000000	30.788548
2150.000000	30.815972
2149.000000	30.986589
2148.000000	31.098936
2147.000000	31.196124
2146.000000	31.263785
2145.000000	31.392593
2144.000000	31.567793
2143.000000	31.495532
2142.000000	31.806092
2141.000000	31.773661
2140.000000	31.875323
2139.000000	32.066845
2138.000000	32.225609
2137.000000	32.109248
2136.000000	32.166853
2135.000000	32.188608
2134.000000	32.289555
2133.000000	32.180141
2132.000000	32.457485
2131.000000	32.606474
2130.000000	32.537579
2129.000000	32.581962
2128.000000	32.510333
2127.000000	32.496616
2126.000000	32.546334
2125.000000	32.554059
2124.000000	32.676529
2123.000000	32.775218
2122.000000	32.928871
2121.000000	32.932207
2120.000000	32.751016
2119.000000	32.883468
2118.000000	32.939317
2117.000000	33.063191
2116.000000	33.030380
2115.000000	33.076489
2114.000000	32.971227
2113.000000	32.786768
2112.000000	32.860740
2111.000000	32.955063
2110.000000	32.981410
2109.000000	33.001783
2108.000000	32.895912
2107.000000	32.977428
2106.000000	33.017703
2105.000000	32.938348
2104.000000	32.964080
2103.000000	33.083362
2102.000000	33.080615
2101.000000	33.122157
2100.000000	33.109616
2099.000000	33.179125
2098.000000	33.022714
2097.000000	32.982935
2096.000000	33.025390
2095.000000	32.890050
2094.000000	33.077577
2093.000000	33.000780
2092.000000	32.952500
2091.000000	33.006046
2090.000000	32.997995
2089.000000	33.001755
2088.000000	33.036716
2087.000000	32.957038
2086.000000	32.895412
2085.000000	32.864139
2084.000000	32.794601
2083.000000	32.724489
2082.000000	32.740026
2081.000000	32.694226
2080.000000	32.490146
2079.000000	32.448632
2078.000000	32.448765
2077.000000	32.490779
2076.000000	32.406426
2075.000000	32.294500
2074.000000	32.191280
2073.000000	32.121643
2072.000000	32.069806
2071.000000	31.917613
2070.000000	31.787993
2069.000000	31.756231
2068.000000	31.608066
2067.000000	31.547437
2066.000000	31.417773
2065.000000	31.266299
2064.000000	31.301173
2063.000000	31.160332
2062.000000	31.099948
2061.000000	30.925807
2060.000000	30.862904
2059.000000	30.778734
2058.000000	30.657293
2057.000000	30.594969
2056.000000	30.524900
2055.000000	30.453500
2054.000000	30.386556
2053.000000	30.280695
2052.000000	30.133816
2051.000000	29.979638
2050.000000	29.889541
2049.000000	29.855781
2048.000000	29.799033
2047.000000	29.761931
2046.000000	29.737894
2045.000000	29.668282
2044.000000	29.604103
2043.000000	29.590886
2042.000000	29.572436
2041.000000	29.634133
2040.000000	29.705072
2039.000000	29.635829
2038.000000	29.609131
2037.000000	29.677197
2036.000000	29.741378
2035.000000	29.801717
2034.000000	29.884590
2033.000000	29.922721
2032.000000	29.986964
2031.000000	30.040499
2030.000000	30.088742
2029.000000	30.151451
2028.000000	30.226835
2027.000000	30.244297
2026.000000	30.304688
2025.000000	30.401600
2024.000000	30.405500
2023.000000	30.422715
2022.000000	30.427535
2021.000000	30.411195
2020.000000	30.457509
2019.000000	30.478564
2018.000000	30.472856
2017.000000	30.525108
2016.000000	30.499180
2015.000000	30.441789
2014.000000	30.421356
2013.000000	30.368104
2012.000000	30.352752
2011.000000	30.375053
2010.000000	30.329931
2009.000000	30.233457
2008.000000	30.182359
2007.000000	30.116800
2006.000000	30.040857
2005.000000	29.991891
2004.000000	29.963660
2003.000000	29.924670
2002.000000	29.801790
2001.000000	29.700027
2000.000000	29.637105
1999.000000	29.550893
1998.000000	29.471461
1997.000000	29.433350
1996.000000	29.389679
1995.000000	29.323584
1994.000000	29.175771
1993.000000	29.061580
1992.000000	28.992680
1991.000000	28.955504
1990.000000	28.873676
1989.000000	28.727948
1988.000000	28.654772
1987.000000	28.642350
1986.000000	28.570763
1985.000000	28.516631
1984.000000	28.436620
1983.000000	28.341657
1982.000000	28.287358
1981.000000	28.250918
1980.000000	28.136629
1979.000000	28.030324
1978.000000	27.986351
1977.000000	27.890088
1976.000000	27.805336
1975.000000	27.771046
1974.000000	27.691481
1973.000000	27.605469
1972.000000	27.512269
1971.000000	27.516390
1970.000000	27.424813
1969.000000	27.354530
1968.000000	27.303327
1967.000000	27.228083
1966.000000	27.223511
1965.000000	27.120800
1964.000000	27.090611
1963.000000	27.032675
1962.000000	26.970474
1961.000000	26.897759
1960.000000	26.831650
1959.000000	26.750369
1958.000000	26.754418
1957.000000	26.721896
1956.000000	26.688444
1955.000000	26.704042
1954.000000	26.594052
1953.000000	26.544256
1952.000000	26.557761
1951.000000	26.566325
1950.000000	26.428641
1949.000000	26.448480
1948.000000	26.484828
1947.000000	26.457206
1946.000000	26.407788
1945.000000	26.468785
1944.000000	26.529989
1943.000000	26.554824
1942.000000	26.513539
1941.000000	26.537598
1940.000000	26.618319
1939.000000	26.658019
1938.000000	26.702982
1937.000000	26.789903
1936.000000	26.930979
1935.000000	26.801698
1934.000000	26.986841
1933.000000	27.022838
1932.000000	27.153453
1931.000000	27.249116
1930.000000	27.252349
1929.000000	27.454803
1928.000000	27.571502
1927.000000	27.735038
1926.000000	27.941997
1925.000000	28.113719
1924.000000	28.249907
1923.000000	28.388440
1922.000000	28.550382
1921.000000	28.855521
1920.000000	28.916015
1919.000000	29.187898
1918.000000	29.441433
1917.000000	29.688260
1916.000000	29.672427
1915.000000	30.110906
1914.000000	30.425953
1913.000000	30.681507
1912.000000	30.929474
1911.000000	31.196010
1910.000000	31.468255
1909.000000	31.749267
1908.000000	32.213405
1907.000000	32.385230
1906.000000	32.797735
1905.000000	33.166160
1904.000000	33.535636
1903.000000	33.894733
1902.000000	34.371346
1901.000000	34.689453
1900.000000	35.104509
1899.000000	35.496225
1898.000000	35.893188
1897.000000	36.252109
1896.000000	36.602869
1895.000000	37.126928
1894.000000	37.473500
1893.000000	37.885495
1892.000000	38.329376
1891.000000	38.709211
1890.000000	39.117928
1889.000000	39.532073
1888.000000	39.940684
1887.000000	40.285121
1886.000000	40.603420
1885.000000	40.909600
1884.000000	41.279959
1883.000000	41.593495
1882.000000	41.900406
1881.000000	42.213953
1880.000000	42.486473
1879.000000	42.740208
1878.000000	43.049461
1877.000000	43.392346
1876.000000	43.546089
1875.000000	43.799063
1874.000000	44.123967
1873.000000	44.344731
1872.000000	44.537464
1871.000000	44.678500
1870.000000	44.821408
1869.000000	45.005935
1868.000000	45.180191
1867.000000	45.214595
1866.000000	45.312921
1865.000000	45.472080
1864.000000	45.560495
1863.000000	45.662236
1862.000000	45.762570
1861.000000	45.766410
1860.000000	45.874776
1859.000000	45.925105
1858.000000	45.987993
1857.000000	46.029130
1856.000000	46.052355
1855.000000	46.065737
1854.000000	46.136895
1853.000000	46.197086
1852.000000	46.219735
1851.000000	46.257291
1850.000000	46.256178
1849.000000	46.222323
1848.000000	46.210965
1847.000000	46.227606
1846.000000	46.249470
1845.000000	46.219624
1844.000000	46.166546
1843.000000	46.166291
1842.000000	46.163443
1841.000000	46.121897
1840.000000	46.124524
1839.000000	46.102392
1838.000000	46.089973
1837.000000	46.057218
1836.000000	46.020585
1835.000000	45.950689
1834.000000	45.895577
1833.000000	45.831556
1832.000000	45.807958
1831.000000	45.751808
1830.000000	45.702276
1829.000000	45.687492
1828.000000	45.674735
1827.000000	45.657295
1826.000000	45.611373
1825.000000	45.571696
1824.000000	45.536837
1823.000000	45.511779
1822.000000	45.456256
1821.000000	45.439276
1820.000000	45.437207
1819.000000	45.382879
1818.000000	45.326346
1817.000000	45.310236
1816.000000	45.288394
1815.000000	45.256996
1814.000000	45.237434
1813.000000	45.213831
1812.000000	45.169387
1811.000000	45.143948
1810.000000	45.119352
1809.000000	45.100993
1808.000000	45.081349
1807.000000	45.051132
1806.000000	45.013413
1805.000000	44.971235
1804.000000	44.946249
1803.000000	44.926906
1802.000000	44.902686
1801.000000	44.878514
1800.000000	44.851770
1799.000000	44.824973
1798.000000	44.810093
1797.000000	44.786435
1796.000000	44.758855
1795.000000	44.767499
1794.000000	44.768704
1793.000000	44.746325
1792.000000	44.706643
1791.000000	44.706158
1790.000000	44.706201
1789.000000	44.698672
1788.000000	44.687157
1787.000000	44.665552
1786.000000	44.661446
1785.000000	44.653367
1784.000000	44.645309
1783.000000	44.608408
1782.000000	44.576704
1781.000000	44.559105
1780.000000	44.548362
1779.000000	44.531064
1778.000000	44.476352
1777.000000	44.411045
1776.000000	44.396099
1775.000000	44.354417
1774.000000	44.320868
1773.000000	44.296857
1772.000000	44.241350
1771.000000	44.180988
1770.000000	44.148392
1769.000000	44.139684
1768.000000	44.104920
1767.000000	44.066063
1766.000000	44.026942
1765.000000	44.000941
1764.000000	43.950845
1763.000000	43.882805
1762.000000	43.861116
1761.000000	43.815887
1760.000000	43.728141
1759.000000	43.689655
1758.000000	43.682886
1757.000000	43.654480
1756.000000	43.620043
1755.000000	43.585333
1754.000000	43.543070
1753.000000	43.508711
1752.000000	43.466480
1751.000000	43.446932
1750.000000	43.398651
1749.000000	43.363547
1748.000000	43.315810
1747.000000	43.263789
1746.000000	43.212746
1745.000000	43.140500
1744.000000	43.101000
1743.000000	43.066784
1742.000000	43.018678
1741.000000	42.985213
1740.000000	42.976670
1739.000000	42.920360
1738.000000	42.868175
1737.000000	42.831858
1736.000000	42.804103
1735.000000	42.832673
1734.000000	42.845211
1733.000000	42.789758
1732.000000	42.812316
1731.000000	42.816008
1730.000000	42.825089
1729.000000	42.856810
1728.000000	42.891477
1727.000000	42.954566
1726.000000	42.970306
1725.000000	43.024354
1724.000000	43.102921
1723.000000	43.163744
1722.000000	43.238358
1721.000000	43.325162
1720.000000	43.414355
1719.000000	43.538383
1718.000000	43.561390
1717.000000	43.685940
1716.000000	43.785214
1715.000000	43.817956
1714.000000	43.899965
1713.000000	43.975918
1712.000000	44.042536
1711.000000	44.112411
1710.000000	44.191003
1709.000000	44.248034
1708.000000	44.244700
1707.000000	44.292749
1706.000000	44.338717
1705.000000	44.377434
1704.000000	44.418188
1703.000000	44.411613
1702.000000	44.417266
1701.000000	44.450603
1700.000000	44.505384
1699.000000	44.482104
1698.000000	44.496669
1697.000000	44.564524
1696.000000	44.569551
1695.000000	44.579953
1694.000000	44.622024
1693.000000	44.656861
1692.000000	44.686238
1691.000000	44.725065
1690.000000	44.817804
1689.000000	44.905640
1688.000000	44.981331
1687.000000	45.059219
1686.000000	45.162153
1685.000000	45.297814
1684.000000	45.382679
1683.000000	45.522538
1682.000000	45.676922
1681.000000	45.811881
1680.000000	45.953227
1679.000000	46.063618
1678.000000	46.249187
1677.000000	46.400591
1676.000000	46.538646
1675.000000	46.675629
1674.000000	46.825947
1673.000000	47.003135
1672.000000	47.136510
1671.000000	47.246538
1670.000000	47.358978
1669.000000	47.555543
1668.000000	47.663494
1667.000000	47.792452
1666.000000	47.861321
1665.000000	47.947418
1664.000000	48.047973
1663.000000	48.109646
1662.000000	48.165328
1661.000000	48.248669
1660.000000	48.303934
1659.000000	48.373691
1658.000000	48.411738
1657.000000	48.430671
1656.000000	48.471039
1655.000000	48.498675
1654.000000	48.478285
1653.000000	48.497619
1652.000000	48.544326
1651.000000	48.539312
1650.000000	48.542897
1649.000000	48.544016
1648.000000	48.531679
1647.000000	48.531717
1646.000000	48.510109
1645.000000	48.455886
1644.000000	48.492041
1643.000000	48.462910
1642.000000	48.407707
1641.000000	48.392978
1640.000000	48.360844
1639.000000	48.331016
1638.000000	48.296335
1637.000000	48.274295
1636.000000	48.233811
1635.000000	48.216710
1634.000000	48.170200
1633.000000	48.111929
1632.000000	48.075239
1631.000000	48.043281
1630.000000	48.001960
1629.000000	47.950870
1628.000000	47.921921
1627.000000	47.879293
1626.000000	47.831488
1625.000000	47.793832
1624.000000	47.738105
1623.000000	47.699783
1622.000000	47.661426
1621.000000	47.588348
1620.000000	47.536989
1619.000000	47.490161
1618.000000	47.446698
1617.000000	47.400405
1616.000000	47.348525
1615.000000	47.291437
1614.000000	47.223828
1613.000000	47.160462
1612.000000	47.113768
1611.000000	47.060300
1610.000000	47.001101
1609.000000	46.963476
1608.000000	46.915557
1607.000000	46.849507
1606.000000	46.792609
1605.000000	46.732968
1604.000000	46.668995
1603.000000	46.613573
1602.000000	46.552290
1601.000000	46.501875
1600.000000	46.443145
1599.000000	46.388387
1598.000000	46.342908
1597.000000	46.280231
1596.000000	46.206548
1595.000000	46.168537
1594.000000	46.132062
1593.000000	46.076639
1592.000000	46.022252
1591.000000	45.976545
1590.000000	45.934359
1589.000000	45.888692
1588.000000	45.846066
1587.000000	45.796367
1586.000000	45.752175
1585.000000	45.707222
1584.000000	45.662594
1583.000000	45.626196
1582.000000	45.580828
1581.000000	45.528960
1580.000000	45.479094
1579.000000	45.433024
1578.000000	45.401636
1577.000000	45.373016
1576.000000	45.322381
1575.000000	45.270558
1574.000000	45.217720
1573.000000	45.171039
1572.000000	45.133499
1571.000000	45.087655
1570.000000	45.036366
1569.000000	45.019834
1568.000000	44.986337
1567.000000	44.941950
1566.000000	44.912028
1565.000000	44.875179
1564.000000	44.839283
1563.000000	44.815304
1562.000000	44.771580
1561.000000	44.741901
1560.000000	44.740876
1559.000000	44.717021
1558.000000	44.673652
1557.000000	44.655782
1556.000000	44.633969
1555.000000	44.611463
1554.000000	44.567944
1553.000000	44.517865
1552.000000	44.487509
1551.000000	44.468714
1550.000000	44.452482
1549.000000	44.409910
1548.000000	44.371250
1547.000000	44.314648
1546.000000	44.244237
1545.000000	44.186541
1544.000000	44.120185
1543.000000	44.054315
1542.000000	43.989757
1541.000000	43.924690
1540.000000	43.851048
1539.000000	43.780434
1538.000000	43.692635
1537.000000	43.623264
1536.000000	43.546369
1535.000000	43.473511
1534.000000	43.402388
1533.000000	43.337724
1532.000000	43.245518
1531.000000	43.182188
1530.000000	43.113400
1529.000000	43.039643
1528.000000	42.978588
1527.000000	42.934801
1526.000000	42.896443
1525.000000	42.816975
1524.000000	42.764652
1523.000000	42.712167
1522.000000	42.672566
1521.000000	42.623876
1520.000000	42.609657
1519.000000	42.561323
1518.000000	42.532190
1517.000000	42.496363
1516.000000	42.478093
1515.000000	42.453094
1514.000000	42.405227
1513.000000	42.402658
1512.000000	42.372808
1511.000000	42.365986
1510.000000	42.328403
1509.000000	42.323170
1508.000000	42.303065
1507.000000	42.278975
1506.000000	42.262022
1505.000000	42.262664
1504.000000	42.250622
1503.000000	42.235356
1502.000000	42.224997
1501.000000	42.222724
1500.000000	42.216635
1499.000000	42.204786
1498.000000	42.193520
1497.000000	42.195468
1496.000000	42.190091
1495.000000	42.231736
1494.000000	42.222840
1493.000000	42.228956
1492.000000	42.240272
1491.000000	42.251697
1490.000000	42.262326
1489.000000	42.269532
1488.000000	42.322041
1487.000000	42.326845
1486.000000	42.347543
1485.000000	42.369967
1484.000000	42.391931
1483.000000	42.415907
1482.000000	42.436320
1481.000000	42.473145
1480.000000	42.504431
1479.000000	42.524607
1478.000000	42.556616
1477.000000	42.580568
1476.000000	42.590469
1475.000000	42.619723
1474.000000	42.636870
1473.000000	42.682678
1472.000000	42.710750
1471.000000	42.728858
1470.000000	42.759802
