PE UV       SUBTECH     SPECTRUM    ASCII       PEDS        4.00        
   -1
RDgChevreUK 12.Sample.asc
18/03/12
09:08:52.00
18/03/12
09:08:52.00
Administrator

200.000000
1
Lambda 750
750N8071901
PerkinElmer UV WinLab 6.0.4.0738 / 1.61.00 Lambda 900

0
0
3350/servo 860.8/2
0
0
UV/VIS
1
1
1
CommonBeamDepol,150mm sphere / downward view
0
0
0
0
Program
Program
3350/servo 860.8/2
3350/0.2 860.8/0.2
3350/0.2 860.8/0.2
0
1
 
 
 
0
 
860.8
319.2
860.8
Front
100
on
 
 
0
0
0
 
0
 
 
 
0
 
 
0
0
0
0
0
 
 
 
 
0
0


0
0
#HDR
-1
-1
#GR
nm
%R
1.0
0.0
2350.000000
-1.000000
2151
8
64.014198
8.290699
#DATA
2350.000000	31.839044
2349.000000	31.569924
2348.000000	31.655144
2347.000000	32.601780
2346.000000	32.192315
2345.000000	32.130569
2344.000000	31.766806
2343.000000	31.898691
2342.000000	31.845581
2341.000000	32.081514
2340.000000	31.972158
2339.000000	32.264829
2338.000000	32.757449
2337.000000	32.586060
2336.000000	32.261294
2335.000000	32.425237
2334.000000	32.491957
2333.000000	33.032300
2332.000000	32.709388
2331.000000	32.543798
2330.000000	32.734924
2329.000000	32.646773
2328.000000	32.549516
2327.000000	32.335613
2326.000000	32.776615
2325.000000	32.398305
2324.000000	32.569686
2323.000000	32.474168
2322.000000	32.196669
2321.000000	32.188121
2320.000000	32.228140
2319.000000	32.217890
2318.000000	32.413183
2317.000000	32.458478
2316.000000	32.368791
2315.000000	32.416993
2314.000000	32.145915
2313.000000	32.015890
2312.000000	32.051134
2311.000000	32.080226
2310.000000	31.953223
2309.000000	31.917637
2308.000000	31.844115
2307.000000	31.648782
2306.000000	31.905485
2305.000000	31.918107
2304.000000	31.798604
2303.000000	31.806824
2302.000000	31.666360
2301.000000	31.673161
2300.000000	31.514062
2299.000000	31.383006
2298.000000	31.325768
2297.000000	31.173888
2296.000000	31.280494
2295.000000	31.122200
2294.000000	30.866112
2293.000000	30.982319
2292.000000	30.908689
2291.000000	30.594397
2290.000000	30.848222
2289.000000	31.049556
2288.000000	31.078631
2287.000000	30.991407
2286.000000	30.745868
2285.000000	30.807932
2284.000000	30.672282
2283.000000	30.539132
2282.000000	30.724438
2281.000000	30.793881
2280.000000	30.796882
2279.000000	30.665294
2278.000000	30.618021
2277.000000	30.782061
2276.000000	30.611181
2275.000000	30.793071
2274.000000	30.854066
2273.000000	30.813690
2272.000000	30.881276
2271.000000	30.849777
2270.000000	30.967820
2269.000000	30.999783
2268.000000	31.002519
2267.000000	31.083953
2266.000000	31.117857
2265.000000	31.030703
2264.000000	31.212075
2263.000000	31.296506
2262.000000	31.389821
2261.000000	31.571445
2260.000000	31.733737
2259.000000	31.848666
2258.000000	31.859181
2257.000000	32.007241
2256.000000	32.253077
2255.000000	32.317289
2254.000000	32.319277
2253.000000	32.461663
2252.000000	32.636120
2251.000000	32.734736
2250.000000	32.779502
2249.000000	32.903667
2248.000000	33.112182
2247.000000	33.383749
2246.000000	33.397576
2245.000000	33.358969
2244.000000	33.529343
2243.000000	33.778265
2242.000000	33.903738
2241.000000	33.950366
2240.000000	34.119432
2239.000000	34.253776
2238.000000	34.342200
2237.000000	34.497231
2236.000000	34.613007
2235.000000	34.627196
2234.000000	34.635077
2233.000000	34.676555
2232.000000	34.677593
2231.000000	34.660036
2230.000000	34.677920
2229.000000	34.840586
2228.000000	34.868561
2227.000000	34.855206
2226.000000	34.805687
2225.000000	34.653421
2224.000000	34.658088
2223.000000	34.692905
2222.000000	34.710944
2221.000000	34.708590
2220.000000	34.750371
2219.000000	34.718644
2218.000000	34.813652
2217.000000	34.800891
2216.000000	34.710690
2215.000000	34.462230
2214.000000	34.396102
2213.000000	34.473300
2212.000000	34.454032
2211.000000	34.343229
2210.000000	34.334102
2209.000000	34.160625
2208.000000	34.173890
2207.000000	34.289127
2206.000000	34.265555
2205.000000	34.192962
2204.000000	34.120858
2203.000000	34.081585
2202.000000	34.081240
2201.000000	34.055038
2200.000000	33.857412
2199.000000	33.961979
2198.000000	33.857540
2197.000000	33.732731
2196.000000	33.818308
2195.000000	33.745875
2194.000000	33.639644
2193.000000	33.548427
2192.000000	33.447922
2191.000000	33.424766
2190.000000	33.425537
2189.000000	33.363778
2188.000000	33.345400
2187.000000	33.358031
2186.000000	33.424470
2185.000000	33.216497
2184.000000	33.435225
2183.000000	33.455001
2182.000000	33.332157
2181.000000	33.211230
2180.000000	33.291308
2179.000000	33.141596
2178.000000	33.111124
2177.000000	33.268962
2176.000000	33.314087
2175.000000	33.454653
2174.000000	33.496646
2173.000000	33.434296
2172.000000	33.674831
2171.000000	33.668081
2170.000000	33.616863
2169.000000	33.665151
2168.000000	33.817776
2167.000000	33.751598
2166.000000	33.802612
2165.000000	33.852418
2164.000000	34.068452
2163.000000	33.898706
2162.000000	34.039295
2161.000000	34.061295
2160.000000	34.206024
2159.000000	34.353512
2158.000000	34.380078
2157.000000	34.415265
2156.000000	34.651954
2155.000000	34.692523
2154.000000	34.927493
2153.000000	35.228342
2152.000000	35.125827
2151.000000	35.043339
2150.000000	35.312847
2149.000000	35.229884
2148.000000	35.412755
2147.000000	35.690779
2146.000000	35.826062
2145.000000	35.933227
2144.000000	35.930905
2143.000000	36.113594
2142.000000	36.165233
2141.000000	36.248993
2140.000000	36.475728
2139.000000	36.349325
2138.000000	36.460372
2137.000000	36.541268
2136.000000	36.506466
2135.000000	36.608898
2134.000000	36.857231
2133.000000	36.677249
2132.000000	36.807228
2131.000000	37.121577
2130.000000	37.067417
2129.000000	37.067971
2128.000000	37.099711
2127.000000	36.995555
2126.000000	37.124485
2125.000000	37.171421
2124.000000	37.142524
2123.000000	37.120417
2122.000000	37.322358
2121.000000	37.250625
2120.000000	37.176647
2119.000000	37.425522
2118.000000	37.415036
2117.000000	37.393312
2116.000000	37.402295
2115.000000	37.469290
2114.000000	37.390664
2113.000000	37.389898
2112.000000	37.415838
2111.000000	37.516875
2110.000000	37.578800
2109.000000	37.464509
2108.000000	37.519901
2107.000000	37.523836
2106.000000	37.588135
2105.000000	37.511583
2104.000000	37.448742
2103.000000	37.564325
2102.000000	37.485262
2101.000000	37.581834
2100.000000	37.549795
2099.000000	37.565699
2098.000000	37.579589
2097.000000	37.488339
2096.000000	37.497973
2095.000000	37.518031
2094.000000	37.533605
2093.000000	37.556022
2092.000000	37.537632
2091.000000	37.475960
2090.000000	37.472194
2089.000000	37.455537
2088.000000	37.393733
2087.000000	37.324507
2086.000000	37.407003
2085.000000	37.369050
2084.000000	37.253180
2083.000000	37.327225
2082.000000	37.156805
2081.000000	37.121827
2080.000000	37.115756
2079.000000	37.030683
2078.000000	36.959871
2077.000000	36.943028
2076.000000	36.816334
2075.000000	36.802111
2074.000000	36.735163
2073.000000	36.595794
2072.000000	36.485429
2071.000000	36.358780
2070.000000	36.368458
2069.000000	36.265077
2068.000000	36.186815
2067.000000	36.079585
2066.000000	35.960568
2065.000000	35.830306
2064.000000	35.703408
2063.000000	35.581589
2062.000000	35.466268
2061.000000	35.342065
2060.000000	35.316502
2059.000000	35.314132
2058.000000	35.208488
2057.000000	35.112856
2056.000000	35.003150
2055.000000	34.880700
2054.000000	34.767500
2053.000000	34.666063
2052.000000	34.567134
2051.000000	34.438534
2050.000000	34.376571
2049.000000	34.395918
2048.000000	34.299079
2047.000000	34.257709
2046.000000	34.242335
2045.000000	34.198151
2044.000000	34.223019
2043.000000	34.189067
2042.000000	34.169100
2041.000000	34.198458
2040.000000	34.157369
2039.000000	34.180921
2038.000000	34.224679
2037.000000	34.220668
2036.000000	34.220563
2035.000000	34.301563
2034.000000	34.369665
2033.000000	34.423318
2032.000000	34.491895
2031.000000	34.558786
2030.000000	34.630126
2029.000000	34.762577
2028.000000	34.828118
2027.000000	34.897562
2026.000000	34.922736
2025.000000	34.940089
2024.000000	34.984735
2023.000000	34.976148
2022.000000	34.972999
2021.000000	34.982499
2020.000000	35.043012
2019.000000	35.117391
2018.000000	35.139120
2017.000000	35.096911
2016.000000	35.080423
2015.000000	35.072883
2014.000000	35.032408
2013.000000	34.997431
2012.000000	34.981405
2011.000000	34.987914
2010.000000	34.888854
2009.000000	34.825509
2008.000000	34.781311
2007.000000	34.721601
2006.000000	34.633332
2005.000000	34.596700
2004.000000	34.528256
2003.000000	34.475122
2002.000000	34.416910
2001.000000	34.329260
2000.000000	34.250069
1999.000000	34.181141
1998.000000	34.113868
1997.000000	34.032893
1996.000000	33.980346
1995.000000	33.871335
1994.000000	33.777041
1993.000000	33.736767
1992.000000	33.601789
1991.000000	33.533571
1990.000000	33.512363
1989.000000	33.445773
1988.000000	33.326077
1987.000000	33.278037
1986.000000	33.173897
1985.000000	33.050768
1984.000000	33.017124
1983.000000	32.997793
1982.000000	32.889689
1981.000000	32.858510
1980.000000	32.747821
1979.000000	32.634708
1978.000000	32.584666
1977.000000	32.532138
1976.000000	32.444689
1975.000000	32.412775
1974.000000	32.336289
1973.000000	32.240319
1972.000000	32.127630
1971.000000	32.113192
1970.000000	32.038507
1969.000000	31.985963
1968.000000	31.916107
1967.000000	31.875723
1966.000000	31.823021
1965.000000	31.763766
1964.000000	31.653113
1963.000000	31.626404
1962.000000	31.573057
1961.000000	31.504252
1960.000000	31.431624
1959.000000	31.339402
1958.000000	31.339614
1957.000000	31.285193
1956.000000	31.261202
1955.000000	31.200362
1954.000000	31.138218
1953.000000	31.139802
1952.000000	31.138110
1951.000000	31.159561
1950.000000	31.023606
1949.000000	31.066147
1948.000000	31.073702
1947.000000	31.109418
1946.000000	30.966937
1945.000000	30.993587
1944.000000	31.065372
1943.000000	31.153054
1942.000000	31.123442
1941.000000	31.149683
1940.000000	31.168394
1939.000000	31.203257
1938.000000	31.186616
1937.000000	31.342345
1936.000000	31.456194
1935.000000	31.428748
1934.000000	31.458976
1933.000000	31.675108
1932.000000	31.614046
1931.000000	31.799475
1930.000000	31.925979
1929.000000	32.011551
1928.000000	32.215431
1927.000000	32.343620
1926.000000	32.570815
1925.000000	32.696559
1924.000000	32.849876
1923.000000	32.984157
1922.000000	33.206489
1921.000000	33.347368
1920.000000	33.548293
1919.000000	33.849138
1918.000000	34.064630
1917.000000	34.235559
1916.000000	34.482894
1915.000000	34.763978
1914.000000	35.127317
1913.000000	35.351341
1912.000000	35.588511
1911.000000	35.836740
1910.000000	36.205814
1909.000000	36.464805
1908.000000	36.747124
1907.000000	37.153771
1906.000000	37.386831
1905.000000	37.822735
1904.000000	38.137012
1903.000000	38.565785
1902.000000	38.985108
1901.000000	39.274112
1900.000000	39.793943
1899.000000	40.145022
1898.000000	40.558968
1897.000000	40.926536
1896.000000	41.368832
1895.000000	41.705095
1894.000000	42.131011
1893.000000	42.539494
1892.000000	42.934299
1891.000000	43.289039
1890.000000	43.689611
1889.000000	44.003791
1888.000000	44.367373
1887.000000	44.671671
1886.000000	45.064968
1885.000000	45.456290
1884.000000	45.816141
1883.000000	46.130161
1882.000000	46.381638
1881.000000	46.651250
1880.000000	46.989592
1879.000000	47.297292
1878.000000	47.543010
1877.000000	47.758798
1876.000000	47.947171
1875.000000	48.177536
1874.000000	48.440826
1873.000000	48.669464
1872.000000	48.858541
1871.000000	49.089062
1870.000000	49.215163
1869.000000	49.423144
1868.000000	49.551074
1867.000000	49.641106
1866.000000	49.809985
1865.000000	49.863543
1864.000000	49.907413
1863.000000	50.016303
1862.000000	50.113403
1861.000000	50.191936
1860.000000	50.241965
1859.000000	50.294515
1858.000000	50.361184
1857.000000	50.432164
1856.000000	50.455750
1855.000000	50.508801
1854.000000	50.541431
1853.000000	50.596745
1852.000000	50.569980
1851.000000	50.542750
1850.000000	50.544277
1849.000000	50.587793
1848.000000	50.630177
1847.000000	50.623768
1846.000000	50.593841
1845.000000	50.608384
1844.000000	50.574725
1843.000000	50.539527
1842.000000	50.530863
1841.000000	50.526013
1840.000000	50.478120
1839.000000	50.475653
1838.000000	50.454814
1837.000000	50.414767
1836.000000	50.388344
1835.000000	50.337241
1834.000000	50.291412
1833.000000	50.245072
1832.000000	50.197176
1831.000000	50.166916
1830.000000	50.154485
1829.000000	50.108709
1828.000000	50.041954
1827.000000	50.004347
1826.000000	49.999646
1825.000000	49.978109
1824.000000	49.937863
1823.000000	49.881772
1822.000000	49.829300
1821.000000	49.832992
1820.000000	49.823396
1819.000000	49.755209
1818.000000	49.715490
1817.000000	49.703450
1816.000000	49.675287
1815.000000	49.656562
1814.000000	49.618877
1813.000000	49.590408
1812.000000	49.587447
1811.000000	49.551607
1810.000000	49.508633
1809.000000	49.468013
1808.000000	49.428083
1807.000000	49.379904
1806.000000	49.342423
1805.000000	49.332561
1804.000000	49.314400
1803.000000	49.295709
1802.000000	49.250794
1801.000000	49.209262
1800.000000	49.216094
1799.000000	49.192494
1798.000000	49.152721
1797.000000	49.153382
1796.000000	49.139296
1795.000000	49.124733
1794.000000	49.138607
1793.000000	49.112621
1792.000000	49.070081
1791.000000	49.076007
1790.000000	49.061154
1789.000000	49.050954
1788.000000	49.026592
1787.000000	48.993917
1786.000000	48.967935
1785.000000	49.000228
1784.000000	48.979310
1783.000000	48.912153
1782.000000	48.908084
1781.000000	48.898383
1780.000000	48.859428
1779.000000	48.845639
1778.000000	48.809414
1777.000000	48.759215
1776.000000	48.727920
1775.000000	48.656378
1774.000000	48.630265
1773.000000	48.628322
1772.000000	48.579344
1771.000000	48.527395
1770.000000	48.485822
1769.000000	48.467820
1768.000000	48.411122
1767.000000	48.370911
1766.000000	48.333864
1765.000000	48.291891
1764.000000	48.272727
1763.000000	48.223386
1762.000000	48.186658
1761.000000	48.160707
1760.000000	48.117337
1759.000000	48.063435
1758.000000	48.018441
1757.000000	47.966794
1756.000000	47.955559
1755.000000	47.898672
1754.000000	47.852149
1753.000000	47.806447
1752.000000	47.782911
1751.000000	47.764795
1750.000000	47.707726
1749.000000	47.660009
1748.000000	47.613126
1747.000000	47.582636
1746.000000	47.559585
1745.000000	47.494102
1744.000000	47.442332
1743.000000	47.388370
1742.000000	47.334014
1741.000000	47.335916
1740.000000	47.275239
1739.000000	47.242725
1738.000000	47.192185
1737.000000	47.175993
1736.000000	47.153197
1735.000000	47.162705
1734.000000	47.165311
1733.000000	47.133914
1732.000000	47.128190
1731.000000	47.129960
1730.000000	47.126075
1729.000000	47.200467
1728.000000	47.249352
1727.000000	47.268745
1726.000000	47.323146
1725.000000	47.421480
1724.000000	47.451813
1723.000000	47.534781
1722.000000	47.606953
1721.000000	47.679762
1720.000000	47.758992
1719.000000	47.888633
1718.000000	47.965325
1717.000000	48.075074
1716.000000	48.119419
1715.000000	48.184058
1714.000000	48.241726
1713.000000	48.356248
1712.000000	48.380294
1711.000000	48.475198
1710.000000	48.569807
1709.000000	48.601950
1708.000000	48.611813
1707.000000	48.677555
1706.000000	48.700432
1705.000000	48.746982
1704.000000	48.800079
1703.000000	48.768162
1702.000000	48.782553
1701.000000	48.805694
1700.000000	48.818666
1699.000000	48.851534
1698.000000	48.849961
1697.000000	48.894773
1696.000000	48.920433
1695.000000	48.901240
1694.000000	48.944079
1693.000000	49.008114
1692.000000	49.050381
1691.000000	49.090913
1690.000000	49.195655
1689.000000	49.239151
1688.000000	49.322188
1687.000000	49.402037
1686.000000	49.526953
1685.000000	49.621509
1684.000000	49.774662
1683.000000	49.884682
1682.000000	50.001975
1681.000000	50.147408
1680.000000	50.278504
1679.000000	50.456380
1678.000000	50.623211
1677.000000	50.757277
1676.000000	50.896791
1675.000000	51.072294
1674.000000	51.202044
1673.000000	51.356695
1672.000000	51.502600
1671.000000	51.642660
1670.000000	51.786855
1669.000000	51.938739
1668.000000	52.036756
1667.000000	52.167445
1666.000000	52.248734
1665.000000	52.320009
1664.000000	52.409011
1663.000000	52.480194
1662.000000	52.557303
1661.000000	52.650589
1660.000000	52.701423
1659.000000	52.716556
1658.000000	52.786887
1657.000000	52.823354
1656.000000	52.879117
1655.000000	52.891696
1654.000000	52.896268
1653.000000	52.905858
1652.000000	52.940605
1651.000000	52.961375
1650.000000	52.935875
1649.000000	52.910551
1648.000000	52.896092
1647.000000	52.903153
1646.000000	52.880341
1645.000000	52.866296
1644.000000	52.865356
1643.000000	52.843081
1642.000000	52.803980
1641.000000	52.761685
1640.000000	52.729868
1639.000000	52.708232
1638.000000	52.692534
1637.000000	52.652918
1636.000000	52.620001
1635.000000	52.601354
1634.000000	52.560161
1633.000000	52.506411
1632.000000	52.460145
1631.000000	52.418969
1630.000000	52.387413
1629.000000	52.344928
1628.000000	52.308611
1627.000000	52.270447
1626.000000	52.218933
1625.000000	52.169723
1624.000000	52.128569
1623.000000	52.080758
1622.000000	52.050264
1621.000000	51.992423
1620.000000	51.929330
1619.000000	51.861528
1618.000000	51.806639
1617.000000	51.778415
1616.000000	51.737093
1615.000000	51.687841
1614.000000	51.617557
1613.000000	51.563360
1612.000000	51.522093
1611.000000	51.454109
1610.000000	51.382293
1609.000000	51.336666
1608.000000	51.286298
1607.000000	51.218619
1606.000000	51.158130
1605.000000	51.106016
1604.000000	51.037425
1603.000000	50.967160
1602.000000	50.916184
1601.000000	50.867433
1600.000000	50.820236
1599.000000	50.760510
1598.000000	50.698498
1597.000000	50.657466
1596.000000	50.596910
1595.000000	50.547901
1594.000000	50.502274
1593.000000	50.451088
1592.000000	50.397395
1591.000000	50.342271
1590.000000	50.300090
1589.000000	50.249779
1588.000000	50.205938
1587.000000	50.172125
1586.000000	50.122338
1585.000000	50.072030
1584.000000	50.033457
1583.000000	49.983096
1582.000000	49.931026
1581.000000	49.896161
1580.000000	49.856228
1579.000000	49.822625
1578.000000	49.788895
1577.000000	49.736224
1576.000000	49.691809
1575.000000	49.648265
1574.000000	49.597415
1573.000000	49.542786
1572.000000	49.498397
1571.000000	49.471377
1570.000000	49.426584
1569.000000	49.394973
1568.000000	49.347637
1567.000000	49.304036
1566.000000	49.271557
1565.000000	49.257533
1564.000000	49.229303
1563.000000	49.200883
1562.000000	49.141464
1561.000000	49.114780
1560.000000	49.133354
1559.000000	49.093398
1558.000000	49.058110
1557.000000	49.054748
1556.000000	49.014179
1555.000000	48.990940
1554.000000	48.955940
1553.000000	48.945494
1552.000000	48.898068
1551.000000	48.864080
1550.000000	48.833113
1549.000000	48.777791
1548.000000	48.757234
1547.000000	48.693926
1546.000000	48.637650
1545.000000	48.569500
1544.000000	48.532335
1543.000000	48.471240
1542.000000	48.409838
1541.000000	48.331030
1540.000000	48.262033
1539.000000	48.178227
1538.000000	48.108534
1537.000000	48.033683
1536.000000	47.959352
1535.000000	47.895924
1534.000000	47.813543
1533.000000	47.762246
1532.000000	47.683384
1531.000000	47.606964
1530.000000	47.550751
1529.000000	47.474737
1528.000000	47.410086
1527.000000	47.359974
1526.000000	47.317403
1525.000000	47.258849
1524.000000	47.202830
1523.000000	47.165193
1522.000000	47.114229
1521.000000	47.077259
1520.000000	47.037609
1519.000000	47.012731
1518.000000	47.003224
1517.000000	46.964307
1516.000000	46.931685
1515.000000	46.888760
1514.000000	46.852117
1513.000000	46.842688
1512.000000	46.814082
1511.000000	46.826491
1510.000000	46.773241
1509.000000	46.755841
1508.000000	46.762783
1507.000000	46.736603
1506.000000	46.716384
1505.000000	46.707010
1504.000000	46.701997
1503.000000	46.680852
1502.000000	46.687461
1501.000000	46.692396
1500.000000	46.656987
1499.000000	46.661189
1498.000000	46.667173
1497.000000	46.667860
1496.000000	46.678564
1495.000000	46.680718
1494.000000	46.676109
1493.000000	46.697085
1492.000000	46.698801
1491.000000	46.759867
1490.000000	46.764052
1489.000000	46.784518
1488.000000	46.812955
1487.000000	46.809591
1486.000000	46.844936
1485.000000	46.863338
1484.000000	46.897779
1483.000000	46.936276
1482.000000	46.939254
1481.000000	46.967750
1480.000000	47.005624
1479.000000	47.042282
1478.000000	47.074710
1477.000000	47.077202
1476.000000	47.104175
1475.000000	47.139996
1474.000000	47.159969
1473.000000	47.202275
1472.000000	47.227385
1471.000000	47.250466
1470.000000	47.297862
