PE UV       SUBTECH     SPECTRUM    ASCII       PEDS        4.00        
   -1
RDgChevreUK 42.Sample.asc
18/03/12
09:43:44.00
18/03/12
09:43:44.00
Administrator

200.000000
1
Lambda 750
750N8071901
PerkinElmer UV WinLab 6.0.4.0738 / 1.61.00 Lambda 900

0
0
3350/servo 860.8/2
0
0
UV/VIS
1
1
1
CommonBeamDepol,150mm sphere / downward view
0
0
0
0
Program
Program
3350/servo 860.8/2
3350/0.2 860.8/0.2
3350/0.2 860.8/0.2
0
1
 
 
 
0
 
860.8
319.2
860.8
Front
100
on
 
 
0
0
0
 
0
 
 
 
0
 
 
0
0
0
0
0
 
 
 
 
0
0


0
0
#HDR
-1
-1
#GR
nm
%R
1.0
0.0
2350.000000
-1.000000
2151
8
58.714158
10.098538
#DATA
2350.000000	27.109849
2349.000000	26.818510
2348.000000	26.851974
2347.000000	27.563031
2346.000000	27.225324
2345.000000	26.801783
2344.000000	26.632976
2343.000000	26.975476
2342.000000	26.931393
2341.000000	27.331300
2340.000000	27.316862
2339.000000	27.162078
2338.000000	27.772591
2337.000000	27.333982
2336.000000	27.716872
2335.000000	27.828950
2334.000000	27.774483
2333.000000	27.868621
2332.000000	27.756708
2331.000000	27.803969
2330.000000	27.871965
2329.000000	27.673215
2328.000000	27.708249
2327.000000	27.734844
2326.000000	27.615654
2325.000000	27.656275
2324.000000	27.486955
2323.000000	27.495053
2322.000000	27.400617
2321.000000	27.597704
2320.000000	27.415973
2319.000000	27.376073
2318.000000	27.532734
2317.000000	27.536738
2316.000000	27.374095
2315.000000	27.435374
2314.000000	27.266606
2313.000000	27.059051
2312.000000	26.866495
2311.000000	26.978317
2310.000000	27.022687
2309.000000	27.356052
2308.000000	27.142427
2307.000000	26.826534
2306.000000	26.877668
2305.000000	26.876683
2304.000000	27.103121
2303.000000	27.094110
2302.000000	26.960504
2301.000000	26.788099
2300.000000	26.542392
2299.000000	26.634570
2298.000000	26.402470
2297.000000	26.372693
2296.000000	26.412922
2295.000000	26.406335
2294.000000	26.257563
2293.000000	26.267936
2292.000000	26.027223
2291.000000	26.222459
2290.000000	26.223116
2289.000000	26.144241
2288.000000	26.130312
2287.000000	26.148422
2286.000000	25.945881
2285.000000	25.786215
2284.000000	25.898559
2283.000000	25.852714
2282.000000	25.805725
2281.000000	25.849026
2280.000000	25.767457
2279.000000	25.793844
2278.000000	25.854242
2277.000000	25.956096
2276.000000	25.934575
2275.000000	25.952889
2274.000000	25.944214
2273.000000	26.058121
2272.000000	26.059142
2271.000000	25.990433
2270.000000	26.176191
2269.000000	26.226566
2268.000000	26.304158
2267.000000	26.343426
2266.000000	26.187444
2265.000000	26.218304
2264.000000	26.383312
2263.000000	26.426340
2262.000000	26.646789
2261.000000	26.817929
2260.000000	26.932931
2259.000000	27.034356
2258.000000	27.064862
2257.000000	27.178143
2256.000000	27.380655
2255.000000	27.539741
2254.000000	27.535797
2253.000000	27.572504
2252.000000	27.718457
2251.000000	27.903695
2250.000000	28.042517
2249.000000	28.175615
2248.000000	28.398173
2247.000000	28.384052
2246.000000	28.514172
2245.000000	28.787310
2244.000000	28.872972
2243.000000	29.019427
2242.000000	28.995106
2241.000000	29.092825
2240.000000	29.337732
2239.000000	29.404772
2238.000000	29.468958
2237.000000	29.518833
2236.000000	29.499471
2235.000000	29.554484
2234.000000	29.656998
2233.000000	29.721072
2232.000000	29.841007
2231.000000	29.966395
2230.000000	29.906295
2229.000000	29.877504
2228.000000	29.942054
2227.000000	29.840563
2226.000000	29.840647
2225.000000	29.931366
2224.000000	29.988097
2223.000000	29.981297
2222.000000	29.971370
2221.000000	29.914656
2220.000000	29.761331
2219.000000	29.762722
2218.000000	29.695774
2217.000000	29.575795
2216.000000	29.616391
2215.000000	29.670429
2214.000000	29.762036
2213.000000	29.799504
2212.000000	29.616306
2211.000000	29.540038
2210.000000	29.525122
2209.000000	29.470844
2208.000000	29.368704
2207.000000	29.404092
2206.000000	29.376872
2205.000000	29.317072
2204.000000	29.303240
2203.000000	29.289169
2202.000000	29.112175
2201.000000	29.027479
2200.000000	29.049067
2199.000000	29.146289
2198.000000	29.239282
2197.000000	29.025573
2196.000000	28.914683
2195.000000	28.892072
2194.000000	28.677918
2193.000000	28.754858
2192.000000	28.835773
2191.000000	28.731200
2190.000000	28.718329
2189.000000	28.662143
2188.000000	28.533847
2187.000000	28.509533
2186.000000	28.466337
2185.000000	28.543946
2184.000000	28.356183
2183.000000	28.573562
2182.000000	28.420229
2181.000000	28.434478
2180.000000	28.462182
2179.000000	28.403899
2178.000000	28.430112
2177.000000	28.378229
2176.000000	28.266101
2175.000000	28.455237
2174.000000	28.597468
2173.000000	28.495991
2172.000000	28.697372
2171.000000	28.755444
2170.000000	28.753475
2169.000000	28.832901
2168.000000	28.884055
2167.000000	28.961755
2166.000000	28.941028
2165.000000	28.997765
2164.000000	28.845939
2163.000000	29.027864
2162.000000	29.010058
2161.000000	28.987278
2160.000000	29.305900
2159.000000	29.411611
2158.000000	29.579526
2157.000000	29.618417
2156.000000	29.792223
2155.000000	29.879548
2154.000000	29.919388
2153.000000	29.997889
2152.000000	30.142535
2151.000000	30.228335
2150.000000	30.395792
2149.000000	30.699767
2148.000000	30.698546
2147.000000	30.770298
2146.000000	30.834433
2145.000000	30.966940
2144.000000	30.737135
2143.000000	31.033384
2142.000000	31.307290
2141.000000	31.175363
2140.000000	31.338914
2139.000000	31.566160
2138.000000	31.580343
2137.000000	31.555195
2136.000000	31.570032
2135.000000	31.789985
2134.000000	31.626953
2133.000000	31.729316
2132.000000	32.029572
2131.000000	31.929289
2130.000000	32.101300
2129.000000	32.094118
2128.000000	32.011952
2127.000000	31.921586
2126.000000	32.037707
2125.000000	32.075944
2124.000000	32.111930
2123.000000	32.088631
2122.000000	32.304119
2121.000000	32.367959
2120.000000	32.372530
2119.000000	32.224807
2118.000000	32.377049
2117.000000	32.502577
2116.000000	32.472816
2115.000000	32.434379
2114.000000	32.401250
2113.000000	32.371231
2112.000000	32.460508
2111.000000	32.418587
2110.000000	32.456647
2109.000000	32.576901
2108.000000	32.422204
2107.000000	32.570862
2106.000000	32.580730
2105.000000	32.452279
2104.000000	32.474235
2103.000000	32.615257
2102.000000	32.458989
2101.000000	32.484197
2100.000000	32.603306
2099.000000	32.535964
2098.000000	32.620125
2097.000000	32.459354
2096.000000	32.556373
2095.000000	32.490048
2094.000000	32.570066
2093.000000	32.505328
2092.000000	32.485938
2091.000000	32.480221
2090.000000	32.485564
2089.000000	32.377336
2088.000000	32.418346
2087.000000	32.483375
2086.000000	32.445199
2085.000000	32.387317
2084.000000	32.338965
2083.000000	32.238107
2082.000000	32.143862
2081.000000	32.171860
2080.000000	32.123116
2079.000000	32.024032
2078.000000	31.878234
2077.000000	31.841419
2076.000000	31.866223
2075.000000	31.830931
2074.000000	31.730359
2073.000000	31.585713
2072.000000	31.522504
2071.000000	31.429222
2070.000000	31.316717
2069.000000	31.216372
2068.000000	31.211915
2067.000000	31.093849
2066.000000	30.873275
2065.000000	30.842013
2064.000000	30.788600
2063.000000	30.652092
2062.000000	30.529630
2061.000000	30.379815
2060.000000	30.380186
2059.000000	30.315555
2058.000000	30.099629
2057.000000	30.031192
2056.000000	29.971290
2055.000000	29.848874
2054.000000	29.741842
2053.000000	29.674768
2052.000000	29.536463
2051.000000	29.426718
2050.000000	29.392777
2049.000000	29.366733
2048.000000	29.340351
2047.000000	29.304759
2046.000000	29.195947
2045.000000	29.122703
2044.000000	29.123124
2043.000000	29.121615
2042.000000	29.083231
2041.000000	29.102939
2040.000000	29.188211
2039.000000	29.207321
2038.000000	29.192797
2037.000000	29.214433
2036.000000	29.207949
2035.000000	29.256425
2034.000000	29.342164
2033.000000	29.397757
2032.000000	29.414993
2031.000000	29.486998
2030.000000	29.618149
2029.000000	29.716786
2028.000000	29.771043
2027.000000	29.804503
2026.000000	29.879690
2025.000000	29.918349
2024.000000	29.898157
2023.000000	29.958222
2022.000000	30.011342
2021.000000	30.000748
2020.000000	30.022744
2019.000000	30.003134
2018.000000	29.990059
2017.000000	30.026469
2016.000000	30.018647
2015.000000	29.980196
2014.000000	29.942768
2013.000000	29.879295
2012.000000	29.831063
2011.000000	29.858039
2010.000000	29.835232
2009.000000	29.786634
2008.000000	29.738200
2007.000000	29.641484
2006.000000	29.592931
2005.000000	29.552750
2004.000000	29.500528
2003.000000	29.391026
2002.000000	29.320133
2001.000000	29.264480
2000.000000	29.145808
1999.000000	29.056440
1998.000000	28.995021
1997.000000	28.905846
1996.000000	28.846088
1995.000000	28.788721
1994.000000	28.688154
1993.000000	28.611452
1992.000000	28.492224
1991.000000	28.427095
1990.000000	28.369308
1989.000000	28.293179
1988.000000	28.216357
1987.000000	28.119870
1986.000000	28.066325
1985.000000	27.981415
1984.000000	27.937988
1983.000000	27.877422
1982.000000	27.770955
1981.000000	27.670271
1980.000000	27.616901
1979.000000	27.547385
1978.000000	27.495944
1977.000000	27.400902
1976.000000	27.345249
1975.000000	27.276034
1974.000000	27.228703
1973.000000	27.127396
1972.000000	27.031933
1971.000000	27.018070
1970.000000	26.929251
1969.000000	26.881067
1968.000000	26.854838
1967.000000	26.729803
1966.000000	26.707661
1965.000000	26.622855
1964.000000	26.576295
1963.000000	26.491736
1962.000000	26.453967
1961.000000	26.401736
1960.000000	26.283428
1959.000000	26.274402
1958.000000	26.252310
1957.000000	26.157991
1956.000000	26.128380
1955.000000	26.144128
1954.000000	26.039317
1953.000000	26.080562
1952.000000	26.034533
1951.000000	26.000028
1950.000000	25.970541
1949.000000	26.006904
1948.000000	25.974683
1947.000000	25.936033
1946.000000	25.944703
1945.000000	25.962332
1944.000000	26.013399
1943.000000	26.012445
1942.000000	25.940450
1941.000000	26.076248
1940.000000	26.156079
1939.000000	26.166237
1938.000000	26.220119
1937.000000	26.327311
1936.000000	26.407653
1935.000000	26.443067
1934.000000	26.460108
1933.000000	26.558996
1932.000000	26.613455
1931.000000	26.789272
1930.000000	26.930855
1929.000000	27.108918
1928.000000	27.180627
1927.000000	27.296790
1926.000000	27.418969
1925.000000	27.658303
1924.000000	27.789577
1923.000000	27.950128
1922.000000	28.149565
1921.000000	28.367119
1920.000000	28.574039
1919.000000	28.772525
1918.000000	28.970802
1917.000000	29.157826
1916.000000	29.371962
1915.000000	29.757646
1914.000000	30.046154
1913.000000	30.316795
1912.000000	30.539891
1911.000000	30.864211
1910.000000	31.015035
1909.000000	31.368921
1908.000000	31.779165
1907.000000	32.032458
1906.000000	32.467120
1905.000000	32.863509
1904.000000	33.239914
1903.000000	33.631412
1902.000000	33.957131
1901.000000	34.304578
1900.000000	34.780183
1899.000000	35.185753
1898.000000	35.597015
1897.000000	35.945231
1896.000000	36.327704
1895.000000	36.744183
1894.000000	37.168796
1893.000000	37.580285
1892.000000	37.949418
1891.000000	38.379811
1890.000000	38.807216
1889.000000	39.145488
1888.000000	39.515118
1887.000000	39.870212
1886.000000	40.209297
1885.000000	40.532688
1884.000000	40.895018
1883.000000	41.239726
1882.000000	41.560691
1881.000000	41.893433
1880.000000	42.149757
1879.000000	42.426198
1878.000000	42.729518
1877.000000	42.955075
1876.000000	43.197595
1875.000000	43.498985
1874.000000	43.689172
1873.000000	43.899857
1872.000000	44.089517
1871.000000	44.302260
1870.000000	44.457313
1869.000000	44.645388
1868.000000	44.805893
1867.000000	44.851715
1866.000000	44.977506
1865.000000	45.041714
1864.000000	45.138881
1863.000000	45.276406
1862.000000	45.349147
1861.000000	45.402025
1860.000000	45.404778
1859.000000	45.488457
1858.000000	45.574749
1857.000000	45.606206
1856.000000	45.642655
1855.000000	45.681271
1854.000000	45.732903
1853.000000	45.834999
1852.000000	45.808114
1851.000000	45.852008
1850.000000	45.877546
1849.000000	45.842238
1848.000000	45.819553
1847.000000	45.839290
1846.000000	45.841999
1845.000000	45.815279
1844.000000	45.764087
1843.000000	45.763815
1842.000000	45.730738
1841.000000	45.717357
1840.000000	45.704182
1839.000000	45.701050
1838.000000	45.674697
1837.000000	45.636139
1836.000000	45.602135
1835.000000	45.551517
1834.000000	45.491197
1833.000000	45.472286
1832.000000	45.396121
1831.000000	45.344601
1830.000000	45.326500
1829.000000	45.283587
1828.000000	45.241046
1827.000000	45.226411
1826.000000	45.198955
1825.000000	45.141166
1824.000000	45.138030
1823.000000	45.129485
1822.000000	45.080869
1821.000000	45.037970
1820.000000	45.015160
1819.000000	44.974185
1818.000000	44.932487
1817.000000	44.910650
1816.000000	44.900034
1815.000000	44.866767
1814.000000	44.815900
1813.000000	44.779525
1812.000000	44.742349
1811.000000	44.721788
1810.000000	44.705372
1809.000000	44.683629
1808.000000	44.637610
1807.000000	44.595264
1806.000000	44.567768
1805.000000	44.544341
1804.000000	44.509576
1803.000000	44.472002
1802.000000	44.456243
1801.000000	44.428560
1800.000000	44.400292
1799.000000	44.393560
1798.000000	44.376550
1797.000000	44.358820
1796.000000	44.348214
1795.000000	44.338100
1794.000000	44.318599
1793.000000	44.307526
1792.000000	44.273482
1791.000000	44.266436
1790.000000	44.248361
1789.000000	44.232487
1788.000000	44.234563
1787.000000	44.216038
1786.000000	44.214961
1785.000000	44.200654
1784.000000	44.183783
1783.000000	44.166863
1782.000000	44.130430
1781.000000	44.101251
1780.000000	44.076325
1779.000000	44.045641
1778.000000	44.013011
1777.000000	43.971303
1776.000000	43.945180
1775.000000	43.901408
1774.000000	43.842452
1773.000000	43.819593
1772.000000	43.778307
1771.000000	43.757811
1770.000000	43.702810
1769.000000	43.673320
1768.000000	43.621735
1767.000000	43.551950
1766.000000	43.505616
1765.000000	43.489278
1764.000000	43.466953
1763.000000	43.421421
1762.000000	43.378079
1761.000000	43.337601
1760.000000	43.305502
1759.000000	43.255703
1758.000000	43.245873
1757.000000	43.160850
1756.000000	43.124645
1755.000000	43.082806
1754.000000	43.046605
1753.000000	43.016977
1752.000000	42.979682
1751.000000	42.933033
1750.000000	42.904460
1749.000000	42.855869
1748.000000	42.785664
1747.000000	42.748617
1746.000000	42.694973
1745.000000	42.652150
1744.000000	42.621682
1743.000000	42.582655
1742.000000	42.532958
1741.000000	42.515483
1740.000000	42.447760
1739.000000	42.424740
1738.000000	42.385984
1737.000000	42.339079
1736.000000	42.319463
1735.000000	42.329756
1734.000000	42.335646
1733.000000	42.278538
1732.000000	42.276975
1731.000000	42.295951
1730.000000	42.308966
1729.000000	42.359349
1728.000000	42.411504
1727.000000	42.422009
1726.000000	42.489022
1725.000000	42.531697
1724.000000	42.614565
1723.000000	42.687732
1722.000000	42.769799
1721.000000	42.804162
1720.000000	42.894122
1719.000000	43.031156
1718.000000	43.111998
1717.000000	43.199756
1716.000000	43.314296
1715.000000	43.307032
1714.000000	43.429762
1713.000000	43.524881
1712.000000	43.575188
1711.000000	43.650162
1710.000000	43.685573
1709.000000	43.725520
1708.000000	43.782765
1707.000000	43.841175
1706.000000	43.853721
1705.000000	43.890577
1704.000000	43.935444
1703.000000	43.960789
1702.000000	43.918944
1701.000000	43.971219
1700.000000	44.033236
1699.000000	43.982977
1698.000000	44.042853
1697.000000	44.072434
1696.000000	44.099456
1695.000000	44.112001
1694.000000	44.136764
1693.000000	44.168718
1692.000000	44.218648
1691.000000	44.272371
1690.000000	44.348408
1689.000000	44.435485
1688.000000	44.541480
1687.000000	44.607796
1686.000000	44.723546
1685.000000	44.855254
1684.000000	44.978702
1683.000000	45.071293
1682.000000	45.211092
1681.000000	45.389107
1680.000000	45.516170
1679.000000	45.644526
1678.000000	45.795860
1677.000000	45.936693
1676.000000	46.139329
1675.000000	46.272119
1674.000000	46.417871
1673.000000	46.586812
1672.000000	46.716443
1671.000000	46.824354
1670.000000	46.968447
1669.000000	47.119785
1668.000000	47.239227
1667.000000	47.396180
1666.000000	47.465143
1665.000000	47.565669
1664.000000	47.629569
1663.000000	47.685236
1662.000000	47.754812
1661.000000	47.850023
1660.000000	47.889296
1659.000000	47.946359
1658.000000	47.986211
1657.000000	48.034834
1656.000000	48.071915
1655.000000	48.109930
1654.000000	48.101475
1653.000000	48.144421
1652.000000	48.145254
1651.000000	48.156545
1650.000000	48.143637
1649.000000	48.142456
1648.000000	48.126493
1647.000000	48.109387
1646.000000	48.109510
1645.000000	48.069629
1644.000000	48.063943
1643.000000	48.041420
1642.000000	48.015860
1641.000000	47.986629
1640.000000	47.960255
1639.000000	47.952638
1638.000000	47.923345
1637.000000	47.877048
1636.000000	47.840718
1635.000000	47.816182
1634.000000	47.775356
1633.000000	47.730275
1632.000000	47.693617
1631.000000	47.638635
1630.000000	47.618358
1629.000000	47.567000
1628.000000	47.539928
1627.000000	47.499324
1626.000000	47.433992
1625.000000	47.387971
1624.000000	47.349261
1623.000000	47.298420
1622.000000	47.260139
1621.000000	47.202326
1620.000000	47.145637
1619.000000	47.089332
1618.000000	47.040521
1617.000000	46.990624
1616.000000	46.949748
1615.000000	46.897746
1614.000000	46.829220
1613.000000	46.762738
1612.000000	46.707472
1611.000000	46.664608
1610.000000	46.600796
1609.000000	46.548862
1608.000000	46.499986
1607.000000	46.434326
1606.000000	46.374094
1605.000000	46.318965
1604.000000	46.249753
1603.000000	46.183083
1602.000000	46.134738
1601.000000	46.085038
1600.000000	46.032850
1599.000000	45.966826
1598.000000	45.892427
1597.000000	45.851132
1596.000000	45.806853
1595.000000	45.752159
1594.000000	45.708381
1593.000000	45.650753
1592.000000	45.601629
1591.000000	45.545316
1590.000000	45.493079
1589.000000	45.452806
1588.000000	45.402204
1587.000000	45.365168
1586.000000	45.336013
1585.000000	45.287901
1584.000000	45.232462
1583.000000	45.187307
1582.000000	45.147245
1581.000000	45.111379
1580.000000	45.067868
1579.000000	45.019974
1578.000000	44.984790
1577.000000	44.928245
1576.000000	44.874720
1575.000000	44.838455
1574.000000	44.780469
1573.000000	44.732599
1572.000000	44.704610
1571.000000	44.666862
1570.000000	44.612400
1569.000000	44.578940
1568.000000	44.542759
1567.000000	44.497808
1566.000000	44.463063
1565.000000	44.446243
1564.000000	44.419933
1563.000000	44.383111
1562.000000	44.355921
1561.000000	44.327672
1560.000000	44.296043
1559.000000	44.265642
1558.000000	44.234427
1557.000000	44.211970
1556.000000	44.209487
1555.000000	44.189807
1554.000000	44.143015
1553.000000	44.118278
1552.000000	44.090927
1551.000000	44.035004
1550.000000	43.984978
1549.000000	43.965038
1548.000000	43.944936
1547.000000	43.892847
1546.000000	43.811301
1545.000000	43.748963
1544.000000	43.706591
1543.000000	43.628092
1542.000000	43.570503
1541.000000	43.502996
1540.000000	43.431681
1539.000000	43.359149
1538.000000	43.278480
1537.000000	43.204862
1536.000000	43.117270
1535.000000	43.041345
1534.000000	42.962830
1533.000000	42.911234
1532.000000	42.838296
1531.000000	42.746833
1530.000000	42.686146
1529.000000	42.623420
1528.000000	42.569111
1527.000000	42.491070
1526.000000	42.447859
1525.000000	42.384129
1524.000000	42.333430
1523.000000	42.284479
1522.000000	42.246944
1521.000000	42.194441
1520.000000	42.171293
1519.000000	42.139687
1518.000000	42.109369
1517.000000	42.078808
1516.000000	42.052804
1515.000000	42.014282
1514.000000	41.955883
1513.000000	41.951440
1512.000000	41.938757
1511.000000	41.920321
1510.000000	41.886560
1509.000000	41.865494
1508.000000	41.866302
1507.000000	41.824410
1506.000000	41.819337
1505.000000	41.820415
1504.000000	41.798785
1503.000000	41.782064
1502.000000	41.787495
1501.000000	41.789832
1500.000000	41.773773
1499.000000	41.761777
1498.000000	41.762385
1497.000000	41.759964
1496.000000	41.756378
1495.000000	41.784389
1494.000000	41.786609
1493.000000	41.786544
1492.000000	41.810770
1491.000000	41.824819
1490.000000	41.831851
1489.000000	41.858416
1488.000000	41.889710
1487.000000	41.902320
1486.000000	41.949467
1485.000000	41.947936
1484.000000	41.965563
1483.000000	41.986098
1482.000000	42.028773
1481.000000	42.054506
1480.000000	42.093338
1479.000000	42.102538
1478.000000	42.141137
1477.000000	42.175000
1476.000000	42.191788
1475.000000	42.212834
1474.000000	42.248890
1473.000000	42.267099
1472.000000	42.318808
1471.000000	42.338704
1470.000000	42.377704
