PE UV       SUBTECH     SPECTRUM    ASCII       PEDS        4.00        
   -1
RDVeauUK 52.Sample.asc
18/03/12
11:03:31.00
18/03/12
11:03:31.00
Administrator

200.000000
1
Lambda 750
750N8071901
PerkinElmer UV WinLab 6.0.4.0738 / 1.61.00 Lambda 900

0
0
3350/servo 860.8/2
0
0
UV/VIS
1
1
1
CommonBeamDepol,150mm sphere / downward view
0
0
0
0
Program
Program
3350/servo 860.8/2
3350/0.2 860.8/0.2
3350/0.2 860.8/0.2
0
1
 
 
 
0
 
860.8
319.2
860.8
Front
100
on
 
 
0
0
0
 
0
 
 
 
0
 
 
0
0
0
0
0
 
 
 
 
0
0


0
0
#HDR
-1
-1
#GR
nm
%R
1.0
0.0
2350.000000
-1.000000
2151
8
56.293107
11.298044
#DATA
2350.000000	22.401165
2349.000000	22.157754
2348.000000	22.100171
2347.000000	23.003721
2346.000000	22.467875
2345.000000	21.808222
2344.000000	22.023674
2343.000000	22.040284
2342.000000	22.139089
2341.000000	22.555807
2340.000000	22.251456
2339.000000	22.333544
2338.000000	22.723880
2337.000000	22.534703
2336.000000	22.413003
2335.000000	23.085568
2334.000000	23.135048
2333.000000	23.250437
2332.000000	23.164151
2331.000000	22.976776
2330.000000	22.887252
2329.000000	22.883152
2328.000000	22.805970
2327.000000	22.675449
2326.000000	22.927783
2325.000000	23.006154
2324.000000	22.849320
2323.000000	22.761103
2322.000000	22.675016
2321.000000	22.673766
2320.000000	22.789277
2319.000000	22.585122
2318.000000	22.748479
2317.000000	22.843484
2316.000000	22.724104
2315.000000	22.527601
2314.000000	22.527920
2313.000000	22.581087
2312.000000	22.535375
2311.000000	22.477738
2310.000000	22.103787
2309.000000	22.401015
2308.000000	22.255513
2307.000000	22.279185
2306.000000	22.367407
2305.000000	22.287777
2304.000000	22.374110
2303.000000	22.474909
2302.000000	22.118271
2301.000000	21.966873
2300.000000	22.090883
2299.000000	21.904629
2298.000000	21.627110
2297.000000	21.713473
2296.000000	21.680302
2295.000000	21.644310
2294.000000	21.684021
2293.000000	21.496905
2292.000000	21.471672
2291.000000	21.468976
2290.000000	21.595892
2289.000000	21.401942
2288.000000	21.491773
2287.000000	21.548778
2286.000000	21.187120
2285.000000	21.145221
2284.000000	21.389493
2283.000000	21.402877
2282.000000	21.268482
2281.000000	21.263349
2280.000000	21.386782
2279.000000	21.239216
2278.000000	21.204480
2277.000000	21.253437
2276.000000	21.498648
2275.000000	21.503032
2274.000000	21.323129
2273.000000	21.469314
2272.000000	21.430008
2271.000000	21.480660
2270.000000	21.457487
2269.000000	21.425207
2268.000000	21.515585
2267.000000	21.688762
2266.000000	21.684316
2265.000000	21.629174
2264.000000	21.692398
2263.000000	21.745959
2262.000000	21.831237
2261.000000	21.944071
2260.000000	22.148572
2259.000000	22.341966
2258.000000	22.412339
2257.000000	22.577770
2256.000000	22.677705
2255.000000	22.808141
2254.000000	22.801986
2253.000000	22.777896
2252.000000	23.043268
2251.000000	23.160002
2250.000000	23.224920
2249.000000	23.241931
2248.000000	23.300181
2247.000000	23.613545
2246.000000	23.772136
2245.000000	23.865033
2244.000000	24.209130
2243.000000	24.388668
2242.000000	24.328036
2241.000000	24.235283
2240.000000	24.281653
2239.000000	24.490667
2238.000000	24.490615
2237.000000	24.553276
2236.000000	24.662630
2235.000000	24.703053
2234.000000	24.730575
2233.000000	24.701502
2232.000000	24.865653
2231.000000	25.071283
2230.000000	25.171133
2229.000000	25.105380
2228.000000	25.158516
2227.000000	25.225245
2226.000000	25.111363
2225.000000	25.062043
2224.000000	25.124360
2223.000000	25.086597
2222.000000	25.072585
2221.000000	25.029600
2220.000000	24.962280
2219.000000	24.929922
2218.000000	24.863474
2217.000000	24.884779
2216.000000	24.981199
2215.000000	24.912924
2214.000000	24.809270
2213.000000	24.828475
2212.000000	24.748189
2211.000000	24.778047
2210.000000	24.753309
2209.000000	24.604681
2208.000000	24.629038
2207.000000	24.700168
2206.000000	24.516994
2205.000000	24.349949
2204.000000	24.304724
2203.000000	24.144204
2202.000000	24.253959
2201.000000	24.209905
2200.000000	24.292237
2199.000000	24.266931
2198.000000	24.338771
2197.000000	24.179356
2196.000000	24.076434
2195.000000	24.061081
2194.000000	23.896551
2193.000000	23.861930
2192.000000	23.893074
2191.000000	23.942094
2190.000000	23.865850
2189.000000	23.690441
2188.000000	23.672684
2187.000000	23.670108
2186.000000	23.716862
2185.000000	23.686471
2184.000000	23.724524
2183.000000	23.692324
2182.000000	23.730145
2181.000000	23.472202
2180.000000	23.509299
2179.000000	23.443013
2178.000000	23.522022
2177.000000	23.613886
2176.000000	23.583904
2175.000000	23.686909
2174.000000	23.665863
2173.000000	23.746021
2172.000000	23.770362
2171.000000	23.780922
2170.000000	23.913639
2169.000000	23.864492
2168.000000	23.918873
2167.000000	23.734051
2166.000000	23.928971
2165.000000	24.213472
2164.000000	24.034710
2163.000000	24.138007
2162.000000	24.389116
2161.000000	24.331680
2160.000000	24.283880
2159.000000	24.570497
2158.000000	24.615566
2157.000000	24.611509
2156.000000	24.743456
2155.000000	24.898485
2154.000000	24.973794
2153.000000	25.070854
2152.000000	25.166270
2151.000000	25.123831
2150.000000	25.388828
2149.000000	25.268626
2148.000000	25.414564
2147.000000	25.461798
2146.000000	25.557342
2145.000000	25.749948
2144.000000	25.707848
2143.000000	25.874155
2142.000000	25.970032
2141.000000	26.066079
2140.000000	26.225099
2139.000000	26.305903
2138.000000	26.341767
2137.000000	26.360699
2136.000000	26.555428
2135.000000	26.543733
2134.000000	26.559462
2133.000000	26.542362
2132.000000	26.649423
2131.000000	26.939081
2130.000000	27.093747
2129.000000	26.965627
2128.000000	26.975417
2127.000000	26.910929
2126.000000	26.930925
2125.000000	27.002774
2124.000000	27.025208
2123.000000	26.893492
2122.000000	27.187186
2121.000000	27.000156
2120.000000	27.191034
2119.000000	27.182850
2118.000000	27.188340
2117.000000	27.300232
2116.000000	27.242830
2115.000000	27.263000
2114.000000	27.273871
2113.000000	27.316215
2112.000000	27.161129
2111.000000	27.229928
2110.000000	27.258867
2109.000000	27.315191
2108.000000	27.363378
2107.000000	27.456431
2106.000000	27.281136
2105.000000	27.252171
2104.000000	27.237351
2103.000000	27.320973
2102.000000	27.384487
2101.000000	27.433078
2100.000000	27.446459
2099.000000	27.484669
2098.000000	27.402673
2097.000000	27.426641
2096.000000	27.460449
2095.000000	27.456122
2094.000000	27.510494
2093.000000	27.250101
2092.000000	27.262385
2091.000000	27.325343
2090.000000	27.379797
2089.000000	27.364147
2088.000000	27.213918
2087.000000	27.165957
2086.000000	27.288260
2085.000000	27.260218
2084.000000	27.254995
2083.000000	27.045016
2082.000000	26.994080
2081.000000	26.972610
2080.000000	26.976419
2079.000000	26.895144
2078.000000	26.794681
2077.000000	26.709863
2076.000000	26.618868
2075.000000	26.660012
2074.000000	26.557095
2073.000000	26.480664
2072.000000	26.446045
2071.000000	26.410169
2070.000000	26.325979
2069.000000	26.198540
2068.000000	26.102711
2067.000000	25.951905
2066.000000	25.811502
2065.000000	25.782669
2064.000000	25.679016
2063.000000	25.593518
2062.000000	25.435003
2061.000000	25.333844
2060.000000	25.247290
2059.000000	25.140447
2058.000000	25.070465
2057.000000	25.009489
2056.000000	24.950131
2055.000000	24.865498
2054.000000	24.759292
2053.000000	24.711056
2052.000000	24.588026
2051.000000	24.406421
2050.000000	24.358801
2049.000000	24.304412
2048.000000	24.277585
2047.000000	24.246075
2046.000000	24.184201
2045.000000	24.100249
2044.000000	24.121039
2043.000000	24.190390
2042.000000	24.154543
2041.000000	24.083969
2040.000000	24.084132
2039.000000	24.120079
2038.000000	24.129589
2037.000000	24.093519
2036.000000	24.162906
2035.000000	24.252611
2034.000000	24.323660
2033.000000	24.347535
2032.000000	24.377602
2031.000000	24.437451
2030.000000	24.482055
2029.000000	24.560939
2028.000000	24.676978
2027.000000	24.712961
2026.000000	24.789827
2025.000000	24.832991
2024.000000	24.806523
2023.000000	24.862138
2022.000000	24.875203
2021.000000	24.890972
2020.000000	24.938288
2019.000000	24.909808
2018.000000	24.923520
2017.000000	24.924269
2016.000000	24.900647
2015.000000	24.853541
2014.000000	24.820264
2013.000000	24.855340
2012.000000	24.838502
2011.000000	24.798481
2010.000000	24.733252
2009.000000	24.676137
2008.000000	24.621924
2007.000000	24.579988
2006.000000	24.487268
2005.000000	24.421539
2004.000000	24.387038
2003.000000	24.322822
2002.000000	24.258888
2001.000000	24.167909
2000.000000	24.110373
1999.000000	24.056946
1998.000000	24.004851
1997.000000	23.928111
1996.000000	23.879462
1995.000000	23.797951
1994.000000	23.694341
1993.000000	23.653163
1992.000000	23.537900
1991.000000	23.443454
1990.000000	23.393296
1989.000000	23.337203
1988.000000	23.304379
1987.000000	23.199498
1986.000000	23.135879
1985.000000	23.080203
1984.000000	22.997467
1983.000000	22.931898
1982.000000	22.864213
1981.000000	22.848127
1980.000000	22.802681
1979.000000	22.700467
1978.000000	22.609404
1977.000000	22.542572
1976.000000	22.498385
1975.000000	22.416382
1974.000000	22.347438
1973.000000	22.314953
1972.000000	22.284586
1971.000000	22.194797
1970.000000	22.104997
1969.000000	22.045057
1968.000000	22.043990
1967.000000	21.983034
1966.000000	21.950347
1965.000000	21.917191
1964.000000	21.794312
1963.000000	21.730560
1962.000000	21.644984
1961.000000	21.651743
1960.000000	21.629371
1959.000000	21.604354
1958.000000	21.495796
1957.000000	21.451286
1956.000000	21.457604
1955.000000	21.390429
1954.000000	21.452837
1953.000000	21.372155
1952.000000	21.378844
1951.000000	21.389481
1950.000000	21.307877
1949.000000	21.311003
1948.000000	21.277547
1947.000000	21.264799
1946.000000	21.288568
1945.000000	21.332740
1944.000000	21.263934
1943.000000	21.331223
1942.000000	21.361396
1941.000000	21.380308
1940.000000	21.411600
1939.000000	21.461554
1938.000000	21.500360
1937.000000	21.532203
1936.000000	21.639378
1935.000000	21.766401
1934.000000	21.850507
1933.000000	21.842933
1932.000000	21.852055
1931.000000	21.940701
1930.000000	22.135136
1929.000000	22.186374
1928.000000	22.357981
1927.000000	22.471003
1926.000000	22.523136
1925.000000	22.727488
1924.000000	22.895818
1923.000000	23.118902
1922.000000	23.214239
1921.000000	23.415242
1920.000000	23.577775
1919.000000	23.739662
1918.000000	23.913937
1917.000000	24.185070
1916.000000	24.259716
1915.000000	24.582562
1914.000000	24.726240
1913.000000	25.155963
1912.000000	25.332893
1911.000000	25.545840
1910.000000	25.838089
1909.000000	26.075390
1908.000000	26.448479
1907.000000	26.818177
1906.000000	27.053307
1905.000000	27.436514
1904.000000	27.811001
1903.000000	28.164742
1902.000000	28.505946
1901.000000	28.898652
1900.000000	29.326577
1899.000000	29.771899
1898.000000	30.156537
1897.000000	30.634406
1896.000000	30.997763
1895.000000	31.364114
1894.000000	31.749524
1893.000000	32.179036
1892.000000	32.532177
1891.000000	32.944616
1890.000000	33.322511
1889.000000	33.710343
1888.000000	34.136213
1887.000000	34.480748
1886.000000	34.925656
1885.000000	35.282872
1884.000000	35.608241
1883.000000	36.019363
1882.000000	36.260062
1881.000000	36.629791
1880.000000	37.035500
1879.000000	37.305309
1878.000000	37.595678
1877.000000	37.842245
1876.000000	38.088526
1875.000000	38.356998
1874.000000	38.595578
1873.000000	38.848635
1872.000000	39.101866
1871.000000	39.298431
1870.000000	39.424550
1869.000000	39.636081
1868.000000	39.791265
1867.000000	39.930633
1866.000000	40.040960
1865.000000	40.177798
1864.000000	40.218880
1863.000000	40.354294
1862.000000	40.473507
1861.000000	40.549314
1860.000000	40.578092
1859.000000	40.610702
1858.000000	40.747110
1857.000000	40.825893
1856.000000	40.907218
1855.000000	40.922799
1854.000000	40.962231
1853.000000	41.017719
1852.000000	41.005661
1851.000000	41.031422
1850.000000	41.086858
1849.000000	41.087799
1848.000000	41.096762
1847.000000	41.106204
1846.000000	41.095608
1845.000000	41.035898
1844.000000	41.046192
1843.000000	41.015352
1842.000000	40.999652
1841.000000	40.984098
1840.000000	40.943565
1839.000000	40.934222
1838.000000	40.942349
1837.000000	40.886701
1836.000000	40.829666
1835.000000	40.722855
1834.000000	40.660871
1833.000000	40.678480
1832.000000	40.642869
1831.000000	40.558872
1830.000000	40.557640
1829.000000	40.521134
1828.000000	40.481385
1827.000000	40.436646
1826.000000	40.415047
1825.000000	40.355991
1824.000000	40.337489
1823.000000	40.316920
1822.000000	40.248174
1821.000000	40.215932
1820.000000	40.206114
1819.000000	40.158537
1818.000000	40.142295
1817.000000	40.118255
1816.000000	40.068781
1815.000000	40.025117
1814.000000	39.963599
1813.000000	39.926508
1812.000000	39.934324
1811.000000	39.924582
1810.000000	39.889146
1809.000000	39.837451
1808.000000	39.779275
1807.000000	39.728383
1806.000000	39.708826
1805.000000	39.685006
1804.000000	39.656232
1803.000000	39.650322
1802.000000	39.595932
1801.000000	39.547148
1800.000000	39.522888
1799.000000	39.512153
1798.000000	39.505544
1797.000000	39.482889
1796.000000	39.462174
1795.000000	39.433704
1794.000000	39.415279
1793.000000	39.409583
1792.000000	39.391851
1791.000000	39.386417
1790.000000	39.374941
1789.000000	39.354010
1788.000000	39.331843
1787.000000	39.334246
1786.000000	39.335869
1785.000000	39.326456
1784.000000	39.296802
1783.000000	39.274999
1782.000000	39.250710
1781.000000	39.205312
1780.000000	39.161176
1779.000000	39.157560
1778.000000	39.150924
1777.000000	39.113360
1776.000000	39.059668
1775.000000	38.999996
1774.000000	38.965258
1773.000000	38.927433
1772.000000	38.876004
1771.000000	38.851695
1770.000000	38.817627
1769.000000	38.781311
1768.000000	38.726729
1767.000000	38.656172
1766.000000	38.600750
1765.000000	38.565946
1764.000000	38.525964
1763.000000	38.486574
1762.000000	38.444711
1761.000000	38.392440
1760.000000	38.345150
1759.000000	38.311227
1758.000000	38.292256
1757.000000	38.229624
1756.000000	38.180298
1755.000000	38.130616
1754.000000	38.110029
1753.000000	38.060826
1752.000000	38.009256
1751.000000	37.983592
1750.000000	37.951193
1749.000000	37.938517
1748.000000	37.855741
1747.000000	37.818194
1746.000000	37.761737
1745.000000	37.677849
1744.000000	37.638083
1743.000000	37.595430
1742.000000	37.550708
1741.000000	37.525906
1740.000000	37.493400
1739.000000	37.464483
1738.000000	37.440436
1737.000000	37.417570
1736.000000	37.376421
1735.000000	37.389474
1734.000000	37.394377
1733.000000	37.319581
1732.000000	37.371232
1731.000000	37.351711
1730.000000	37.369589
1729.000000	37.404408
1728.000000	37.487190
1727.000000	37.501381
1726.000000	37.554385
1725.000000	37.601577
1724.000000	37.687630
1723.000000	37.760031
1722.000000	37.846633
1721.000000	37.944061
1720.000000	38.012838
1719.000000	38.141344
1718.000000	38.184803
1717.000000	38.261917
1716.000000	38.340684
1715.000000	38.427474
1714.000000	38.529957
1713.000000	38.648510
1712.000000	38.678983
1711.000000	38.774363
1710.000000	38.844211
1709.000000	38.870169
1708.000000	38.891618
1707.000000	38.943483
1706.000000	39.000426
1705.000000	39.037617
1704.000000	39.101308
1703.000000	39.040430
1702.000000	39.078326
1701.000000	39.112729
1700.000000	39.108360
1699.000000	39.085240
1698.000000	39.170205
1697.000000	39.152447
1696.000000	39.212234
1695.000000	39.221856
1694.000000	39.215784
1693.000000	39.265303
1692.000000	39.309810
1691.000000	39.409349
1690.000000	39.467829
1689.000000	39.547837
1688.000000	39.636143
1687.000000	39.707791
1686.000000	39.818945
1685.000000	39.960556
1684.000000	40.084179
1683.000000	40.202498
1682.000000	40.363689
1681.000000	40.556545
1680.000000	40.672078
1679.000000	40.861955
1678.000000	41.026758
1677.000000	41.137683
1676.000000	41.326457
1675.000000	41.489065
1674.000000	41.655475
1673.000000	41.832225
1672.000000	42.003825
1671.000000	42.185696
1670.000000	42.306676
1669.000000	42.475074
1668.000000	42.602961
1667.000000	42.747148
1666.000000	42.805073
1665.000000	42.927677
1664.000000	42.998978
1663.000000	43.060467
1662.000000	43.169879
1661.000000	43.253489
1660.000000	43.314713
1659.000000	43.362342
1658.000000	43.429937
1657.000000	43.474198
1656.000000	43.503965
1655.000000	43.538430
1654.000000	43.564365
1653.000000	43.578260
1652.000000	43.611699
1651.000000	43.602741
1650.000000	43.594721
1649.000000	43.573318
1648.000000	43.548957
1647.000000	43.556605
1646.000000	43.545055
1645.000000	43.498845
1644.000000	43.505639
1643.000000	43.495468
1642.000000	43.471151
1641.000000	43.426896
1640.000000	43.379750
1639.000000	43.373527
1638.000000	43.351281
1637.000000	43.294030
1636.000000	43.253881
1635.000000	43.209608
1634.000000	43.166409
1633.000000	43.103562
1632.000000	43.060911
1631.000000	43.002462
1630.000000	42.967452
1629.000000	42.909740
1628.000000	42.875931
1627.000000	42.829850
1626.000000	42.787760
1625.000000	42.740864
1624.000000	42.671897
1623.000000	42.621661
1622.000000	42.570843
1621.000000	42.511139
1620.000000	42.456390
1619.000000	42.379387
1618.000000	42.318635
1617.000000	42.263774
1616.000000	42.205025
1615.000000	42.152496
1614.000000	42.115898
1613.000000	42.048059
1612.000000	41.971094
1611.000000	41.916813
1610.000000	41.837315
1609.000000	41.776141
1608.000000	41.723595
1607.000000	41.655398
1606.000000	41.596534
1605.000000	41.530698
1604.000000	41.442142
1603.000000	41.380989
1602.000000	41.333553
1601.000000	41.280373
1600.000000	41.217422
1599.000000	41.144390
1598.000000	41.087875
1597.000000	41.026679
1596.000000	40.959307
1595.000000	40.910972
1594.000000	40.865196
1593.000000	40.815703
1592.000000	40.737446
1591.000000	40.664362
1590.000000	40.612184
1589.000000	40.561692
1588.000000	40.510103
1587.000000	40.459723
1586.000000	40.422641
1585.000000	40.377733
1584.000000	40.324163
1583.000000	40.281897
1582.000000	40.222682
1581.000000	40.160819
1580.000000	40.125969
1579.000000	40.089594
1578.000000	40.043354
1577.000000	39.989921
1576.000000	39.933645
1575.000000	39.889874
1574.000000	39.828703
1573.000000	39.771611
1572.000000	39.731089
1571.000000	39.680084
1570.000000	39.640773
1569.000000	39.605047
1568.000000	39.568768
1567.000000	39.536246
1566.000000	39.488319
1565.000000	39.448060
1564.000000	39.414651
1563.000000	39.394930
1562.000000	39.347877
1561.000000	39.308458
1560.000000	39.290452
1559.000000	39.258388
1558.000000	39.230441
1557.000000	39.220950
1556.000000	39.177830
1555.000000	39.168385
1554.000000	39.132801
1553.000000	39.089953
1552.000000	39.069509
1551.000000	39.021802
1550.000000	38.990148
1549.000000	38.945784
1548.000000	38.911336
1547.000000	38.841460
1546.000000	38.783001
1545.000000	38.705337
1544.000000	38.657557
1543.000000	38.581392
1542.000000	38.506568
1541.000000	38.440642
1540.000000	38.367618
1539.000000	38.285419
1538.000000	38.211203
1537.000000	38.127793
1536.000000	38.051332
1535.000000	37.957734
1534.000000	37.891985
1533.000000	37.822497
1532.000000	37.732180
1531.000000	37.661285
1530.000000	37.581558
1529.000000	37.508853
1528.000000	37.454140
1527.000000	37.369790
1526.000000	37.334185
1525.000000	37.271031
1524.000000	37.213919
1523.000000	37.180360
1522.000000	37.119146
1521.000000	37.080668
1520.000000	37.045927
1519.000000	37.012974
1518.000000	36.980782
1517.000000	36.933489
1516.000000	36.920997
1515.000000	36.875728
1514.000000	36.840694
1513.000000	36.827853
1512.000000	36.807354
1511.000000	36.799870
1510.000000	36.755939
1509.000000	36.751621
1508.000000	36.731200
1507.000000	36.699048
1506.000000	36.695383
1505.000000	36.676626
1504.000000	36.678105
1503.000000	36.677473
1502.000000	36.656381
1501.000000	36.644918
1500.000000	36.637814
1499.000000	36.632967
1498.000000	36.645014
1497.000000	36.625362
1496.000000	36.632765
1495.000000	36.639343
1494.000000	36.630938
1493.000000	36.667088
1492.000000	36.668073
1491.000000	36.694191
1490.000000	36.698930
1489.000000	36.720585
1488.000000	36.739882
1487.000000	36.752796
1486.000000	36.769832
1485.000000	36.772722
1484.000000	36.800387
1483.000000	36.840737
1482.000000	36.858696
1481.000000	36.902921
1480.000000	36.925155
1479.000000	36.955603
1478.000000	36.973080
1477.000000	36.997869
1476.000000	37.027634
1475.000000	37.059781
1474.000000	37.091291
1473.000000	37.108360
1472.000000	37.151666
1471.000000	37.168826
1470.000000	37.186063
