PE UV       SUBTECH     SPECTRUM    ASCII       PEDS        4.00        
   -1
RDgVeauAl 12.Sample.asc
18/03/12
12:14:01.00
18/03/12
12:14:01.00
Administrator

200.000000
1
Lambda 750
750N8071901
PerkinElmer UV WinLab 6.0.4.0738 / 1.61.00 Lambda 900

0
0
3350/servo 860.8/2
0
0
UV/VIS
1
1
1
CommonBeamDepol,150mm sphere / downward view
0
0
0
0
Program
Program
3350/servo 860.8/2
3350/0.2 860.8/0.2
3350/0.2 860.8/0.2
0
1
 
 
 
0
 
860.8
319.2
860.8
Front
100
on
 
 
0
0
0
 
0
 
 
 
0
 
 
0
0
0
0
0
 
 
 
 
0
0


0
0
#HDR
-1
-1
#GR
nm
%R
1.0
0.0
2350.000000
-1.000000
2151
8
64.650836
10.168992
#DATA
2350.000000	20.893135
2349.000000	21.028753
2348.000000	21.165896
2347.000000	22.142282
2346.000000	21.374184
2345.000000	20.799529
2344.000000	20.772067
2343.000000	20.617518
2342.000000	20.894502
2341.000000	21.080661
2340.000000	21.297158
2339.000000	21.369652
2338.000000	21.627000
2337.000000	21.279505
2336.000000	21.574947
2335.000000	21.617529
2334.000000	21.769317
2333.000000	22.246072
2332.000000	22.078744
2331.000000	21.791416
2330.000000	21.649345
2329.000000	21.605534
2328.000000	21.563836
2327.000000	21.646516
2326.000000	21.913428
2325.000000	21.908293
2324.000000	21.601757
2323.000000	21.635225
2322.000000	21.540968
2321.000000	21.469022
2320.000000	21.539110
2319.000000	21.437417
2318.000000	21.632812
2317.000000	21.737586
2316.000000	21.335482
2315.000000	21.319752
2314.000000	21.265658
2313.000000	21.082890
2312.000000	20.836110
2311.000000	20.820747
2310.000000	20.994970
2309.000000	20.859398
2308.000000	20.842925
2307.000000	20.704365
2306.000000	20.610544
2305.000000	20.659624
2304.000000	20.601349
2303.000000	20.665666
2302.000000	20.418760
2301.000000	20.458618
2300.000000	20.390995
2299.000000	20.289512
2298.000000	20.359376
2297.000000	19.970393
2296.000000	20.085867
2295.000000	20.119695
2294.000000	20.125037
2293.000000	19.993941
2292.000000	19.913916
2291.000000	19.919620
2290.000000	19.732059
2289.000000	19.746069
2288.000000	19.714949
2287.000000	19.691984
2286.000000	19.728244
2285.000000	19.719678
2284.000000	19.579237
2283.000000	19.532832
2282.000000	19.490782
2281.000000	19.590829
2280.000000	19.797873
2279.000000	19.750117
2278.000000	19.481920
2277.000000	19.663180
2276.000000	19.728050
2275.000000	19.688607
2274.000000	19.681237
2273.000000	19.997216
2272.000000	20.115597
2271.000000	19.973194
2270.000000	20.015252
2269.000000	20.056387
2268.000000	20.089023
2267.000000	20.133706
2266.000000	20.281157
2265.000000	20.343308
2264.000000	20.454782
2263.000000	20.581899
2262.000000	20.702622
2261.000000	20.846151
2260.000000	20.948295
2259.000000	21.285061
2258.000000	21.322808
2257.000000	21.312050
2256.000000	21.462505
2255.000000	21.708551
2254.000000	21.944909
2253.000000	21.903736
2252.000000	22.051481
2251.000000	22.434223
2250.000000	22.705141
2249.000000	22.863217
2248.000000	22.954607
2247.000000	23.176871
2246.000000	23.359737
2245.000000	23.415205
2244.000000	23.561228
2243.000000	23.744737
2242.000000	23.966803
2241.000000	24.043668
2240.000000	24.119695
2239.000000	24.392914
2238.000000	24.541750
2237.000000	24.686841
2236.000000	24.876600
2235.000000	24.946979
2234.000000	24.891204
2233.000000	24.821791
2232.000000	24.928114
2231.000000	25.075223
2230.000000	25.109316
2229.000000	25.140541
2228.000000	25.155078
2227.000000	25.093012
2226.000000	25.086111
2225.000000	25.049518
2224.000000	25.043792
2223.000000	24.970663
2222.000000	24.980755
2221.000000	24.963228
2220.000000	25.074455
2219.000000	25.165149
2218.000000	25.015102
2217.000000	24.944144
2216.000000	24.908920
2215.000000	24.810340
2214.000000	24.805130
2213.000000	24.794225
2212.000000	24.732640
2211.000000	24.643138
2210.000000	24.705436
2209.000000	24.623168
2208.000000	24.461654
2207.000000	24.488974
2206.000000	24.331735
2205.000000	24.139293
2204.000000	24.149770
2203.000000	24.052485
2202.000000	23.910013
2201.000000	23.958971
2200.000000	23.985169
2199.000000	23.879573
2198.000000	23.794248
2197.000000	23.660630
2196.000000	23.629393
2195.000000	23.655100
2194.000000	23.547126
2193.000000	23.315301
2192.000000	23.249028
2191.000000	23.236151
2190.000000	23.302031
2189.000000	23.359317
2188.000000	23.103683
2187.000000	22.927869
2186.000000	22.822213
2185.000000	22.818961
2184.000000	22.890892
2183.000000	22.996316
2182.000000	22.909726
2181.000000	22.791378
2180.000000	22.922288
2179.000000	22.911047
2178.000000	22.779733
2177.000000	22.738323
2176.000000	22.694523
2175.000000	22.890089
2174.000000	22.950745
2173.000000	22.859001
2172.000000	23.032554
2171.000000	22.966560
2170.000000	23.032653
2169.000000	23.106867
2168.000000	23.109837
2167.000000	23.214788
2166.000000	23.425685
2165.000000	23.480593
2164.000000	23.415017
2163.000000	23.468072
2162.000000	23.516726
2161.000000	23.534149
2160.000000	24.014740
2159.000000	24.045839
2158.000000	24.087031
2157.000000	24.194802
2156.000000	24.346192
2155.000000	24.658705
2154.000000	24.655103
2153.000000	24.773568
2152.000000	24.861542
2151.000000	24.917003
2150.000000	25.113166
2149.000000	25.146046
2148.000000	25.322785
2147.000000	25.558627
2146.000000	25.521521
2145.000000	25.980632
2144.000000	25.958192
2143.000000	25.854049
2142.000000	26.086345
2141.000000	26.164105
2140.000000	26.347526
2139.000000	26.655087
2138.000000	26.724425
2137.000000	26.798838
2136.000000	26.599335
2135.000000	26.859317
2134.000000	27.031142
2133.000000	26.903003
2132.000000	27.094010
2131.000000	27.414186
2130.000000	27.445646
2129.000000	27.374844
2128.000000	27.394953
2127.000000	27.416115
2126.000000	27.502779
2125.000000	27.503600
2124.000000	27.541525
2123.000000	27.563894
2122.000000	27.678235
2121.000000	27.780501
2120.000000	27.760775
2119.000000	27.705074
2118.000000	27.807317
2117.000000	27.828941
2116.000000	27.835193
2115.000000	27.957203
2114.000000	27.932001
2113.000000	28.064424
2112.000000	28.032276
2111.000000	27.938178
2110.000000	28.053614
2109.000000	28.058458
2108.000000	28.002945
2107.000000	28.053077
2106.000000	28.020373
2105.000000	28.177072
2104.000000	28.244908
2103.000000	28.204746
2102.000000	28.146367
2101.000000	28.253182
2100.000000	28.298767
2099.000000	28.272703
2098.000000	28.169788
2097.000000	28.260624
2096.000000	28.179991
2095.000000	28.095058
2094.000000	28.111517
2093.000000	28.108248
2092.000000	28.165856
2091.000000	28.129207
2090.000000	28.066298
2089.000000	28.143889
2088.000000	28.174337
2087.000000	28.119134
2086.000000	28.059735
2085.000000	28.061037
2084.000000	27.931191
2083.000000	27.798440
2082.000000	27.819049
2081.000000	27.720662
2080.000000	27.633200
2079.000000	27.577732
2078.000000	27.433882
2077.000000	27.355896
2076.000000	27.260776
2075.000000	27.211390
2074.000000	27.039893
2073.000000	27.012662
2072.000000	26.866605
2071.000000	26.715338
2070.000000	26.543870
2069.000000	26.421102
2068.000000	26.379290
2067.000000	26.152008
2066.000000	25.953729
2065.000000	25.867244
2064.000000	25.692034
2063.000000	25.565462
2062.000000	25.470919
2061.000000	25.266163
2060.000000	25.084635
2059.000000	24.934848
2058.000000	24.769742
2057.000000	24.613078
2056.000000	24.584085
2055.000000	24.410060
2054.000000	24.241987
2053.000000	24.119880
2052.000000	23.988451
2051.000000	23.856328
2050.000000	23.743500
2049.000000	23.664033
2048.000000	23.592542
2047.000000	23.541180
2046.000000	23.496012
2045.000000	23.410831
2044.000000	23.406888
2043.000000	23.397165
2042.000000	23.345528
2041.000000	23.348882
2040.000000	23.381653
2039.000000	23.464792
2038.000000	23.490739
2037.000000	23.487682
2036.000000	23.593107
2035.000000	23.721969
2034.000000	23.784671
2033.000000	23.828535
2032.000000	23.968734
2031.000000	24.103632
2030.000000	24.187833
2029.000000	24.267356
2028.000000	24.358126
2027.000000	24.467138
2026.000000	24.580311
2025.000000	24.677841
2024.000000	24.735129
2023.000000	24.781251
2022.000000	24.805248
2021.000000	24.835094
2020.000000	24.892395
2019.000000	24.902528
2018.000000	24.918767
2017.000000	24.914761
2016.000000	24.943119
2015.000000	24.969091
2014.000000	24.872643
2013.000000	24.776536
2012.000000	24.754655
2011.000000	24.762057
2010.000000	24.715952
2009.000000	24.645991
2008.000000	24.581950
2007.000000	24.485067
2006.000000	24.406425
2005.000000	24.346324
2004.000000	24.251258
2003.000000	24.160057
2002.000000	24.075964
2001.000000	23.944061
2000.000000	23.824947
1999.000000	23.746103
1998.000000	23.672578
1997.000000	23.605191
1996.000000	23.470098
1995.000000	23.310377
1994.000000	23.178679
1993.000000	23.078551
1992.000000	22.974053
1991.000000	22.859044
1990.000000	22.720670
1989.000000	22.657295
1988.000000	22.565350
1987.000000	22.443374
1986.000000	22.319320
1985.000000	22.204148
1984.000000	22.170230
1983.000000	22.051271
1982.000000	21.957366
1981.000000	21.898448
1980.000000	21.764947
1979.000000	21.632774
1978.000000	21.533731
1977.000000	21.437674
1976.000000	21.313684
1975.000000	21.195973
1974.000000	21.112857
1973.000000	21.014358
1972.000000	20.964015
1971.000000	20.852168
1970.000000	20.745823
1969.000000	20.693940
1968.000000	20.581263
1967.000000	20.507838
1966.000000	20.415760
1965.000000	20.306161
1964.000000	20.172566
1963.000000	20.111693
1962.000000	20.035912
1961.000000	19.970449
1960.000000	19.912597
1959.000000	19.789400
1958.000000	19.744237
1957.000000	19.651813
1956.000000	19.583906
1955.000000	19.583821
1954.000000	19.491730
1953.000000	19.459883
1952.000000	19.420712
1951.000000	19.342351
1950.000000	19.295961
1949.000000	19.237632
1948.000000	19.208841
1947.000000	19.173731
1946.000000	19.173587
1945.000000	19.196270
1944.000000	19.133130
1943.000000	19.133367
1942.000000	19.163912
1941.000000	19.198580
1940.000000	19.218036
1939.000000	19.392714
1938.000000	19.427499
1937.000000	19.431690
1936.000000	19.555982
1935.000000	19.494965
1934.000000	19.645296
1933.000000	19.843297
1932.000000	19.908425
1931.000000	20.008183
1930.000000	20.209006
1929.000000	20.316047
1928.000000	20.455129
1927.000000	20.648806
1926.000000	20.848758
1925.000000	21.121313
1924.000000	21.334553
1923.000000	21.538373
1922.000000	21.792007
1921.000000	22.067869
1920.000000	22.247430
1919.000000	22.635809
1918.000000	22.826738
1917.000000	23.144692
1916.000000	23.359129
1915.000000	23.878163
1914.000000	24.172555
1913.000000	24.585354
1912.000000	24.958764
1911.000000	25.338315
1910.000000	25.732684
1909.000000	26.263139
1908.000000	26.652115
1907.000000	27.104255
1906.000000	27.584594
1905.000000	28.048889
1904.000000	28.726465
1903.000000	29.201249
1902.000000	29.771934
1901.000000	30.366934
1900.000000	30.930923
1899.000000	31.549380
1898.000000	32.111984
1897.000000	32.684806
1896.000000	33.240028
1895.000000	33.844469
1894.000000	34.440709
1893.000000	35.041317
1892.000000	35.651256
1891.000000	36.205328
1890.000000	36.715165
1889.000000	37.284177
1888.000000	37.813867
1887.000000	38.369125
1886.000000	38.886088
1885.000000	39.377508
1884.000000	39.893283
1883.000000	40.418542
1882.000000	40.808450
1881.000000	41.261380
1880.000000	41.679363
1879.000000	42.166205
1878.000000	42.589239
1877.000000	42.939130
1876.000000	43.317863
1875.000000	43.697153
1874.000000	44.002854
1873.000000	44.300133
1872.000000	44.612122
1871.000000	44.949204
1870.000000	45.209513
1869.000000	45.459042
1868.000000	45.610901
1867.000000	45.786666
1866.000000	46.024934
1865.000000	46.135291
1864.000000	46.254270
1863.000000	46.405429
1862.000000	46.538116
1861.000000	46.644609
1860.000000	46.739248
1859.000000	46.838492
1858.000000	46.912236
1857.000000	46.991615
1856.000000	47.045654
1855.000000	47.113225
1854.000000	47.165246
1853.000000	47.253759
1852.000000	47.258431
1851.000000	47.275244
1850.000000	47.294867
1849.000000	47.299481
1848.000000	47.297469
1847.000000	47.307942
1846.000000	47.300959
1845.000000	47.282404
1844.000000	47.223859
1843.000000	47.212343
1842.000000	47.182373
1841.000000	47.177859
1840.000000	47.144750
1839.000000	47.099335
1838.000000	47.080394
1837.000000	47.026639
1836.000000	46.990637
1835.000000	46.893103
1834.000000	46.847112
1833.000000	46.845396
1832.000000	46.798993
1831.000000	46.728339
1830.000000	46.690634
1829.000000	46.608911
1828.000000	46.566072
1827.000000	46.509256
1826.000000	46.455419
1825.000000	46.426488
1824.000000	46.399265
1823.000000	46.356469
1822.000000	46.309703
1821.000000	46.280843
1820.000000	46.250930
1819.000000	46.204418
1818.000000	46.156790
1817.000000	46.083585
1816.000000	46.028657
1815.000000	45.993498
1814.000000	45.945494
1813.000000	45.900940
1812.000000	45.871325
1811.000000	45.826007
1810.000000	45.770051
1809.000000	45.732508
1808.000000	45.686944
1807.000000	45.616283
1806.000000	45.561073
1805.000000	45.524454
1804.000000	45.483911
1803.000000	45.444626
1802.000000	45.397969
1801.000000	45.346706
1800.000000	45.291799
1799.000000	45.267531
1798.000000	45.255288
1797.000000	45.214862
1796.000000	45.190474
1795.000000	45.168826
1794.000000	45.155870
1793.000000	45.117008
1792.000000	45.065212
1791.000000	45.033770
1790.000000	45.005885
1789.000000	44.973883
1788.000000	44.941279
1787.000000	44.906529
1786.000000	44.866034
1785.000000	44.834757
1784.000000	44.805808
1783.000000	44.756400
1782.000000	44.705224
1781.000000	44.658824
1780.000000	44.616867
1779.000000	44.576677
1778.000000	44.524095
1777.000000	44.451989
1776.000000	44.393565
1775.000000	44.324115
1774.000000	44.242129
1773.000000	44.183319
1772.000000	44.122447
1771.000000	44.052261
1770.000000	43.987735
1769.000000	43.908681
1768.000000	43.847566
1767.000000	43.785647
1766.000000	43.713883
1765.000000	43.690274
1764.000000	43.636528
1763.000000	43.570621
1762.000000	43.514221
1761.000000	43.459758
1760.000000	43.389645
1759.000000	43.342169
1758.000000	43.272129
1757.000000	43.204740
1756.000000	43.156577
1755.000000	43.080171
1754.000000	43.027249
1753.000000	42.977156
1752.000000	42.936413
1751.000000	42.890664
1750.000000	42.811216
1749.000000	42.788874
1748.000000	42.665061
1747.000000	42.600209
1746.000000	42.519612
1745.000000	42.430624
1744.000000	42.359627
1743.000000	42.303549
1742.000000	42.241506
1741.000000	42.190574
1740.000000	42.106437
1739.000000	42.053050
1738.000000	42.016892
1737.000000	41.939710
1736.000000	41.881727
1735.000000	41.872246
1734.000000	41.852031
1733.000000	41.821947
1732.000000	41.825553
1731.000000	41.841547
1730.000000	41.821107
1729.000000	41.897567
1728.000000	41.941160
1727.000000	42.013013
1726.000000	42.092443
1725.000000	42.160152
1724.000000	42.268793
1723.000000	42.353166
1722.000000	42.473771
1721.000000	42.596288
1720.000000	42.728579
1719.000000	42.866642
1718.000000	42.990404
1717.000000	43.102175
1716.000000	43.227873
1715.000000	43.346950
1714.000000	43.488423
1713.000000	43.622690
1712.000000	43.735699
1711.000000	43.814412
1710.000000	43.886144
1709.000000	44.022348
1708.000000	44.101865
1707.000000	44.152899
1706.000000	44.215213
1705.000000	44.278522
1704.000000	44.291625
1703.000000	44.334196
1702.000000	44.331073
1701.000000	44.421420
1700.000000	44.472347
1699.000000	44.470046
1698.000000	44.522703
1697.000000	44.548722
1696.000000	44.614930
1695.000000	44.632330
1694.000000	44.694357
1693.000000	44.756131
1692.000000	44.823121
1691.000000	44.933378
1690.000000	45.006251
1689.000000	45.118481
1688.000000	45.249842
1687.000000	45.368610
1686.000000	45.508379
1685.000000	45.685978
1684.000000	45.851082
1683.000000	46.056335
1682.000000	46.250725
1681.000000	46.458350
1680.000000	46.624211
1679.000000	46.869680
1678.000000	47.065986
1677.000000	47.278654
1676.000000	47.515868
1675.000000	47.753647
1674.000000	47.964587
1673.000000	48.171574
1672.000000	48.386685
1671.000000	48.580129
1670.000000	48.767807
1669.000000	48.995246
1668.000000	49.194844
1667.000000	49.370451
1666.000000	49.477821
1665.000000	49.583570
1664.000000	49.731916
1663.000000	49.826419
1662.000000	49.923515
1661.000000	50.034225
1660.000000	50.134112
1659.000000	50.196101
1658.000000	50.256602
1657.000000	50.311254
1656.000000	50.373811
1655.000000	50.417901
1654.000000	50.437436
1653.000000	50.444610
1652.000000	50.478239
1651.000000	50.498507
1650.000000	50.501227
1649.000000	50.482561
1648.000000	50.481779
1647.000000	50.466376
1646.000000	50.439889
1645.000000	50.415415
1644.000000	50.407948
1643.000000	50.387766
1642.000000	50.331297
1641.000000	50.289678
1640.000000	50.260226
1639.000000	50.243865
1638.000000	50.191861
1637.000000	50.139958
1636.000000	50.083468
1635.000000	50.028703
1634.000000	49.985573
1633.000000	49.911471
1632.000000	49.864712
1631.000000	49.811698
1630.000000	49.756161
1629.000000	49.698532
1628.000000	49.634966
1627.000000	49.577762
1626.000000	49.518468
1625.000000	49.446534
1624.000000	49.373659
1623.000000	49.307966
1622.000000	49.234175
1621.000000	49.155722
1620.000000	49.070715
1619.000000	49.014527
1618.000000	48.951867
1617.000000	48.872193
1616.000000	48.788839
1615.000000	48.700586
1614.000000	48.624998
1613.000000	48.535337
1612.000000	48.459890
1611.000000	48.384132
1610.000000	48.295742
1609.000000	48.223819
1608.000000	48.138178
1607.000000	48.047882
1606.000000	47.943604
1605.000000	47.846222
1604.000000	47.761026
1603.000000	47.675374
1602.000000	47.601888
1601.000000	47.515019
1600.000000	47.436337
1599.000000	47.348237
1598.000000	47.262496
1597.000000	47.187929
1596.000000	47.105430
1595.000000	47.029633
1594.000000	46.952198
1593.000000	46.887322
1592.000000	46.805606
1591.000000	46.707033
1590.000000	46.647895
1589.000000	46.586353
1588.000000	46.498144
1587.000000	46.429399
1586.000000	46.377077
1585.000000	46.300265
1584.000000	46.235766
1583.000000	46.189686
1582.000000	46.111066
1581.000000	46.028217
1580.000000	45.988800
1579.000000	45.933015
1578.000000	45.867666
1577.000000	45.797344
1576.000000	45.727634
1575.000000	45.669157
1574.000000	45.593229
1573.000000	45.512621
1572.000000	45.442769
1571.000000	45.389335
1570.000000	45.320696
1569.000000	45.263909
1568.000000	45.222852
1567.000000	45.156684
1566.000000	45.106307
1565.000000	45.065413
1564.000000	45.013236
1563.000000	44.980247
1562.000000	44.927098
1561.000000	44.901259
1560.000000	44.878698
1559.000000	44.835405
1558.000000	44.781814
1557.000000	44.757375
1556.000000	44.729389
1555.000000	44.707694
1554.000000	44.634920
1553.000000	44.592219
1552.000000	44.567230
1551.000000	44.524053
1550.000000	44.473525
1549.000000	44.417700
1548.000000	44.357286
1547.000000	44.272761
1546.000000	44.204576
1545.000000	44.132514
1544.000000	44.028118
1543.000000	43.918345
1542.000000	43.816147
1541.000000	43.732155
1540.000000	43.620168
1539.000000	43.518699
1538.000000	43.399166
1537.000000	43.266975
1536.000000	43.150145
1535.000000	43.045999
1534.000000	42.922871
1533.000000	42.827272
1532.000000	42.710514
1531.000000	42.611361
1530.000000	42.507373
1529.000000	42.391432
1528.000000	42.294609
1527.000000	42.208640
1526.000000	42.133891
1525.000000	42.057826
1524.000000	41.970909
1523.000000	41.906269
1522.000000	41.838824
1521.000000	41.758733
1520.000000	41.727567
1519.000000	41.676971
1518.000000	41.631305
1517.000000	41.570094
1516.000000	41.532478
1515.000000	41.495135
1514.000000	41.444921
1513.000000	41.411273
1512.000000	41.367612
1511.000000	41.362100
1510.000000	41.324517
1509.000000	41.288820
1508.000000	41.277137
1507.000000	41.239435
1506.000000	41.220863
1505.000000	41.197260
1504.000000	41.173298
1503.000000	41.164757
1502.000000	41.178048
1501.000000	41.152941
1500.000000	41.120560
1499.000000	41.115477
1498.000000	41.114113
1497.000000	41.111715
1496.000000	41.115573
1495.000000	41.110687
1494.000000	41.073786
1493.000000	41.118727
1492.000000	41.141272
1491.000000	41.154199
1490.000000	41.165044
1489.000000	41.198851
1488.000000	41.225536
1487.000000	41.246668
1486.000000	41.260650
1485.000000	41.303411
1484.000000	41.326971
1483.000000	41.355241
1482.000000	41.397531
1481.000000	41.425435
1480.000000	41.471138
1479.000000	41.502501
1478.000000	41.549416
1477.000000	41.590966
1476.000000	41.609387
1475.000000	41.649822
1474.000000	41.686991
1473.000000	41.726543
1472.000000	41.791264
1471.000000	41.806298
1470.000000	41.857084
