PE UV       SUBTECH     SPECTRUM    ASCII       PEDS        4.00        
   -1
RDVeauUK 62.Sample.asc
18/03/12
11:13:43.00
18/03/12
11:13:43.00
Administrator

200.000000
1
Lambda 750
750N8071901
PerkinElmer UV WinLab 6.0.4.0738 / 1.61.00 Lambda 900

0
0
3350/servo 860.8/2
0
0
UV/VIS
1
1
1
CommonBeamDepol,150mm sphere / downward view
0
0
0
0
Program
Program
3350/servo 860.8/2
3350/0.2 860.8/0.2
3350/0.2 860.8/0.2
0
1
 
 
 
0
 
860.8
319.2
860.8
Front
100
on
 
 
0
0
0
 
0
 
 
 
0
 
 
0
0
0
0
0
 
 
 
 
0
0


0
0
#HDR
-1
-1
#GR
nm
%R
1.0
0.0
2350.000000
-1.000000
2151
8
49.933649
11.739240
#DATA
2350.000000	18.429353
2349.000000	18.892032
2348.000000	18.918913
2347.000000	19.426567
2346.000000	19.161691
2345.000000	19.160731
2344.000000	18.564101
2343.000000	18.525441
2342.000000	18.705613
2341.000000	19.108542
2340.000000	18.877718
2339.000000	19.008061
2338.000000	18.885958
2337.000000	19.096943
2336.000000	19.278208
2335.000000	19.646729
2334.000000	19.895780
2333.000000	20.061768
2332.000000	19.776069
2331.000000	19.862451
2330.000000	19.477259
2329.000000	19.415273
2328.000000	19.356696
2327.000000	19.382821
2326.000000	19.765334
2325.000000	19.588680
2324.000000	19.654730
2323.000000	19.372578
2322.000000	19.019957
2321.000000	19.163892
2320.000000	19.746455
2319.000000	19.713841
2318.000000	19.197887
2317.000000	19.397115
2316.000000	19.514765
2315.000000	19.231508
2314.000000	19.296850
2313.000000	19.264435
2312.000000	19.180269
2311.000000	19.056260
2310.000000	19.102728
2309.000000	19.087096
2308.000000	18.990968
2307.000000	18.755443
2306.000000	18.974462
2305.000000	19.092279
2304.000000	19.033596
2303.000000	19.124516
2302.000000	19.041264
2301.000000	18.839556
2300.000000	18.340630
2299.000000	18.645089
2298.000000	18.648835
2297.000000	18.463400
2296.000000	18.576815
2295.000000	18.412153
2294.000000	18.370740
2293.000000	18.328503
2292.000000	18.282020
2291.000000	18.211538
2290.000000	18.226213
2289.000000	18.374392
2288.000000	18.441001
2287.000000	18.312888
2286.000000	17.983398
2285.000000	17.944111
2284.000000	18.089723
2283.000000	18.050562
2282.000000	18.096470
2281.000000	18.013766
2280.000000	17.895407
2279.000000	18.141883
2278.000000	18.187074
2277.000000	18.139622
2276.000000	18.201763
2275.000000	18.234746
2274.000000	18.248487
2273.000000	18.259691
2272.000000	18.207034
2271.000000	18.285943
2270.000000	18.285154
2269.000000	18.249484
2268.000000	18.294544
2267.000000	18.432074
2266.000000	18.382076
2265.000000	18.512202
2264.000000	18.728839
2263.000000	18.643044
2262.000000	18.591746
2261.000000	18.936325
2260.000000	19.068617
2259.000000	18.780461
2258.000000	18.910045
2257.000000	19.138001
2256.000000	19.161658
2255.000000	19.269538
2254.000000	19.452924
2253.000000	19.505776
2252.000000	19.431910
2251.000000	19.507757
2250.000000	19.697822
2249.000000	19.936430
2248.000000	19.919949
2247.000000	19.998586
2246.000000	20.180317
2245.000000	20.290426
2244.000000	20.346557
2243.000000	20.478145
2242.000000	20.554059
2241.000000	20.501370
2240.000000	20.715951
2239.000000	20.827327
2238.000000	20.743063
2237.000000	20.888888
2236.000000	21.048404
2235.000000	20.937311
2234.000000	20.937753
2233.000000	20.981757
2232.000000	21.070893
2231.000000	21.183726
2230.000000	21.118686
2229.000000	21.065766
2228.000000	21.255449
2227.000000	21.290083
2226.000000	21.175513
2225.000000	21.190463
2224.000000	21.254593
2223.000000	21.260859
2222.000000	21.265348
2221.000000	21.173864
2220.000000	21.257790
2219.000000	21.175605
2218.000000	21.014989
2217.000000	20.978426
2216.000000	21.052637
2215.000000	21.043373
2214.000000	20.988917
2213.000000	21.136902
2212.000000	21.065120
2211.000000	20.861557
2210.000000	20.837668
2209.000000	20.783172
2208.000000	20.777076
2207.000000	20.796199
2206.000000	20.865490
2205.000000	20.958851
2204.000000	20.821329
2203.000000	20.619414
2202.000000	20.529960
2201.000000	20.524965
2200.000000	20.422233
2199.000000	20.512818
2198.000000	20.496631
2197.000000	20.479600
2196.000000	20.398412
2195.000000	20.390900
2194.000000	20.270528
2193.000000	20.210541
2192.000000	20.205271
2191.000000	20.229174
2190.000000	20.242871
2189.000000	20.250528
2188.000000	19.993587
2187.000000	19.943488
2186.000000	19.926789
2185.000000	20.070585
2184.000000	20.014221
2183.000000	20.305501
2182.000000	20.303362
2181.000000	20.065059
2180.000000	20.072156
2179.000000	20.175306
2178.000000	19.947995
2177.000000	20.006612
2176.000000	19.929442
2175.000000	19.997059
2174.000000	20.033576
2173.000000	19.912365
2172.000000	20.012245
2171.000000	20.168568
2170.000000	20.270929
2169.000000	20.187184
2168.000000	20.316860
2167.000000	20.298493
2166.000000	20.236395
2165.000000	20.290796
2164.000000	20.406413
2163.000000	20.580175
2162.000000	20.729240
2161.000000	20.685336
2160.000000	20.799553
2159.000000	20.890450
2158.000000	20.927188
2157.000000	21.020199
2156.000000	21.152298
2155.000000	21.132289
2154.000000	21.299549
2153.000000	21.483719
2152.000000	21.452095
2151.000000	21.443417
2150.000000	21.438047
2149.000000	21.394574
2148.000000	21.619856
2147.000000	21.729508
2146.000000	21.705151
2145.000000	21.901767
2144.000000	21.947169
2143.000000	21.869845
2142.000000	21.991973
2141.000000	22.129988
2140.000000	22.246772
2139.000000	22.206951
2138.000000	22.411805
2137.000000	22.473992
2136.000000	22.018180
2135.000000	22.317332
2134.000000	22.561439
2133.000000	22.392338
2132.000000	22.590781
2131.000000	22.738203
2130.000000	22.775410
2129.000000	22.726656
2128.000000	22.687759
2127.000000	22.691766
2126.000000	22.583667
2125.000000	22.788465
2124.000000	22.831504
2123.000000	22.875502
2122.000000	22.811607
2121.000000	22.832210
2120.000000	22.829792
2119.000000	23.016728
2118.000000	23.030555
2117.000000	23.122796
2116.000000	23.070247
2115.000000	23.104014
2114.000000	22.959997
2113.000000	22.984438
2112.000000	23.151052
2111.000000	23.091756
2110.000000	22.981712
2109.000000	23.043294
2108.000000	22.947341
2107.000000	23.113306
2106.000000	23.072715
2105.000000	23.134488
2104.000000	23.092432
2103.000000	23.049857
2102.000000	23.077605
2101.000000	23.182932
2100.000000	23.262053
2099.000000	23.085905
2098.000000	22.972073
2097.000000	23.051504
2096.000000	23.042162
2095.000000	23.043403
2094.000000	23.106115
2093.000000	23.108459
2092.000000	22.990714
2091.000000	23.119349
2090.000000	23.061525
2089.000000	23.129592
2088.000000	23.074550
2087.000000	23.132655
2086.000000	23.073351
2085.000000	23.084445
2084.000000	22.980686
2083.000000	22.896191
2082.000000	22.833535
2081.000000	22.900580
2080.000000	22.863825
2079.000000	22.749493
2078.000000	22.653644
2077.000000	22.722552
2076.000000	22.625665
2075.000000	22.610117
2074.000000	22.526960
2073.000000	22.354827
2072.000000	22.323836
2071.000000	22.342702
2070.000000	22.286865
2069.000000	22.262443
2068.000000	22.074094
2067.000000	21.970117
2066.000000	21.892690
2065.000000	21.888600
2064.000000	21.794400
2063.000000	21.721272
2062.000000	21.600967
2061.000000	21.533581
2060.000000	21.508832
2059.000000	21.441274
2058.000000	21.391678
2057.000000	21.267262
2056.000000	21.192968
2055.000000	21.196252
2054.000000	21.019427
2053.000000	20.933130
2052.000000	20.906323
2051.000000	20.811481
2050.000000	20.687796
2049.000000	20.692466
2048.000000	20.689244
2047.000000	20.682718
2046.000000	20.560045
2045.000000	20.494382
2044.000000	20.522022
2043.000000	20.495304
2042.000000	20.461887
2041.000000	20.533254
2040.000000	20.531949
2039.000000	20.499481
2038.000000	20.515062
2037.000000	20.551154
2036.000000	20.617727
2035.000000	20.689875
2034.000000	20.709946
2033.000000	20.731108
2032.000000	20.792271
2031.000000	20.837419
2030.000000	20.877207
2029.000000	20.954565
2028.000000	21.024674
2027.000000	21.036017
2026.000000	21.100141
2025.000000	21.147017
2024.000000	21.085636
2023.000000	21.091590
2022.000000	21.135234
2021.000000	21.127326
2020.000000	21.193405
2019.000000	21.167442
2018.000000	21.110292
2017.000000	21.149277
2016.000000	21.159528
2015.000000	21.145531
2014.000000	21.124526
2013.000000	21.109452
2012.000000	21.084220
2011.000000	21.091659
2010.000000	21.047387
2009.000000	20.973482
2008.000000	20.928595
2007.000000	20.903858
2006.000000	20.844674
2005.000000	20.790070
2004.000000	20.726735
2003.000000	20.673655
2002.000000	20.649700
2001.000000	20.602335
2000.000000	20.530710
1999.000000	20.478359
1998.000000	20.410796
1997.000000	20.367988
1996.000000	20.297224
1995.000000	20.256131
1994.000000	20.198813
1993.000000	20.124261
1992.000000	20.059524
1991.000000	19.988739
1990.000000	19.965943
1989.000000	19.906057
1988.000000	19.856588
1987.000000	19.832693
1986.000000	19.761686
1985.000000	19.669471
1984.000000	19.605228
1983.000000	19.574505
1982.000000	19.519551
1981.000000	19.498063
1980.000000	19.388079
1979.000000	19.369535
1978.000000	19.295836
1977.000000	19.269513
1976.000000	19.209213
1975.000000	19.207514
1974.000000	19.123499
1973.000000	19.055868
1972.000000	19.025551
1971.000000	18.969389
1970.000000	18.926942
1969.000000	18.893362
1968.000000	18.816067
1967.000000	18.808766
1966.000000	18.793863
1965.000000	18.744967
1964.000000	18.721989
1963.000000	18.666555
1962.000000	18.601846
1961.000000	18.564713
1960.000000	18.464717
1959.000000	18.469046
1958.000000	18.412673
1957.000000	18.411991
1956.000000	18.446463
1955.000000	18.396966
1954.000000	18.371024
1953.000000	18.336227
1952.000000	18.347522
1951.000000	18.351181
1950.000000	18.254079
1949.000000	18.285659
1948.000000	18.247943
1947.000000	18.226898
1946.000000	18.263496
1945.000000	18.230498
1944.000000	18.305838
1943.000000	18.388975
1942.000000	18.348680
1941.000000	18.351642
1940.000000	18.382364
1939.000000	18.433316
1938.000000	18.373329
1937.000000	18.564520
1936.000000	18.557557
1935.000000	18.615412
1934.000000	18.643340
1933.000000	18.756180
1932.000000	18.720953
1931.000000	18.894131
1930.000000	19.013386
1929.000000	19.077249
1928.000000	19.240779
1927.000000	19.293549
1926.000000	19.378706
1925.000000	19.443039
1924.000000	19.640987
1923.000000	19.670549
1922.000000	19.883489
1921.000000	20.077506
1920.000000	20.138729
1919.000000	20.175202
1918.000000	20.430153
1917.000000	20.598810
1916.000000	20.728345
1915.000000	20.975433
1914.000000	21.169223
1913.000000	21.450141
1912.000000	21.705135
1911.000000	21.866658
1910.000000	22.132164
1909.000000	22.286578
1908.000000	22.475768
1907.000000	22.735678
1906.000000	23.054002
1905.000000	23.350478
1904.000000	23.609142
1903.000000	23.949801
1902.000000	24.223739
1901.000000	24.582598
1900.000000	24.996437
1899.000000	25.237886
1898.000000	25.570511
1897.000000	25.966650
1896.000000	26.226645
1895.000000	26.653443
1894.000000	26.920149
1893.000000	27.272010
1892.000000	27.600404
1891.000000	27.947879
1890.000000	28.341804
1889.000000	28.684843
1888.000000	28.969485
1887.000000	29.252761
1886.000000	29.596450
1885.000000	29.955593
1884.000000	30.267540
1883.000000	30.573223
1882.000000	30.842290
1881.000000	31.111268
1880.000000	31.364727
1879.000000	31.692605
1878.000000	31.915772
1877.000000	32.149045
1876.000000	32.436335
1875.000000	32.680642
1874.000000	32.935276
1873.000000	33.105633
1872.000000	33.320924
1871.000000	33.541818
1870.000000	33.702136
1869.000000	33.862076
1868.000000	33.988885
1867.000000	34.081462
1866.000000	34.244630
1865.000000	34.314070
1864.000000	34.425075
1863.000000	34.510610
1862.000000	34.573096
1861.000000	34.661705
1860.000000	34.729527
1859.000000	34.785225
1858.000000	34.864752
1857.000000	34.916471
1856.000000	34.994789
1855.000000	35.055959
1854.000000	35.074474
1853.000000	35.071973
1852.000000	35.104137
1851.000000	35.117662
1850.000000	35.124239
1849.000000	35.128699
1848.000000	35.120786
1847.000000	35.115889
1846.000000	35.137910
1845.000000	35.150446
1844.000000	35.150892
1843.000000	35.131723
1842.000000	35.055438
1841.000000	35.055690
1840.000000	35.050093
1839.000000	35.041315
1838.000000	35.034968
1837.000000	34.984925
1836.000000	34.942476
1835.000000	34.908537
1834.000000	34.838491
1833.000000	34.828490
1832.000000	34.792970
1831.000000	34.750324
1830.000000	34.721993
1829.000000	34.655827
1828.000000	34.636793
1827.000000	34.620828
1826.000000	34.588214
1825.000000	34.544339
1824.000000	34.511012
1823.000000	34.474790
1822.000000	34.445097
1821.000000	34.398421
1820.000000	34.364475
1819.000000	34.348742
1818.000000	34.327464
1817.000000	34.309783
1816.000000	34.292502
1815.000000	34.255649
1814.000000	34.221033
1813.000000	34.195057
1812.000000	34.167894
1811.000000	34.130217
1810.000000	34.073473
1809.000000	34.058080
1808.000000	34.018169
1807.000000	33.991494
1806.000000	33.984022
1805.000000	33.936023
1804.000000	33.890241
1803.000000	33.881042
1802.000000	33.863404
1801.000000	33.823883
1800.000000	33.787919
1799.000000	33.759005
1798.000000	33.748099
1797.000000	33.738352
1796.000000	33.742184
1795.000000	33.726654
1794.000000	33.699519
1793.000000	33.667087
1792.000000	33.663559
1791.000000	33.651485
1790.000000	33.648495
1789.000000	33.629324
1788.000000	33.628339
1787.000000	33.627737
1786.000000	33.611051
1785.000000	33.589415
1784.000000	33.565347
1783.000000	33.548902
1782.000000	33.529526
1781.000000	33.487201
1780.000000	33.457001
1779.000000	33.465374
1778.000000	33.434530
1777.000000	33.393364
1776.000000	33.385226
1775.000000	33.329685
1774.000000	33.309789
1773.000000	33.277612
1772.000000	33.238792
1771.000000	33.197646
1770.000000	33.157135
1769.000000	33.105270
1768.000000	33.069390
1767.000000	33.014610
1766.000000	32.990715
1765.000000	32.942931
1764.000000	32.922589
1763.000000	32.880429
1762.000000	32.847559
1761.000000	32.816930
1760.000000	32.782724
1759.000000	32.735640
1758.000000	32.738215
1757.000000	32.695196
1756.000000	32.627524
1755.000000	32.591368
1754.000000	32.558319
1753.000000	32.506548
1752.000000	32.468737
1751.000000	32.431359
1750.000000	32.400356
1749.000000	32.389837
1748.000000	32.331721
1747.000000	32.291298
1746.000000	32.281738
1745.000000	32.210233
1744.000000	32.150541
1743.000000	32.112826
1742.000000	32.071692
1741.000000	32.073389
1740.000000	32.032426
1739.000000	31.996648
1738.000000	31.979253
1737.000000	31.907847
1736.000000	31.930201
1735.000000	31.907253
1734.000000	31.933305
1733.000000	31.915890
1732.000000	31.919202
1731.000000	31.925103
1730.000000	31.929892
1729.000000	31.991028
1728.000000	31.997044
1727.000000	32.027923
1726.000000	32.083547
1725.000000	32.126909
1724.000000	32.202619
1723.000000	32.289546
1722.000000	32.344580
1721.000000	32.405029
1720.000000	32.511428
1719.000000	32.587394
1718.000000	32.679833
1717.000000	32.721871
1716.000000	32.808819
1715.000000	32.883096
1714.000000	32.988220
1713.000000	33.069941
1712.000000	33.103747
1711.000000	33.161012
1710.000000	33.234720
1709.000000	33.278474
1708.000000	33.315673
1707.000000	33.334887
1706.000000	33.368219
1705.000000	33.399950
1704.000000	33.448108
1703.000000	33.465976
1702.000000	33.440290
1701.000000	33.452833
1700.000000	33.479467
1699.000000	33.466170
1698.000000	33.509660
1697.000000	33.521978
1696.000000	33.582646
1695.000000	33.542708
1694.000000	33.606119
1693.000000	33.647856
1692.000000	33.686872
1691.000000	33.757456
1690.000000	33.793847
1689.000000	33.866061
1688.000000	33.961851
1687.000000	34.032890
1686.000000	34.105100
1685.000000	34.247896
1684.000000	34.367317
1683.000000	34.482567
1682.000000	34.610760
1681.000000	34.763346
1680.000000	34.891567
1679.000000	35.030236
1678.000000	35.204215
1677.000000	35.310908
1676.000000	35.485410
1675.000000	35.635389
1674.000000	35.784621
1673.000000	35.949515
1672.000000	36.077194
1671.000000	36.232688
1670.000000	36.347758
1669.000000	36.503041
1668.000000	36.593168
1667.000000	36.749597
1666.000000	36.817257
1665.000000	36.910530
1664.000000	37.011208
1663.000000	37.087145
1662.000000	37.166714
1661.000000	37.223368
1660.000000	37.304136
1659.000000	37.350748
1658.000000	37.391049
1657.000000	37.424768
1656.000000	37.467398
1655.000000	37.507112
1654.000000	37.520318
1653.000000	37.556184
1652.000000	37.563551
1651.000000	37.572148
1650.000000	37.573210
1649.000000	37.560042
1648.000000	37.559343
1647.000000	37.551437
1646.000000	37.541746
1645.000000	37.496127
1644.000000	37.507721
1643.000000	37.466403
1642.000000	37.447248
1641.000000	37.427732
1640.000000	37.379821
1639.000000	37.360893
1638.000000	37.342841
1637.000000	37.300402
1636.000000	37.251583
1635.000000	37.222752
1634.000000	37.166091
1633.000000	37.110184
1632.000000	37.081696
1631.000000	37.071057
1630.000000	37.009323
1629.000000	36.936064
1628.000000	36.908825
1627.000000	36.861922
1626.000000	36.816101
1625.000000	36.778480
1624.000000	36.747621
1623.000000	36.681395
1622.000000	36.647217
1621.000000	36.589803
1620.000000	36.534778
1619.000000	36.483959
1618.000000	36.420933
1617.000000	36.379253
1616.000000	36.336256
1615.000000	36.276890
1614.000000	36.212072
1613.000000	36.150432
1612.000000	36.095385
1611.000000	36.042069
1610.000000	35.981421
1609.000000	35.926191
1608.000000	35.876942
1607.000000	35.807446
1606.000000	35.740550
1605.000000	35.698213
1604.000000	35.633999
1603.000000	35.548978
1602.000000	35.495727
1601.000000	35.443738
1600.000000	35.405461
1599.000000	35.358964
1598.000000	35.292569
1597.000000	35.234198
1596.000000	35.173709
1595.000000	35.124585
1594.000000	35.070703
1593.000000	35.015525
1592.000000	34.979794
1591.000000	34.920140
1590.000000	34.867151
1589.000000	34.825833
1588.000000	34.759429
1587.000000	34.726194
1586.000000	34.706302
1585.000000	34.668304
1584.000000	34.603583
1583.000000	34.547599
1582.000000	34.513540
1581.000000	34.459704
1580.000000	34.432770
1579.000000	34.388173
1578.000000	34.335424
1577.000000	34.292602
1576.000000	34.265666
1575.000000	34.214746
1574.000000	34.150615
1573.000000	34.118146
1572.000000	34.085594
1571.000000	34.053311
1570.000000	34.008811
1569.000000	33.962174
1568.000000	33.928246
1567.000000	33.883325
1566.000000	33.863248
1565.000000	33.842343
1564.000000	33.808779
1563.000000	33.789475
1562.000000	33.751050
1561.000000	33.721424
1560.000000	33.707266
1559.000000	33.675198
1558.000000	33.649320
1557.000000	33.634234
1556.000000	33.618784
1555.000000	33.587993
1554.000000	33.557129
1553.000000	33.522235
1552.000000	33.504208
1551.000000	33.475037
1550.000000	33.444451
1549.000000	33.403246
1548.000000	33.366119
1547.000000	33.311108
1546.000000	33.267332
1545.000000	33.223020
1544.000000	33.146669
1543.000000	33.091372
1542.000000	33.032281
1541.000000	32.945870
1540.000000	32.891776
1539.000000	32.826220
1538.000000	32.751217
1537.000000	32.679159
1536.000000	32.602321
1535.000000	32.545447
1534.000000	32.457152
1533.000000	32.394066
1532.000000	32.317891
1531.000000	32.263309
1530.000000	32.216349
1529.000000	32.148234
1528.000000	32.090569
1527.000000	32.029731
1526.000000	31.979417
1525.000000	31.927143
1524.000000	31.868982
1523.000000	31.839480
1522.000000	31.801351
1521.000000	31.759310
1520.000000	31.700772
1519.000000	31.693504
1518.000000	31.675945
1517.000000	31.635292
1516.000000	31.615410
1515.000000	31.579842
1514.000000	31.570395
1513.000000	31.551870
1512.000000	31.526410
1511.000000	31.508259
1510.000000	31.478813
1509.000000	31.474025
1508.000000	31.441976
1507.000000	31.409687
1506.000000	31.419282
1505.000000	31.417899
1504.000000	31.410186
1503.000000	31.384786
1502.000000	31.379129
1501.000000	31.387985
1500.000000	31.364149
1499.000000	31.363807
1498.000000	31.358163
1497.000000	31.351156
1496.000000	31.364176
1495.000000	31.377325
1494.000000	31.366310
1493.000000	31.372914
1492.000000	31.390708
1491.000000	31.404002
1490.000000	31.427103
1489.000000	31.432025
1488.000000	31.439840
1487.000000	31.441432
1486.000000	31.472141
1485.000000	31.482822
1484.000000	31.515039
1483.000000	31.530937
1482.000000	31.540668
1481.000000	31.597229
1480.000000	31.614111
1479.000000	31.641822
1478.000000	31.649206
1477.000000	31.665224
1476.000000	31.689467
1475.000000	31.714809
1474.000000	31.753201
1473.000000	31.767919
1472.000000	31.798059
1471.000000	31.807157
1470.000000	31.848722
