PE UV       SUBTECH     SPECTRUM    ASCII       PEDS        4.00        
   -1
RDgVeauAl 32.Sample.asc
18/03/12
12:34:45.00
18/03/12
12:34:45.00
Administrator

200.000000
1
Lambda 750
750N8071901
PerkinElmer UV WinLab 6.0.4.0738 / 1.61.00 Lambda 900

0
0
3350/servo 860.8/2
0
0
UV/VIS
1
1
1
CommonBeamDepol,150mm sphere / downward view
0
0
0
0
Program
Program
3350/servo 860.8/2
3350/0.2 860.8/0.2
3350/0.2 860.8/0.2
0
1
 
 
 
0
 
860.8
319.2
860.8
Front
100
on
 
 
0
0
0
 
0
 
 
 
0
 
 
0
0
0
0
0
 
 
 
 
0
0


0
0
#HDR
-1
-1
#GR
nm
%R
1.0
0.0
2350.000000
-1.000000
2151
8
61.235507
9.890086
#DATA
2350.000000	19.547983
2349.000000	19.617099
2348.000000	19.271815
2347.000000	20.034280
2346.000000	20.296424
2345.000000	19.734496
2344.000000	19.939074
2343.000000	19.352569
2342.000000	19.762949
2341.000000	20.011992
2340.000000	19.821406
2339.000000	19.803592
2338.000000	19.933287
2337.000000	20.156126
2336.000000	20.453417
2335.000000	20.264591
2334.000000	20.541539
2333.000000	20.814033
2332.000000	20.612865
2331.000000	20.619443
2330.000000	20.402360
2329.000000	20.447730
2328.000000	20.538524
2327.000000	20.281828
2326.000000	20.401742
2325.000000	20.689770
2324.000000	20.550891
2323.000000	20.412331
2322.000000	20.082648
2321.000000	20.023632
2320.000000	20.461196
2319.000000	20.163860
2318.000000	20.252385
2317.000000	20.333061
2316.000000	19.992221
2315.000000	20.025917
2314.000000	20.026345
2313.000000	19.947275
2312.000000	19.790215
2311.000000	19.702144
2310.000000	19.615501
2309.000000	20.002753
2308.000000	19.647090
2307.000000	19.517876
2306.000000	19.378206
2305.000000	19.430859
2304.000000	19.466233
2303.000000	19.472560
2302.000000	19.418092
2301.000000	19.235711
2300.000000	18.934783
2299.000000	19.005867
2298.000000	18.890284
2297.000000	18.716551
2296.000000	18.986020
2295.000000	18.827599
2294.000000	18.648478
2293.000000	18.617201
2292.000000	18.610760
2291.000000	18.636316
2290.000000	18.699833
2289.000000	18.591445
2288.000000	18.583426
2287.000000	18.523528
2286.000000	18.524794
2285.000000	18.428348
2284.000000	18.335381
2283.000000	18.030578
2282.000000	17.990854
2281.000000	18.133593
2280.000000	18.270339
2279.000000	18.287572
2278.000000	18.294230
2277.000000	18.414889
2276.000000	18.585680
2275.000000	18.525095
2274.000000	18.374779
2273.000000	18.522191
2272.000000	18.722370
2271.000000	18.663996
2270.000000	18.628265
2269.000000	18.820213
2268.000000	18.856510
2267.000000	18.942917
2266.000000	18.949365
2265.000000	18.844479
2264.000000	19.077600
2263.000000	19.140181
2262.000000	19.186456
2261.000000	19.414261
2260.000000	19.726323
2259.000000	19.852203
2258.000000	19.883230
2257.000000	20.136790
2256.000000	20.231035
2255.000000	20.260472
2254.000000	20.506655
2253.000000	20.756219
2252.000000	20.971706
2251.000000	21.130572
2250.000000	21.174021
2249.000000	21.340580
2248.000000	21.488624
2247.000000	21.703788
2246.000000	22.004278
2245.000000	22.136166
2244.000000	22.253914
2243.000000	22.492400
2242.000000	22.666667
2241.000000	22.736405
2240.000000	22.880141
2239.000000	23.065321
2238.000000	23.212124
2237.000000	23.187598
2236.000000	23.339555
2235.000000	23.465126
2234.000000	23.498413
2233.000000	23.423311
2232.000000	23.389936
2231.000000	23.611681
2230.000000	23.747625
2229.000000	23.684312
2228.000000	23.766224
2227.000000	23.846751
2226.000000	23.851568
2225.000000	23.861581
2224.000000	23.761375
2223.000000	23.605402
2222.000000	23.684737
2221.000000	23.739741
2220.000000	23.737051
2219.000000	23.644114
2218.000000	23.466596
2217.000000	23.456394
2216.000000	23.598424
2215.000000	23.544631
2214.000000	23.494989
2213.000000	23.579327
2212.000000	23.360500
2211.000000	23.198526
2210.000000	23.393657
2209.000000	23.281109
2208.000000	23.175580
2207.000000	23.120349
2206.000000	22.920718
2205.000000	22.792008
2204.000000	22.805149
2203.000000	22.577507
2202.000000	22.482687
2201.000000	22.447113
2200.000000	22.484810
2199.000000	22.465550
2198.000000	22.465836
2197.000000	22.388419
2196.000000	22.204634
2195.000000	22.197021
2194.000000	22.143071
2193.000000	21.950292
2192.000000	21.959523
2191.000000	21.918894
2190.000000	21.869921
2189.000000	21.716414
2188.000000	21.760183
2187.000000	21.808411
2186.000000	21.713166
2185.000000	21.464464
2184.000000	21.589632
2183.000000	21.798201
2182.000000	21.598829
2181.000000	21.385390
2180.000000	21.473519
2179.000000	21.405674
2178.000000	21.263120
2177.000000	21.458492
2176.000000	21.385946
2175.000000	21.521594
2174.000000	21.440548
2173.000000	21.352817
2172.000000	21.504979
2171.000000	21.530936
2170.000000	21.615506
2169.000000	21.623796
2168.000000	21.834518
2167.000000	21.936277
2166.000000	21.912508
2165.000000	22.043121
2164.000000	22.263481
2163.000000	22.073068
2162.000000	22.182151
2161.000000	22.108184
2160.000000	22.459144
2159.000000	22.716492
2158.000000	22.580768
2157.000000	22.773279
2156.000000	22.980338
2155.000000	22.968897
2154.000000	23.073607
2153.000000	23.289548
2152.000000	23.433685
2151.000000	23.454942
2150.000000	23.527986
2149.000000	23.574701
2148.000000	23.982288
2147.000000	24.024647
2146.000000	23.994591
2145.000000	24.260313
2144.000000	24.515651
2143.000000	24.429604
2142.000000	24.482767
2141.000000	24.763724
2140.000000	24.765817
2139.000000	24.934867
2138.000000	25.219408
2137.000000	25.197650
2136.000000	25.197308
2135.000000	25.223962
2134.000000	25.523656
2133.000000	25.116472
2132.000000	25.556538
2131.000000	25.692534
2130.000000	25.791548
2129.000000	25.691623
2128.000000	25.763114
2127.000000	25.839757
2126.000000	25.847026
2125.000000	25.762468
2124.000000	26.106943
2123.000000	26.065667
2122.000000	26.230038
2121.000000	26.236821
2120.000000	26.115840
2119.000000	26.173494
2118.000000	26.336391
2117.000000	26.341047
2116.000000	26.270411
2115.000000	26.308131
2114.000000	26.374225
2113.000000	26.352032
2112.000000	26.484308
2111.000000	26.610940
2110.000000	26.410243
2109.000000	26.440036
2108.000000	26.458862
2107.000000	26.663959
2106.000000	26.664215
2105.000000	26.593471
2104.000000	26.668632
2103.000000	26.532311
2102.000000	26.576091
2101.000000	26.644287
2100.000000	26.687901
2099.000000	26.848963
2098.000000	26.590848
2097.000000	26.635778
2096.000000	26.683187
2095.000000	26.638993
2094.000000	26.653142
2093.000000	26.512920
2092.000000	26.568594
2091.000000	26.637152
2090.000000	26.560350
2089.000000	26.632383
2088.000000	26.568430
2087.000000	26.674238
2086.000000	26.636062
2085.000000	26.563029
2084.000000	26.448257
2083.000000	26.364100
2082.000000	26.234051
2081.000000	26.167179
2080.000000	26.183138
2079.000000	26.139537
2078.000000	26.013806
2077.000000	25.962293
2076.000000	25.808463
2075.000000	25.665756
2074.000000	25.575773
2073.000000	25.525546
2072.000000	25.401553
2071.000000	25.325148
2070.000000	25.148395
2069.000000	25.039624
2068.000000	24.857548
2067.000000	24.781657
2066.000000	24.603479
2065.000000	24.487707
2064.000000	24.323053
2063.000000	24.210594
2062.000000	24.056473
2061.000000	23.807526
2060.000000	23.601549
2059.000000	23.550863
2058.000000	23.413714
2057.000000	23.275155
2056.000000	23.080332
2055.000000	22.995395
2054.000000	22.887946
2053.000000	22.747779
2052.000000	22.556644
2051.000000	22.412698
2050.000000	22.427278
2049.000000	22.281545
2048.000000	22.181650
2047.000000	22.192487
2046.000000	22.074588
2045.000000	21.996869
2044.000000	21.911461
2043.000000	21.855147
2042.000000	21.904566
2041.000000	21.947077
2040.000000	21.960841
2039.000000	21.984409
2038.000000	22.052769
2037.000000	22.087974
2036.000000	22.121329
2035.000000	22.198142
2034.000000	22.325498
2033.000000	22.447802
2032.000000	22.542140
2031.000000	22.600434
2030.000000	22.706415
2029.000000	22.851486
2028.000000	22.983673
2027.000000	23.088221
2026.000000	23.171134
2025.000000	23.236585
2024.000000	23.289853
2023.000000	23.310928
2022.000000	23.323352
2021.000000	23.361040
2020.000000	23.443650
2019.000000	23.482710
2018.000000	23.483826
2017.000000	23.466685
2016.000000	23.433060
2015.000000	23.416597
2014.000000	23.439405
2013.000000	23.416730
2012.000000	23.398142
2011.000000	23.389085
2010.000000	23.331502
2009.000000	23.268294
2008.000000	23.167908
2007.000000	23.073895
2006.000000	22.984436
2005.000000	22.948827
2004.000000	22.850825
2003.000000	22.756001
2002.000000	22.684949
2001.000000	22.545997
2000.000000	22.422819
1999.000000	22.309405
1998.000000	22.241031
1997.000000	22.140710
1996.000000	22.065770
1995.000000	22.017370
1994.000000	21.852213
1993.000000	21.676411
1992.000000	21.565041
1991.000000	21.488803
1990.000000	21.410873
1989.000000	21.257567
1988.000000	21.121615
1987.000000	21.057317
1986.000000	21.007032
1985.000000	20.891938
1984.000000	20.775155
1983.000000	20.670526
1982.000000	20.608902
1981.000000	20.473675
1980.000000	20.351956
1979.000000	20.255075
1978.000000	20.131829
1977.000000	20.067366
1976.000000	19.936967
1975.000000	19.852165
1974.000000	19.740029
1973.000000	19.695427
1972.000000	19.612348
1971.000000	19.481585
1970.000000	19.402551
1969.000000	19.342823
1968.000000	19.271138
1967.000000	19.134607
1966.000000	19.066323
1965.000000	19.012172
1964.000000	18.842516
1963.000000	18.797839
1962.000000	18.708388
1961.000000	18.576562
1960.000000	18.568730
1959.000000	18.500744
1958.000000	18.431202
1957.000000	18.388698
1956.000000	18.285765
1955.000000	18.195680
1954.000000	18.216853
1953.000000	18.128723
1952.000000	18.066415
1951.000000	18.025009
1950.000000	17.954346
1949.000000	17.898230
1948.000000	17.903631
1947.000000	17.924575
1946.000000	17.850168
1945.000000	17.847245
1944.000000	17.885970
1943.000000	17.930599
1942.000000	17.878253
1941.000000	17.908398
1940.000000	17.932970
1939.000000	18.021408
1938.000000	18.059373
1937.000000	18.122647
1936.000000	18.242611
1935.000000	18.322059
1934.000000	18.390730
1933.000000	18.456725
1932.000000	18.511358
1931.000000	18.572381
1930.000000	18.840865
1929.000000	18.977688
1928.000000	19.027611
1927.000000	19.291528
1926.000000	19.429080
1925.000000	19.663174
1924.000000	19.829341
1923.000000	20.106540
1922.000000	20.272902
1921.000000	20.583276
1920.000000	20.759173
1919.000000	21.062932
1918.000000	21.358085
1917.000000	21.711763
1916.000000	21.888406
1915.000000	22.322931
1914.000000	22.772684
1913.000000	23.058513
1912.000000	23.443360
1911.000000	23.741662
1910.000000	24.148685
1909.000000	24.505732
1908.000000	25.081717
1907.000000	25.563415
1906.000000	25.957994
1905.000000	26.495822
1904.000000	27.019141
1903.000000	27.462083
1902.000000	28.049795
1901.000000	28.599439
1900.000000	29.091291
1899.000000	29.718400
1898.000000	30.342428
1897.000000	30.820292
1896.000000	31.359259
1895.000000	32.014193
1894.000000	32.527966
1893.000000	33.136534
1892.000000	33.694307
1891.000000	34.196456
1890.000000	34.742464
1889.000000	35.293195
1888.000000	35.860208
1887.000000	36.338438
1886.000000	36.822117
1885.000000	37.275905
1884.000000	37.818015
1883.000000	38.337549
1882.000000	38.809542
1881.000000	39.202840
1880.000000	39.592124
1879.000000	40.030937
1878.000000	40.439215
1877.000000	40.789207
1876.000000	41.136391
1875.000000	41.552111
1874.000000	41.891558
1873.000000	42.161125
1872.000000	42.437963
1871.000000	42.671177
1870.000000	42.905697
1869.000000	43.178974
1868.000000	43.371167
1867.000000	43.536527
1866.000000	43.733654
1865.000000	43.927548
1864.000000	43.994531
1863.000000	44.123660
1862.000000	44.237430
1861.000000	44.326539
1860.000000	44.420257
1859.000000	44.515794
1858.000000	44.584358
1857.000000	44.697647
1856.000000	44.762158
1855.000000	44.813295
1854.000000	44.865967
1853.000000	44.879096
1852.000000	44.903496
1851.000000	44.939263
1850.000000	44.980680
1849.000000	44.984145
1848.000000	45.022594
1847.000000	45.028331
1846.000000	45.010601
1845.000000	44.957346
1844.000000	44.973095
1843.000000	44.924046
1842.000000	44.926596
1841.000000	44.921499
1840.000000	44.842001
1839.000000	44.824258
1838.000000	44.837581
1837.000000	44.744691
1836.000000	44.678960
1835.000000	44.635471
1834.000000	44.591296
1833.000000	44.579720
1832.000000	44.518884
1831.000000	44.426791
1830.000000	44.356840
1829.000000	44.314055
1828.000000	44.278135
1827.000000	44.241101
1826.000000	44.203247
1825.000000	44.165749
1824.000000	44.123319
1823.000000	44.077972
1822.000000	44.019750
1821.000000	43.989375
1820.000000	43.974570
1819.000000	43.921723
1818.000000	43.860766
1817.000000	43.835232
1816.000000	43.809083
1815.000000	43.768699
1814.000000	43.712437
1813.000000	43.641095
1812.000000	43.618336
1811.000000	43.601160
1810.000000	43.539705
1809.000000	43.492016
1808.000000	43.447183
1807.000000	43.384747
1806.000000	43.337305
1805.000000	43.299116
1804.000000	43.244429
1803.000000	43.207085
1802.000000	43.190477
1801.000000	43.164007
1800.000000	43.098442
1799.000000	43.052918
1798.000000	43.026577
1797.000000	43.015479
1796.000000	42.974006
1795.000000	42.955144
1794.000000	42.955817
1793.000000	42.925650
1792.000000	42.881770
1791.000000	42.842459
1790.000000	42.806611
1789.000000	42.772502
1788.000000	42.758080
1787.000000	42.748986
1786.000000	42.710357
1785.000000	42.659603
1784.000000	42.650062
1783.000000	42.623280
1782.000000	42.568725
1781.000000	42.521360
1780.000000	42.474052
1779.000000	42.450812
1778.000000	42.382753
1777.000000	42.305673
1776.000000	42.255121
1775.000000	42.181090
1774.000000	42.130752
1773.000000	42.082465
1772.000000	41.999015
1771.000000	41.957966
1770.000000	41.887743
1769.000000	41.814654
1768.000000	41.741091
1767.000000	41.677206
1766.000000	41.650874
1765.000000	41.586153
1764.000000	41.539088
1763.000000	41.456280
1762.000000	41.406901
1761.000000	41.328050
1760.000000	41.293990
1759.000000	41.266478
1758.000000	41.195129
1757.000000	41.119029
1756.000000	41.085476
1755.000000	41.063273
1754.000000	40.964879
1753.000000	40.912439
1752.000000	40.854754
1751.000000	40.806284
1750.000000	40.762085
1749.000000	40.710628
1748.000000	40.634169
1747.000000	40.576218
1746.000000	40.481058
1745.000000	40.403347
1744.000000	40.332909
1743.000000	40.296497
1742.000000	40.204381
1741.000000	40.157712
1740.000000	40.093965
1739.000000	40.042499
1738.000000	39.989420
1737.000000	39.958766
1736.000000	39.890693
1735.000000	39.908214
1734.000000	39.884423
1733.000000	39.835647
1732.000000	39.822330
1731.000000	39.842879
1730.000000	39.845761
1729.000000	39.908839
1728.000000	39.936220
1727.000000	39.995702
1726.000000	40.068920
1725.000000	40.135098
1724.000000	40.243722
1723.000000	40.293996
1722.000000	40.418695
1721.000000	40.514618
1720.000000	40.671451
1719.000000	40.794757
1718.000000	40.894527
1717.000000	41.047495
1716.000000	41.152918
1715.000000	41.279447
1714.000000	41.382081
1713.000000	41.513762
1712.000000	41.597980
1711.000000	41.719297
1710.000000	41.774933
1709.000000	41.873918
1708.000000	41.934618
1707.000000	42.025353
1706.000000	42.058114
1705.000000	42.127900
1704.000000	42.200643
1703.000000	42.235517
1702.000000	42.190615
1701.000000	42.240632
1700.000000	42.316010
1699.000000	42.326925
1698.000000	42.361505
1697.000000	42.395499
1696.000000	42.460760
1695.000000	42.466216
1694.000000	42.503698
1693.000000	42.576554
1692.000000	42.643937
1691.000000	42.735053
1690.000000	42.836373
1689.000000	42.920878
1688.000000	43.039947
1687.000000	43.159109
1686.000000	43.292653
1685.000000	43.490196
1684.000000	43.630120
1683.000000	43.830089
1682.000000	44.025703
1681.000000	44.251581
1680.000000	44.383106
1679.000000	44.590919
1678.000000	44.813837
1677.000000	44.986817
1676.000000	45.215694
1675.000000	45.400972
1674.000000	45.612255
1673.000000	45.792659
1672.000000	46.009915
1671.000000	46.173204
1670.000000	46.378347
1669.000000	46.601411
1668.000000	46.756447
1667.000000	46.934487
1666.000000	47.031404
1665.000000	47.152429
1664.000000	47.283161
1663.000000	47.350730
1662.000000	47.479548
1661.000000	47.617943
1660.000000	47.656411
1659.000000	47.720899
1658.000000	47.799618
1657.000000	47.875588
1656.000000	47.914270
1655.000000	47.942486
1654.000000	47.959677
1653.000000	47.991561
1652.000000	48.014760
1651.000000	48.043336
1650.000000	48.038733
1649.000000	48.026625
1648.000000	48.013198
1647.000000	48.013195
1646.000000	47.981007
1645.000000	47.971218
1644.000000	47.934643
1643.000000	47.920300
1642.000000	47.908533
1641.000000	47.846523
1640.000000	47.831483
1639.000000	47.780308
1638.000000	47.736445
1637.000000	47.702113
1636.000000	47.621747
1635.000000	47.579673
1634.000000	47.511519
1633.000000	47.459878
1632.000000	47.416461
1631.000000	47.381086
1630.000000	47.324760
1629.000000	47.272922
1628.000000	47.222428
1627.000000	47.156613
1626.000000	47.095118
1625.000000	47.017644
1624.000000	46.964062
1623.000000	46.897159
1622.000000	46.847009
1621.000000	46.772164
1620.000000	46.696887
1619.000000	46.602669
1618.000000	46.536673
1617.000000	46.467364
1616.000000	46.415414
1615.000000	46.354535
1614.000000	46.257353
1613.000000	46.176630
1612.000000	46.108149
1611.000000	46.026278
1610.000000	45.946644
1609.000000	45.872077
1608.000000	45.801056
1607.000000	45.707507
1606.000000	45.620056
1605.000000	45.547036
1604.000000	45.455907
1603.000000	45.381115
1602.000000	45.302064
1601.000000	45.216137
1600.000000	45.146154
1599.000000	45.066302
1598.000000	44.974358
1597.000000	44.891202
1596.000000	44.816474
1595.000000	44.742891
1594.000000	44.671546
1593.000000	44.607492
1592.000000	44.534284
1591.000000	44.454138
1590.000000	44.394637
1589.000000	44.323511
1588.000000	44.261523
1587.000000	44.198704
1586.000000	44.137938
1585.000000	44.081771
1584.000000	44.013537
1583.000000	43.962043
1582.000000	43.889916
1581.000000	43.824628
1580.000000	43.765770
1579.000000	43.710888
1578.000000	43.654808
1577.000000	43.572376
1576.000000	43.523437
1575.000000	43.462893
1574.000000	43.378330
1573.000000	43.309897
1572.000000	43.260674
1571.000000	43.210580
1570.000000	43.143901
1569.000000	43.085345
1568.000000	43.033195
1567.000000	42.976957
1566.000000	42.943137
1565.000000	42.902822
1564.000000	42.854353
1563.000000	42.814223
1562.000000	42.774939
1561.000000	42.747349
1560.000000	42.698042
1559.000000	42.660168
1558.000000	42.622520
1557.000000	42.585567
1556.000000	42.564479
1555.000000	42.534855
1554.000000	42.481948
1553.000000	42.440315
1552.000000	42.397157
1551.000000	42.351358
1550.000000	42.302533
1549.000000	42.263860
1548.000000	42.238264
1547.000000	42.126324
1546.000000	42.046469
1545.000000	41.971234
1544.000000	41.880622
1543.000000	41.791779
1542.000000	41.723112
1541.000000	41.610026
1540.000000	41.485194
1539.000000	41.376966
1538.000000	41.282565
1537.000000	41.174662
1536.000000	41.059982
1535.000000	40.954973
1534.000000	40.851740
1533.000000	40.754914
1532.000000	40.633831
1531.000000	40.540921
1530.000000	40.407728
1529.000000	40.320433
1528.000000	40.248236
1527.000000	40.160998
1526.000000	40.085506
1525.000000	40.009147
1524.000000	39.929236
1523.000000	39.860109
1522.000000	39.791752
1521.000000	39.734266
1520.000000	39.682986
1519.000000	39.623634
1518.000000	39.588228
1517.000000	39.544343
1516.000000	39.506434
1515.000000	39.448800
1514.000000	39.420700
1513.000000	39.396224
1512.000000	39.347913
1511.000000	39.339751
1510.000000	39.291453
1509.000000	39.285385
1508.000000	39.255945
1507.000000	39.217720
1506.000000	39.200153
1505.000000	39.176128
1504.000000	39.182889
1503.000000	39.161471
1502.000000	39.149527
1501.000000	39.115071
1500.000000	39.110027
1499.000000	39.087530
1498.000000	39.100898
1497.000000	39.098885
1496.000000	39.099675
1495.000000	39.103647
1494.000000	39.104065
1493.000000	39.090794
1492.000000	39.099896
1491.000000	39.122002
1490.000000	39.145606
1489.000000	39.164517
1488.000000	39.181122
1487.000000	39.200413
1486.000000	39.224648
1485.000000	39.243722
1484.000000	39.273930
1483.000000	39.324726
1482.000000	39.350797
1481.000000	39.385632
1480.000000	39.423257
1479.000000	39.457782
1478.000000	39.477178
1477.000000	39.522176
1476.000000	39.557841
1475.000000	39.594850
1474.000000	39.620493
1473.000000	39.653806
1472.000000	39.689480
1471.000000	39.721867
1470.000000	39.773694
