PE UV       SUBTECH     SPECTRUM    ASCII       PEDS        4.00        
   -1
RDVeauUK 22.Sample.asc
18/03/12
10:32:38.00
18/03/12
10:32:38.00
Administrator

200.000000
1
Lambda 750
750N8071901
PerkinElmer UV WinLab 6.0.4.0738 / 1.61.00 Lambda 900

0
0
3350/servo 860.8/2
0
0
UV/VIS
1
1
1
CommonBeamDepol,150mm sphere / downward view
0
0
0
0
Program
Program
3350/servo 860.8/2
3350/0.2 860.8/0.2
3350/0.2 860.8/0.2
0
1
 
 
 
0
 
860.8
319.2
860.8
Front
100
on
 
 
0
0
0
 
0
 
 
 
0
 
 
0
0
0
0
0
 
 
 
 
0
0


0
0
#HDR
-1
-1
#GR
nm
%R
1.0
0.0
2350.000000
-1.000000
2151
8
47.736842
12.257323
#DATA
2350.000000	19.635957
2349.000000	20.101215
2348.000000	19.484242
2347.000000	20.255258
2346.000000	20.050379
2345.000000	20.014789
2344.000000	19.692646
2343.000000	19.450098
2342.000000	19.918824
2341.000000	19.729380
2340.000000	20.142806
2339.000000	20.315228
2338.000000	20.182152
2337.000000	19.977143
2336.000000	20.416224
2335.000000	20.724894
2334.000000	20.481827
2333.000000	20.863605
2332.000000	20.843042
2331.000000	20.614712
2330.000000	20.689746
2329.000000	20.659090
2328.000000	20.631000
2327.000000	20.205928
2326.000000	20.236605
2325.000000	20.169996
2324.000000	20.527214
2323.000000	20.375622
2322.000000	20.033635
2321.000000	20.316356
2320.000000	20.331528
2319.000000	20.276693
2318.000000	20.310525
2317.000000	20.331346
2316.000000	20.091228
2315.000000	20.232688
2314.000000	20.197498
2313.000000	19.971058
2312.000000	19.991376
2311.000000	20.029278
2310.000000	20.002003
2309.000000	20.144262
2308.000000	19.942664
2307.000000	19.998950
2306.000000	19.765388
2305.000000	19.788731
2304.000000	19.783641
2303.000000	19.756744
2302.000000	19.877190
2301.000000	19.792973
2300.000000	19.622007
2299.000000	19.606963
2298.000000	19.544953
2297.000000	19.241737
2296.000000	19.340598
2295.000000	19.378194
2294.000000	19.334297
2293.000000	19.321223
2292.000000	19.349642
2291.000000	19.181725
2290.000000	19.102380
2289.000000	19.234538
2288.000000	19.322600
2287.000000	19.409887
2286.000000	19.135843
2285.000000	19.090221
2284.000000	19.152694
2283.000000	19.174427
2282.000000	19.168583
2281.000000	19.061063
2280.000000	19.130822
2279.000000	19.222083
2278.000000	19.267105
2277.000000	19.144430
2276.000000	19.131900
2275.000000	19.092172
2274.000000	19.105013
2273.000000	19.198114
2272.000000	19.257410
2271.000000	19.133154
2270.000000	19.250954
2269.000000	19.356544
2268.000000	19.391030
2267.000000	19.430021
2266.000000	19.556884
2265.000000	19.401337
2264.000000	19.368335
2263.000000	19.510155
2262.000000	19.586935
2261.000000	19.661204
2260.000000	19.810781
2259.000000	19.793564
2258.000000	19.864647
2257.000000	20.130928
2256.000000	20.204053
2255.000000	20.192714
2254.000000	20.183005
2253.000000	20.306778
2252.000000	20.499273
2251.000000	20.641261
2250.000000	20.585260
2249.000000	20.784238
2248.000000	20.946966
2247.000000	20.941905
2246.000000	21.122065
2245.000000	21.118324
2244.000000	21.100979
2243.000000	21.307283
2242.000000	21.421321
2241.000000	21.504595
2240.000000	21.671321
2239.000000	21.646041
2238.000000	21.570530
2237.000000	21.662573
2236.000000	21.632952
2235.000000	21.601866
2234.000000	21.793665
2233.000000	21.866736
2232.000000	21.898957
2231.000000	21.971422
2230.000000	21.973619
2229.000000	21.931744
2228.000000	22.110843
2227.000000	22.107522
2226.000000	22.008036
2225.000000	21.985081
2224.000000	21.875205
2223.000000	21.837906
2222.000000	21.888354
2221.000000	21.926484
2220.000000	21.923562
2219.000000	21.879362
2218.000000	21.941931
2217.000000	22.012158
2216.000000	21.942083
2215.000000	21.996286
2214.000000	21.924415
2213.000000	21.910194
2212.000000	21.947368
2211.000000	21.918510
2210.000000	21.722927
2209.000000	21.621744
2208.000000	21.636410
2207.000000	21.675604
2206.000000	21.609961
2205.000000	21.438054
2204.000000	21.593678
2203.000000	21.368708
2202.000000	21.301166
2201.000000	21.386593
2200.000000	21.379124
2199.000000	21.380463
2198.000000	21.320076
2197.000000	21.300748
2196.000000	21.192008
2195.000000	21.123422
2194.000000	21.042571
2193.000000	21.140184
2192.000000	21.087745
2191.000000	21.054896
2190.000000	21.077647
2189.000000	21.302030
2188.000000	21.055158
2187.000000	20.994498
2186.000000	20.956985
2185.000000	21.007896
2184.000000	20.934470
2183.000000	21.035104
2182.000000	21.033228
2181.000000	20.938864
2180.000000	20.891955
2179.000000	21.027339
2178.000000	20.921494
2177.000000	20.908884
2176.000000	20.885431
2175.000000	20.991220
2174.000000	21.012646
2173.000000	21.034327
2172.000000	21.076915
2171.000000	21.114548
2170.000000	21.078843
2169.000000	21.003436
2168.000000	21.099561
2167.000000	21.164066
2166.000000	21.297649
2165.000000	21.229013
2164.000000	21.167697
2163.000000	21.387539
2162.000000	21.594794
2161.000000	21.594459
2160.000000	21.665606
2159.000000	21.758810
2158.000000	21.765743
2157.000000	21.770773
2156.000000	22.007628
2155.000000	22.098639
2154.000000	22.128488
2153.000000	22.200905
2152.000000	22.207641
2151.000000	22.220805
2150.000000	22.397482
2149.000000	22.389766
2148.000000	22.339914
2147.000000	22.603382
2146.000000	22.695367
2145.000000	22.815246
2144.000000	22.936477
2143.000000	22.867831
2142.000000	22.836601
2141.000000	22.896416
2140.000000	23.078654
2139.000000	23.113646
2138.000000	23.275675
2137.000000	23.225821
2136.000000	22.971386
2135.000000	23.056440
2134.000000	23.162947
2133.000000	23.170461
2132.000000	23.477143
2131.000000	23.558985
2130.000000	23.640626
2129.000000	23.629046
2128.000000	23.356585
2127.000000	23.522153
2126.000000	23.564735
2125.000000	23.589544
2124.000000	23.658839
2123.000000	23.643715
2122.000000	23.679016
2121.000000	23.781749
2120.000000	23.579420
2119.000000	23.800566
2118.000000	23.871744
2117.000000	23.775907
2116.000000	23.853995
2115.000000	23.826979
2114.000000	23.891946
2113.000000	23.863339
2112.000000	23.738261
2111.000000	23.828215
2110.000000	23.893275
2109.000000	23.854671
2108.000000	23.800197
2107.000000	23.873729
2106.000000	23.921472
2105.000000	23.972870
2104.000000	23.777953
2103.000000	23.872840
2102.000000	23.944700
2101.000000	23.940207
2100.000000	23.945389
2099.000000	24.094874
2098.000000	23.993350
2097.000000	23.841461
2096.000000	23.804818
2095.000000	23.784178
2094.000000	23.864708
2093.000000	23.888986
2092.000000	23.879965
2091.000000	23.941467
2090.000000	23.880064
2089.000000	23.859441
2088.000000	23.852200
2087.000000	23.883799
2086.000000	23.734313
2085.000000	23.821755
2084.000000	23.756073
2083.000000	23.787875
2082.000000	23.646504
2081.000000	23.540932
2080.000000	23.632086
2079.000000	23.582153
2078.000000	23.379160
2077.000000	23.386331
2076.000000	23.431429
2075.000000	23.411496
2074.000000	23.358473
2073.000000	23.275365
2072.000000	23.182197
2071.000000	23.045254
2070.000000	22.997609
2069.000000	23.013665
2068.000000	22.927747
2067.000000	22.856304
2066.000000	22.746154
2065.000000	22.776432
2064.000000	22.660294
2063.000000	22.527027
2062.000000	22.465978
2061.000000	22.407392
2060.000000	22.376027
2059.000000	22.290621
2058.000000	22.207595
2057.000000	22.100057
2056.000000	22.090415
2055.000000	22.070185
2054.000000	21.924813
2053.000000	21.802464
2052.000000	21.737949
2051.000000	21.629201
2050.000000	21.566422
2049.000000	21.555499
2048.000000	21.484588
2047.000000	21.530007
2046.000000	21.559304
2045.000000	21.506706
2044.000000	21.447541
2043.000000	21.452122
2042.000000	21.476436
2041.000000	21.508589
2040.000000	21.510329
2039.000000	21.505596
2038.000000	21.513758
2037.000000	21.492645
2036.000000	21.532335
2035.000000	21.533021
2034.000000	21.534704
2033.000000	21.623668
2032.000000	21.681656
2031.000000	21.744150
2030.000000	21.766846
2029.000000	21.790949
2028.000000	21.863394
2027.000000	21.903476
2026.000000	21.963788
2025.000000	21.995892
2024.000000	21.951668
2023.000000	21.968203
2022.000000	21.987736
2021.000000	21.995813
2020.000000	22.039484
2019.000000	22.084024
2018.000000	22.078212
2017.000000	22.029026
2016.000000	21.998439
2015.000000	22.047285
2014.000000	22.060670
2013.000000	22.061781
2012.000000	22.003700
2011.000000	21.982826
2010.000000	21.951503
2009.000000	21.867432
2008.000000	21.827032
2007.000000	21.775961
2006.000000	21.730002
2005.000000	21.718158
2004.000000	21.638824
2003.000000	21.594070
2002.000000	21.591148
2001.000000	21.529012
2000.000000	21.445691
1999.000000	21.396818
1998.000000	21.351730
1997.000000	21.332295
1996.000000	21.259391
1995.000000	21.168698
1994.000000	21.120687
1993.000000	21.087315
1992.000000	20.997245
1991.000000	20.942064
1990.000000	20.864567
1989.000000	20.820165
1988.000000	20.804397
1987.000000	20.774961
1986.000000	20.697544
1985.000000	20.714377
1984.000000	20.631878
1983.000000	20.561765
1982.000000	20.527631
1981.000000	20.510345
1980.000000	20.422975
1979.000000	20.317583
1978.000000	20.316175
1977.000000	20.263688
1976.000000	20.214964
1975.000000	20.185483
1974.000000	20.142604
1973.000000	20.092049
1972.000000	20.007597
1971.000000	19.970182
1970.000000	19.944701
1969.000000	19.890825
1968.000000	19.862709
1967.000000	19.850688
1966.000000	19.857065
1965.000000	19.752709
1964.000000	19.760445
1963.000000	19.707609
1962.000000	19.636987
1961.000000	19.620560
1960.000000	19.576453
1959.000000	19.535416
1958.000000	19.590132
1957.000000	19.504152
1956.000000	19.499152
1955.000000	19.425769
1954.000000	19.373899
1953.000000	19.385992
1952.000000	19.381422
1951.000000	19.373531
1950.000000	19.356677
1949.000000	19.395518
1948.000000	19.393897
1947.000000	19.338451
1946.000000	19.318509
1945.000000	19.358209
1944.000000	19.408118
1943.000000	19.461183
1942.000000	19.405751
1941.000000	19.498695
1940.000000	19.455326
1939.000000	19.495641
1938.000000	19.596304
1937.000000	19.622609
1936.000000	19.704304
1935.000000	19.765379
1934.000000	19.740542
1933.000000	19.866853
1932.000000	19.942869
1931.000000	19.952217
1930.000000	20.029006
1929.000000	20.142801
1928.000000	20.264086
1927.000000	20.303905
1926.000000	20.480790
1925.000000	20.483024
1924.000000	20.712532
1923.000000	20.759364
1922.000000	20.857375
1921.000000	20.971615
1920.000000	21.105491
1919.000000	21.363120
1918.000000	21.453019
1917.000000	21.600730
1916.000000	21.695567
1915.000000	21.943313
1914.000000	22.214049
1913.000000	22.437592
1912.000000	22.557531
1911.000000	22.768091
1910.000000	22.892814
1909.000000	23.162403
1908.000000	23.371825
1907.000000	23.703857
1906.000000	23.950258
1905.000000	24.120191
1904.000000	24.400900
1903.000000	24.636899
1902.000000	24.929996
1901.000000	25.332346
1900.000000	25.620226
1899.000000	25.840324
1898.000000	26.182264
1897.000000	26.441016
1896.000000	26.729463
1895.000000	27.127019
1894.000000	27.336161
1893.000000	27.639921
1892.000000	27.975305
1891.000000	28.255022
1890.000000	28.561083
1889.000000	28.819369
1888.000000	29.138195
1887.000000	29.420806
1886.000000	29.737591
1885.000000	30.037196
1884.000000	30.325503
1883.000000	30.598578
1882.000000	30.826031
1881.000000	31.004125
1880.000000	31.311317
1879.000000	31.508440
1878.000000	31.792057
1877.000000	31.986267
1876.000000	32.209621
1875.000000	32.457148
1874.000000	32.650460
1873.000000	32.851664
1872.000000	33.012204
1871.000000	33.157606
1870.000000	33.293551
1869.000000	33.455097
1868.000000	33.560798
1867.000000	33.597790
1866.000000	33.702495
1865.000000	33.825872
1864.000000	33.862789
1863.000000	33.992435
1862.000000	34.062124
1861.000000	34.101749
1860.000000	34.154828
1859.000000	34.177715
1858.000000	34.241251
1857.000000	34.327023
1856.000000	34.353831
1855.000000	34.423932
1854.000000	34.453647
1853.000000	34.472703
1852.000000	34.469592
1851.000000	34.493684
1850.000000	34.462062
1849.000000	34.466958
1848.000000	34.488287
1847.000000	34.516151
1846.000000	34.548612
1845.000000	34.553364
1844.000000	34.489377
1843.000000	34.504798
1842.000000	34.496667
1841.000000	34.461900
1840.000000	34.408831
1839.000000	34.417646
1838.000000	34.445785
1837.000000	34.373659
1836.000000	34.303587
1835.000000	34.306394
1834.000000	34.254656
1833.000000	34.223845
1832.000000	34.203968
1831.000000	34.194847
1830.000000	34.156611
1829.000000	34.098488
1828.000000	34.081590
1827.000000	34.052753
1826.000000	34.013417
1825.000000	33.969119
1824.000000	33.943643
1823.000000	33.935431
1822.000000	33.893801
1821.000000	33.872050
1820.000000	33.865895
1819.000000	33.839418
1818.000000	33.807651
1817.000000	33.763568
1816.000000	33.724191
1815.000000	33.709653
1814.000000	33.692748
1813.000000	33.660987
1812.000000	33.649594
1811.000000	33.638575
1810.000000	33.585449
1809.000000	33.546202
1808.000000	33.518216
1807.000000	33.478706
1806.000000	33.469185
1805.000000	33.463542
1804.000000	33.427941
1803.000000	33.396959
1802.000000	33.393251
1801.000000	33.369875
1800.000000	33.315467
1799.000000	33.302566
1798.000000	33.319014
1797.000000	33.304758
1796.000000	33.282696
1795.000000	33.254892
1794.000000	33.262894
1793.000000	33.276435
1792.000000	33.241343
1791.000000	33.223927
1790.000000	33.226139
1789.000000	33.217370
1788.000000	33.191355
1787.000000	33.175385
1786.000000	33.175212
1785.000000	33.176751
1784.000000	33.158774
1783.000000	33.141720
1782.000000	33.107274
1781.000000	33.088428
1780.000000	33.074851
1779.000000	33.047864
1778.000000	33.010620
1777.000000	32.991931
1776.000000	32.961774
1775.000000	32.925625
1774.000000	32.900485
1773.000000	32.878811
1772.000000	32.865052
1771.000000	32.831839
1770.000000	32.795885
1769.000000	32.752228
1768.000000	32.758315
1767.000000	32.711898
1766.000000	32.650596
1765.000000	32.642907
1764.000000	32.614861
1763.000000	32.589023
1762.000000	32.554391
1761.000000	32.512097
1760.000000	32.452642
1759.000000	32.399609
1758.000000	32.392437
1757.000000	32.347325
1756.000000	32.313985
1755.000000	32.282635
1754.000000	32.243151
1753.000000	32.191019
1752.000000	32.201525
1751.000000	32.185660
1750.000000	32.153057
1749.000000	32.131589
1748.000000	32.080482
1747.000000	32.039085
1746.000000	32.025487
1745.000000	31.979485
1744.000000	31.942295
1743.000000	31.883177
1742.000000	31.878032
1741.000000	31.876376
1740.000000	31.845144
1739.000000	31.783342
1738.000000	31.781330
1737.000000	31.762262
1736.000000	31.706218
1735.000000	31.738195
1734.000000	31.736149
1733.000000	31.749166
1732.000000	31.736363
1731.000000	31.721558
1730.000000	31.729319
1729.000000	31.756184
1728.000000	31.812961
1727.000000	31.858547
1726.000000	31.866817
1725.000000	31.937995
1724.000000	31.990920
1723.000000	32.016888
1722.000000	32.117949
1721.000000	32.164131
1720.000000	32.228263
1719.000000	32.301648
1718.000000	32.353656
1717.000000	32.470267
1716.000000	32.497171
1715.000000	32.572672
1714.000000	32.643039
1713.000000	32.719146
1712.000000	32.755871
1711.000000	32.789045
1710.000000	32.855167
1709.000000	32.896013
1708.000000	32.918267
1707.000000	32.950097
1706.000000	32.993252
1705.000000	33.053252
1704.000000	33.069533
1703.000000	33.047680
1702.000000	33.029883
1701.000000	33.085518
1700.000000	33.097107
1699.000000	33.071915
1698.000000	33.113482
1697.000000	33.136653
1696.000000	33.163400
1695.000000	33.165226
1694.000000	33.217911
1693.000000	33.234368
1692.000000	33.254642
1691.000000	33.326545
1690.000000	33.356467
1689.000000	33.436124
1688.000000	33.512172
1687.000000	33.563536
1686.000000	33.674090
1685.000000	33.769680
1684.000000	33.869639
1683.000000	33.967407
1682.000000	34.095603
1681.000000	34.230346
1680.000000	34.323616
1679.000000	34.465840
1678.000000	34.591945
1677.000000	34.701257
1676.000000	34.879749
1675.000000	34.998972
1674.000000	35.112294
1673.000000	35.245109
1672.000000	35.387684
1671.000000	35.469739
1670.000000	35.606893
1669.000000	35.743198
1668.000000	35.847385
1667.000000	35.969611
1666.000000	36.017107
1665.000000	36.109466
1664.000000	36.174401
1663.000000	36.215647
1662.000000	36.308527
1661.000000	36.397723
1660.000000	36.435978
1659.000000	36.494668
1658.000000	36.543335
1657.000000	36.571440
1656.000000	36.602124
1655.000000	36.630512
1654.000000	36.639272
1653.000000	36.659169
1652.000000	36.672370
1651.000000	36.684090
1650.000000	36.681531
1649.000000	36.669340
1648.000000	36.649141
1647.000000	36.657466
1646.000000	36.639589
1645.000000	36.611129
1644.000000	36.626415
1643.000000	36.590308
1642.000000	36.555417
1641.000000	36.535668
1640.000000	36.515066
1639.000000	36.473016
1638.000000	36.460584
1637.000000	36.443649
1636.000000	36.381270
1635.000000	36.343231
1634.000000	36.325275
1633.000000	36.281176
1632.000000	36.255591
1631.000000	36.211246
1630.000000	36.183400
1629.000000	36.141801
1628.000000	36.097963
1627.000000	36.066145
1626.000000	36.031030
1625.000000	35.978906
1624.000000	35.941385
1623.000000	35.913897
1622.000000	35.869750
1621.000000	35.824744
1620.000000	35.796310
1619.000000	35.736655
1618.000000	35.672245
1617.000000	35.625391
1616.000000	35.585576
1615.000000	35.568266
1614.000000	35.515688
1613.000000	35.444572
1612.000000	35.395147
1611.000000	35.339663
1610.000000	35.284050
1609.000000	35.244244
1608.000000	35.208889
1607.000000	35.161396
1606.000000	35.091572
1605.000000	35.040262
1604.000000	34.980845
1603.000000	34.937810
1602.000000	34.899514
1601.000000	34.841155
1600.000000	34.798471
1599.000000	34.753553
1598.000000	34.699555
1597.000000	34.658017
1596.000000	34.601039
1595.000000	34.562565
1594.000000	34.528399
1593.000000	34.484280
1592.000000	34.435191
1591.000000	34.385481
1590.000000	34.344093
1589.000000	34.298032
1588.000000	34.262019
1587.000000	34.226873
1586.000000	34.187086
1585.000000	34.164754
1584.000000	34.140045
1583.000000	34.100916
1582.000000	34.062954
1581.000000	34.012266
1580.000000	33.965574
1579.000000	33.939598
1578.000000	33.910482
1577.000000	33.868273
1576.000000	33.832275
1575.000000	33.785477
1574.000000	33.750307
1573.000000	33.721708
1572.000000	33.689392
1571.000000	33.649215
1570.000000	33.602654
1569.000000	33.567829
1568.000000	33.547718
1567.000000	33.519531
1566.000000	33.479852
1565.000000	33.469971
1564.000000	33.440127
1563.000000	33.410509
1562.000000	33.371614
1561.000000	33.354446
1560.000000	33.360486
1559.000000	33.330466
1558.000000	33.301158
1557.000000	33.299300
1556.000000	33.270395
1555.000000	33.250324
1554.000000	33.203022
1553.000000	33.194270
1552.000000	33.183907
1551.000000	33.152006
1550.000000	33.132141
1549.000000	33.102348
1548.000000	33.074894
1547.000000	33.032977
1546.000000	32.981102
1545.000000	32.918081
1544.000000	32.861969
1543.000000	32.818823
1542.000000	32.774799
1541.000000	32.703254
1540.000000	32.647947
1539.000000	32.587047
1538.000000	32.520569
1537.000000	32.442138
1536.000000	32.396167
1535.000000	32.331893
1534.000000	32.264839
1533.000000	32.200142
1532.000000	32.141444
1531.000000	32.084028
1530.000000	32.048604
1529.000000	31.988280
1528.000000	31.932322
1527.000000	31.886036
1526.000000	31.862818
1525.000000	31.796824
1524.000000	31.741296
1523.000000	31.718166
1522.000000	31.685309
1521.000000	31.646918
1520.000000	31.637830
1519.000000	31.611646
1518.000000	31.582355
1517.000000	31.547774
1516.000000	31.539704
1515.000000	31.518831
1514.000000	31.494105
1513.000000	31.475065
1512.000000	31.452550
1511.000000	31.447225
1510.000000	31.419523
1509.000000	31.416247
1508.000000	31.400384
1507.000000	31.375592
1506.000000	31.352717
1505.000000	31.367512
1504.000000	31.364445
1503.000000	31.365562
1502.000000	31.348060
1501.000000	31.343057
1500.000000	31.326612
1499.000000	31.323837
1498.000000	31.348652
1497.000000	31.343569
1496.000000	31.338681
1495.000000	31.336951
1494.000000	31.347190
1493.000000	31.360571
1492.000000	31.379173
1491.000000	31.392771
1490.000000	31.407173
1489.000000	31.408354
1488.000000	31.420317
1487.000000	31.443758
1486.000000	31.445636
1485.000000	31.462495
1484.000000	31.485501
1483.000000	31.538825
1482.000000	31.532476
1481.000000	31.561331
1480.000000	31.582566
1479.000000	31.598240
1478.000000	31.623220
1477.000000	31.661685
1476.000000	31.676525
1475.000000	31.692261
1474.000000	31.716598
1473.000000	31.740113
1472.000000	31.766914
1471.000000	31.792598
1470.000000	31.815153
