PE UV       SUBTECH     SPECTRUM    ASCII       PEDS        4.00        
   -1
RDgVeauAl 22.Sample.asc
18/03/12
12:24:32.00
18/03/12
12:24:32.00
Administrator

200.000000
1
Lambda 750
750N8071901
PerkinElmer UV WinLab 6.0.4.0738 / 1.61.00 Lambda 900

0
0
3350/servo 860.8/2
0
0
UV/VIS
1
1
1
CommonBeamDepol,150mm sphere / downward view
0
0
0
0
Program
Program
3350/servo 860.8/2
3350/0.2 860.8/0.2
3350/0.2 860.8/0.2
0
1
 
 
 
0
 
860.8
319.2
860.8
Front
100
on
 
 
0
0
0
 
0
 
 
 
0
 
 
0
0
0
0
0
 
 
 
 
0
0


0
0
#HDR
-1
-1
#GR
nm
%R
1.0
0.0
2350.000000
-1.000000
2151
8
68.014940
8.999923
#DATA
2350.000000	18.202329
2349.000000	18.754231
2348.000000	18.290816
2347.000000	19.256778
2346.000000	19.141523
2345.000000	18.998149
2344.000000	18.712684
2343.000000	18.935080
2342.000000	18.977842
2341.000000	19.149291
2340.000000	19.171433
2339.000000	19.393578
2338.000000	19.401213
2337.000000	19.309687
2336.000000	19.567813
2335.000000	19.600045
2334.000000	19.493402
2333.000000	19.842783
2332.000000	19.808606
2331.000000	19.429755
2330.000000	19.837071
2329.000000	19.590719
2328.000000	19.517749
2327.000000	19.535428
2326.000000	19.537374
2325.000000	19.830307
2324.000000	19.829166
2323.000000	19.451341
2322.000000	19.162467
2321.000000	19.419144
2320.000000	19.409720
2319.000000	19.542876
2318.000000	19.487377
2317.000000	19.333535
2316.000000	19.193195
2315.000000	19.090390
2314.000000	19.196767
2313.000000	19.105213
2312.000000	18.921951
2311.000000	18.672750
2310.000000	18.782497
2309.000000	18.645969
2308.000000	18.654166
2307.000000	18.732434
2306.000000	18.752594
2305.000000	18.620268
2304.000000	18.618228
2303.000000	18.832438
2302.000000	18.640916
2301.000000	18.412696
2300.000000	18.247055
2299.000000	18.277741
2298.000000	18.267525
2297.000000	18.017784
2296.000000	17.979951
2295.000000	17.975192
2294.000000	17.992419
2293.000000	17.852491
2292.000000	17.851703
2291.000000	17.804598
2290.000000	17.873669
2289.000000	17.549933
2288.000000	17.434238
2287.000000	17.739914
2286.000000	17.674245
2285.000000	17.346466
2284.000000	17.237142
2283.000000	17.290453
2282.000000	17.471963
2281.000000	17.614950
2280.000000	17.565269
2279.000000	17.297532
2278.000000	17.253954
2277.000000	17.540147
2276.000000	17.541559
2275.000000	17.464385
2274.000000	17.566633
2273.000000	17.702409
2272.000000	17.828918
2271.000000	17.599831
2270.000000	17.691958
2269.000000	17.695904
2268.000000	17.646804
2267.000000	17.892845
2266.000000	18.188600
2265.000000	18.159115
2264.000000	18.179259
2263.000000	18.250950
2262.000000	18.261464
2261.000000	18.502103
2260.000000	18.755102
2259.000000	18.932255
2258.000000	19.155361
2257.000000	19.249281
2256.000000	19.289495
2255.000000	19.392736
2254.000000	19.570735
2253.000000	19.665109
2252.000000	19.887189
2251.000000	20.077643
2250.000000	20.274546
2249.000000	20.477304
2248.000000	20.643945
2247.000000	20.879104
2246.000000	20.957690
2245.000000	21.064429
2244.000000	21.246976
2243.000000	21.562635
2242.000000	21.732203
2241.000000	21.703382
2240.000000	21.833885
2239.000000	22.084967
2238.000000	22.153940
2237.000000	22.211190
2236.000000	22.308148
2235.000000	22.368418
2234.000000	22.478334
2233.000000	22.529435
2232.000000	22.582389
2231.000000	22.739517
2230.000000	22.775522
2229.000000	22.753165
2228.000000	22.833379
2227.000000	22.892837
2226.000000	22.861469
2225.000000	22.817173
2224.000000	22.710665
2223.000000	22.645105
2222.000000	22.715325
2221.000000	22.705470
2220.000000	22.670786
2219.000000	22.634168
2218.000000	22.605720
2217.000000	22.569963
2216.000000	22.507488
2215.000000	22.396031
2214.000000	22.425993
2213.000000	22.467178
2212.000000	22.241182
2211.000000	22.231950
2210.000000	22.253375
2209.000000	22.099673
2208.000000	22.003788
2207.000000	21.920215
2206.000000	21.915288
2205.000000	21.844109
2204.000000	21.905808
2203.000000	21.849100
2202.000000	21.773915
2201.000000	21.677063
2200.000000	21.616834
2199.000000	21.692852
2198.000000	21.480123
2197.000000	21.240143
2196.000000	21.249918
2195.000000	21.155723
2194.000000	21.050132
2193.000000	21.086116
2192.000000	20.997742
2191.000000	20.969456
2190.000000	20.978612
2189.000000	20.858581
2188.000000	20.605946
2187.000000	20.662138
2186.000000	20.695961
2185.000000	20.585371
2184.000000	20.488395
2183.000000	20.570224
2182.000000	20.521676
2181.000000	20.387433
2180.000000	20.475903
2179.000000	20.360189
2178.000000	20.391475
2177.000000	20.426705
2176.000000	20.578893
2175.000000	20.591198
2174.000000	20.507703
2173.000000	20.585784
2172.000000	20.555103
2171.000000	20.717580
2170.000000	20.765722
2169.000000	20.566298
2168.000000	20.943563
2167.000000	20.996237
2166.000000	20.956194
2165.000000	21.131981
2164.000000	21.262895
2163.000000	21.075861
2162.000000	21.356211
2161.000000	21.385751
2160.000000	21.444541
2159.000000	21.530882
2158.000000	21.718481
2157.000000	21.853412
2156.000000	21.994563
2155.000000	22.154668
2154.000000	22.176226
2153.000000	22.492362
2152.000000	22.713581
2151.000000	22.601814
2150.000000	22.805996
2149.000000	22.898155
2148.000000	23.008806
2147.000000	23.050223
2146.000000	23.340652
2145.000000	23.422287
2144.000000	23.422586
2143.000000	23.574474
2142.000000	23.719297
2141.000000	23.967366
2140.000000	24.064196
2139.000000	24.088511
2138.000000	24.206955
2137.000000	24.222834
2136.000000	24.239982
2135.000000	24.290061
2134.000000	24.580598
2133.000000	24.606595
2132.000000	24.651994
2131.000000	24.997161
2130.000000	25.058181
2129.000000	24.794763
2128.000000	24.865888
2127.000000	24.852600
2126.000000	25.086899
2125.000000	24.975255
2124.000000	25.164134
2123.000000	25.233118
2122.000000	25.297034
2121.000000	25.257288
2120.000000	25.373254
2119.000000	25.317667
2118.000000	25.215677
2117.000000	25.446881
2116.000000	25.452267
2115.000000	25.485606
2114.000000	25.401117
2113.000000	25.517836
2112.000000	25.494753
2111.000000	25.615260
2110.000000	25.627983
2109.000000	25.718431
2108.000000	25.716176
2107.000000	25.755383
2106.000000	25.758028
2105.000000	25.696067
2104.000000	25.652825
2103.000000	25.721808
2102.000000	25.709298
2101.000000	25.692482
2100.000000	25.856739
2099.000000	25.842311
2098.000000	25.756064
2097.000000	25.662461
2096.000000	25.682094
2095.000000	25.690007
2094.000000	25.808905
2093.000000	25.754973
2092.000000	25.765071
2091.000000	25.704100
2090.000000	25.651904
2089.000000	25.699434
2088.000000	25.615875
2087.000000	25.572991
2086.000000	25.633183
2085.000000	25.652934
2084.000000	25.481644
2083.000000	25.325684
2082.000000	25.385485
2081.000000	25.314352
2080.000000	25.106765
2079.000000	25.138449
2078.000000	25.073913
2077.000000	24.954978
2076.000000	24.880311
2075.000000	24.805534
2074.000000	24.664416
2073.000000	24.497843
2072.000000	24.437826
2071.000000	24.328413
2070.000000	24.197980
2069.000000	24.039206
2068.000000	23.895120
2067.000000	23.798698
2066.000000	23.554730
2065.000000	23.370877
2064.000000	23.297503
2063.000000	23.205419
2062.000000	23.011680
2061.000000	22.798251
2060.000000	22.720320
2059.000000	22.561826
2058.000000	22.344590
2057.000000	22.276306
2056.000000	22.206306
2055.000000	22.086840
2054.000000	21.848893
2053.000000	21.650805
2052.000000	21.631066
2051.000000	21.528652
2050.000000	21.379732
2049.000000	21.276071
2048.000000	21.121663
2047.000000	21.156553
2046.000000	21.108759
2045.000000	20.992317
2044.000000	20.971205
2043.000000	20.991537
2042.000000	21.021050
2041.000000	21.055863
2040.000000	21.049416
2039.000000	20.962132
2038.000000	21.014562
2037.000000	21.167498
2036.000000	21.161157
2035.000000	21.174747
2034.000000	21.288965
2033.000000	21.402524
2032.000000	21.551296
2031.000000	21.656702
2030.000000	21.728237
2029.000000	21.837134
2028.000000	21.945760
2027.000000	22.043672
2026.000000	22.134980
2025.000000	22.252587
2024.000000	22.371539
2023.000000	22.411869
2022.000000	22.444567
2021.000000	22.432330
2020.000000	22.452617
2019.000000	22.536299
2018.000000	22.577999
2017.000000	22.603220
2016.000000	22.586768
2015.000000	22.570444
2014.000000	22.563021
2013.000000	22.563033
2012.000000	22.515477
2011.000000	22.493264
2010.000000	22.415550
2009.000000	22.302116
2008.000000	22.226259
2007.000000	22.153117
2006.000000	22.040626
2005.000000	21.972350
2004.000000	21.936508
2003.000000	21.881744
2002.000000	21.795939
2001.000000	21.621345
2000.000000	21.515833
1999.000000	21.452488
1998.000000	21.380077
1997.000000	21.263561
1996.000000	21.170109
1995.000000	21.150269
1994.000000	21.026728
1993.000000	20.876837
1992.000000	20.731625
1991.000000	20.591175
1990.000000	20.505665
1989.000000	20.374963
1988.000000	20.286904
1987.000000	20.204982
1986.000000	20.118367
1985.000000	19.986002
1984.000000	19.879015
1983.000000	19.829125
1982.000000	19.707020
1981.000000	19.654570
1980.000000	19.557674
1979.000000	19.441363
1978.000000	19.321375
1977.000000	19.232336
1976.000000	19.107129
1975.000000	19.046326
1974.000000	18.952820
1973.000000	18.841500
1972.000000	18.731090
1971.000000	18.637986
1970.000000	18.581376
1969.000000	18.469119
1968.000000	18.366667
1967.000000	18.317170
1966.000000	18.241752
1965.000000	18.112913
1964.000000	18.028098
1963.000000	17.932741
1962.000000	17.877622
1961.000000	17.770752
1960.000000	17.764173
1959.000000	17.670434
1958.000000	17.615617
1957.000000	17.523293
1956.000000	17.488451
1955.000000	17.426583
1954.000000	17.356002
1953.000000	17.305693
1952.000000	17.246484
1951.000000	17.238531
1950.000000	17.187000
1949.000000	17.102625
1948.000000	17.065261
1947.000000	17.065869
1946.000000	17.038581
1945.000000	17.090852
1944.000000	17.010115
1943.000000	17.049068
1942.000000	17.044815
1941.000000	17.138132
1940.000000	17.117628
1939.000000	17.147647
1938.000000	17.243955
1937.000000	17.349370
1936.000000	17.457116
1935.000000	17.421993
1934.000000	17.531796
1933.000000	17.652078
1932.000000	17.735098
1931.000000	17.884433
1930.000000	17.937531
1929.000000	18.064257
1928.000000	18.287484
1927.000000	18.420991
1926.000000	18.575033
1925.000000	18.814141
1924.000000	18.990485
1923.000000	19.238395
1922.000000	19.549072
1921.000000	19.834466
1920.000000	19.988187
1919.000000	20.209151
1918.000000	20.482266
1917.000000	20.835714
1916.000000	20.983376
1915.000000	21.479672
1914.000000	21.937612
1913.000000	22.319793
1912.000000	22.631973
1911.000000	22.975111
1910.000000	23.345126
1909.000000	23.840077
1908.000000	24.253942
1907.000000	24.727817
1906.000000	25.241898
1905.000000	25.727827
1904.000000	26.217074
1903.000000	26.865622
1902.000000	27.435395
1901.000000	27.928585
1900.000000	28.542292
1899.000000	29.168854
1898.000000	29.836307
1897.000000	30.365433
1896.000000	30.864224
1895.000000	31.509363
1894.000000	32.172814
1893.000000	32.752039
1892.000000	33.409945
1891.000000	33.957904
1890.000000	34.535625
1889.000000	35.146734
1888.000000	35.707369
1887.000000	36.273868
1886.000000	36.843940
1885.000000	37.361953
1884.000000	37.902840
1883.000000	38.434325
1882.000000	38.925272
1881.000000	39.382489
1880.000000	39.901580
1879.000000	40.362515
1878.000000	40.816825
1877.000000	41.255542
1876.000000	41.658124
1875.000000	42.099496
1874.000000	42.449887
1873.000000	42.796804
1872.000000	43.125825
1871.000000	43.413468
1870.000000	43.779969
1869.000000	44.089224
1868.000000	44.305449
1867.000000	44.569060
1866.000000	44.739698
1865.000000	44.932811
1864.000000	45.072279
1863.000000	45.226133
1862.000000	45.335313
1861.000000	45.441503
1860.000000	45.580358
1859.000000	45.646192
1858.000000	45.736532
1857.000000	45.815042
1856.000000	45.886839
1855.000000	45.942360
1854.000000	46.059266
1853.000000	46.121154
1852.000000	46.153101
1851.000000	46.165815
1850.000000	46.165936
1849.000000	46.170231
1848.000000	46.196326
1847.000000	46.252443
1846.000000	46.260273
1845.000000	46.219624
1844.000000	46.172803
1843.000000	46.175273
1842.000000	46.167985
1841.000000	46.121695
1840.000000	46.061549
1839.000000	46.039288
1838.000000	46.006251
1837.000000	45.905512
1836.000000	45.843891
1835.000000	45.808438
1834.000000	45.748557
1833.000000	45.697954
1832.000000	45.627457
1831.000000	45.542898
1830.000000	45.493062
1829.000000	45.466840
1828.000000	45.397437
1827.000000	45.342473
1826.000000	45.302489
1825.000000	45.245512
1824.000000	45.181409
1823.000000	45.121394
1822.000000	45.059727
1821.000000	45.020870
1820.000000	44.973552
1819.000000	44.903015
1818.000000	44.882875
1817.000000	44.847968
1816.000000	44.798463
1815.000000	44.743409
1814.000000	44.666814
1813.000000	44.603190
1812.000000	44.563876
1811.000000	44.516583
1810.000000	44.467640
1809.000000	44.432502
1808.000000	44.377708
1807.000000	44.306206
1806.000000	44.236497
1805.000000	44.173772
1804.000000	44.119700
1803.000000	44.100176
1802.000000	44.063908
1801.000000	44.004442
1800.000000	43.971610
1799.000000	43.910273
1798.000000	43.865396
1797.000000	43.829773
1796.000000	43.772587
1795.000000	43.741582
1794.000000	43.727918
1793.000000	43.678672
1792.000000	43.619077
1791.000000	43.615165
1790.000000	43.593029
1789.000000	43.546133
1788.000000	43.498045
1787.000000	43.464213
1786.000000	43.448922
1785.000000	43.396517
1784.000000	43.343466
1783.000000	43.293402
1782.000000	43.252680
1781.000000	43.188785
1780.000000	43.150693
1779.000000	43.103684
1778.000000	43.024700
1777.000000	42.928245
1776.000000	42.853711
1775.000000	42.796047
1774.000000	42.737159
1773.000000	42.682593
1772.000000	42.603060
1771.000000	42.528520
1770.000000	42.453944
1769.000000	42.382684
1768.000000	42.317934
1767.000000	42.244524
1766.000000	42.164193
1765.000000	42.100654
1764.000000	42.072545
1763.000000	41.993481
1762.000000	41.918221
1761.000000	41.853272
1760.000000	41.769547
1759.000000	41.689584
1758.000000	41.665492
1757.000000	41.594109
1756.000000	41.540832
1755.000000	41.483498
1754.000000	41.375711
1753.000000	41.313690
1752.000000	41.274065
1751.000000	41.181521
1750.000000	41.141546
1749.000000	41.072762
1748.000000	40.998207
1747.000000	40.906589
1746.000000	40.830768
1745.000000	40.719929
1744.000000	40.639957
1743.000000	40.578441
1742.000000	40.502015
1741.000000	40.448772
1740.000000	40.374787
1739.000000	40.292387
1738.000000	40.212071
1737.000000	40.166455
1736.000000	40.133823
1735.000000	40.123185
1734.000000	40.116652
1733.000000	40.051831
1732.000000	40.059088
1731.000000	40.072360
1730.000000	40.099112
1729.000000	40.140542
1728.000000	40.203018
1727.000000	40.251236
1726.000000	40.330941
1725.000000	40.414213
1724.000000	40.542674
1723.000000	40.655109
1722.000000	40.790401
1721.000000	40.893490
1720.000000	41.043973
1719.000000	41.224541
1718.000000	41.334597
1717.000000	41.453425
1716.000000	41.629306
1715.000000	41.747515
1714.000000	41.896357
1713.000000	42.050749
1712.000000	42.138895
1711.000000	42.243354
1710.000000	42.357693
1709.000000	42.448319
1708.000000	42.528144
1707.000000	42.588807
1706.000000	42.679784
1705.000000	42.746808
1704.000000	42.794447
1703.000000	42.814222
1702.000000	42.847955
1701.000000	42.869679
1700.000000	42.916051
1699.000000	42.915622
1698.000000	42.959266
1697.000000	42.993645
1696.000000	43.078335
1695.000000	43.085626
1694.000000	43.160571
1693.000000	43.215425
1692.000000	43.281238
1691.000000	43.367995
1690.000000	43.481754
1689.000000	43.594554
1688.000000	43.792993
1687.000000	43.918302
1686.000000	44.026940
1685.000000	44.241707
1684.000000	44.438074
1683.000000	44.666640
1682.000000	44.903983
1681.000000	45.140793
1680.000000	45.345056
1679.000000	45.587681
1678.000000	45.863530
1677.000000	46.098247
1676.000000	46.343749
1675.000000	46.583743
1674.000000	46.845900
1673.000000	47.122359
1672.000000	47.334237
1671.000000	47.551353
1670.000000	47.795984
1669.000000	48.069462
1668.000000	48.251454
1667.000000	48.481092
1666.000000	48.611962
1665.000000	48.777746
1664.000000	48.915057
1663.000000	49.039966
1662.000000	49.180029
1661.000000	49.287560
1660.000000	49.414292
1659.000000	49.469911
1658.000000	49.570777
1657.000000	49.642481
1656.000000	49.718730
1655.000000	49.745089
1654.000000	49.762052
1653.000000	49.794095
1652.000000	49.825165
1651.000000	49.827350
1650.000000	49.880414
1649.000000	49.849339
1648.000000	49.805962
1647.000000	49.790708
1646.000000	49.791802
1645.000000	49.750528
1644.000000	49.718416
1643.000000	49.689503
1642.000000	49.663235
1641.000000	49.593297
1640.000000	49.570913
1639.000000	49.545430
1638.000000	49.511185
1637.000000	49.441941
1636.000000	49.348505
1635.000000	49.303886
1634.000000	49.252884
1633.000000	49.176307
1632.000000	49.104505
1631.000000	49.050291
1630.000000	48.983389
1629.000000	48.909938
1628.000000	48.833317
1627.000000	48.761330
1626.000000	48.699784
1625.000000	48.610312
1624.000000	48.533813
1623.000000	48.455235
1622.000000	48.379367
1621.000000	48.288311
1620.000000	48.211683
1619.000000	48.134930
1618.000000	48.024130
1617.000000	47.944416
1616.000000	47.858056
1615.000000	47.774111
1614.000000	47.678669
1613.000000	47.567802
1612.000000	47.471074
1611.000000	47.376125
1610.000000	47.270738
1609.000000	47.183538
1608.000000	47.095250
1607.000000	46.975012
1606.000000	46.869936
1605.000000	46.777911
1604.000000	46.676080
1603.000000	46.569745
1602.000000	46.472828
1601.000000	46.375751
1600.000000	46.284514
1599.000000	46.174265
1598.000000	46.071506
1597.000000	45.986675
1596.000000	45.872136
1595.000000	45.786469
1594.000000	45.712024
1593.000000	45.617556
1592.000000	45.525824
1591.000000	45.434700
1590.000000	45.357861
1589.000000	45.264725
1588.000000	45.181133
1587.000000	45.116267
1586.000000	45.040214
1585.000000	44.965666
1584.000000	44.880481
1583.000000	44.797206
1582.000000	44.722771
1581.000000	44.652504
1580.000000	44.581137
1579.000000	44.503586
1578.000000	44.425756
1577.000000	44.354141
1576.000000	44.279086
1575.000000	44.201385
1574.000000	44.108701
1573.000000	44.036682
1572.000000	43.963009
1571.000000	43.902187
1570.000000	43.836311
1569.000000	43.767279
1568.000000	43.695071
1567.000000	43.631988
1566.000000	43.577679
1565.000000	43.524724
1564.000000	43.485402
1563.000000	43.451330
1562.000000	43.382036
1561.000000	43.329333
1560.000000	43.293650
1559.000000	43.254215
1558.000000	43.210075
1557.000000	43.183187
1556.000000	43.144487
1555.000000	43.101718
1554.000000	43.065719
1553.000000	43.027759
1552.000000	42.965827
1551.000000	42.918408
1550.000000	42.865540
1549.000000	42.810110
1548.000000	42.741584
1547.000000	42.648591
1546.000000	42.543046
1545.000000	42.449686
1544.000000	42.351784
1543.000000	42.258976
1542.000000	42.142366
1541.000000	42.041838
1540.000000	41.928134
1539.000000	41.792889
1538.000000	41.665866
1537.000000	41.516586
1536.000000	41.382059
1535.000000	41.266755
1534.000000	41.138540
1533.000000	41.032294
1532.000000	40.911248
1531.000000	40.791834
1530.000000	40.676747
1529.000000	40.546958
1528.000000	40.436735
1527.000000	40.350634
1526.000000	40.260709
1525.000000	40.151708
1524.000000	40.064005
1523.000000	39.991541
1522.000000	39.918518
1521.000000	39.845444
1520.000000	39.796017
1519.000000	39.723706
1518.000000	39.685763
1517.000000	39.625688
1516.000000	39.570298
1515.000000	39.525493
1514.000000	39.472403
1513.000000	39.461999
1512.000000	39.414993
1511.000000	39.386109
1510.000000	39.335262
1509.000000	39.307343
1508.000000	39.275981
1507.000000	39.224599
1506.000000	39.206223
1505.000000	39.189888
1504.000000	39.175805
1503.000000	39.164709
1502.000000	39.117547
1501.000000	39.121952
1500.000000	39.095458
1499.000000	39.086822
1498.000000	39.089060
1497.000000	39.069245
1496.000000	39.062748
1495.000000	39.066309
1494.000000	39.076042
1493.000000	39.099899
1492.000000	39.095748
1491.000000	39.119472
1490.000000	39.151676
1489.000000	39.176757
1488.000000	39.206309
1487.000000	39.206684
1486.000000	39.257425
1485.000000	39.285895
1484.000000	39.326429
1483.000000	39.367605
1482.000000	39.393170
1481.000000	39.434372
1480.000000	39.485234
1479.000000	39.515824
1478.000000	39.558171
1477.000000	39.607719
1476.000000	39.644594
1475.000000	39.688281
1474.000000	39.723126
1473.000000	39.783029
1472.000000	39.819116
1471.000000	39.865230
1470.000000	39.930517
