PE UV       SUBTECH     SPECTRUM    ASCII       PEDS        4.00        
   -1
RDgVeauAl 42.Sample.asc
18/03/12
13:50:03.00
18/03/12
13:50:03.00
Administrator

200.000000
1
Lambda 750
750N8071901
PerkinElmer UV WinLab 6.0.4.0738 / 1.61.00 Lambda 900

0
0
3350/servo 860.8/2
0
0
UV/VIS
1
1
1
CommonBeamDepol,150mm sphere / downward view
0
0
0
0
Program
Program
3350/servo 860.8/2
3350/0.2 860.8/0.2
3350/0.2 860.8/0.2
0
1
 
 
 
0
 
860.8
319.2
860.8
Front
100
on
 
 
0
0
0
 
0
 
 
 
0
 
 
0
0
0
0
0
 
 
 
 
0
0


0
0
#HDR
-1
-1
#GR
nm
%R
1.0
0.0
2350.000000
-1.000000
2151
8
63.273046
9.972051
#DATA
2350.000000	20.967938
2349.000000	21.089293
2348.000000	20.898571
2347.000000	21.759980
2346.000000	21.257514
2345.000000	20.911103
2344.000000	21.034432
2343.000000	20.986596
2342.000000	21.040823
2341.000000	21.182280
2340.000000	21.063762
2339.000000	21.583884
2338.000000	21.356280
2337.000000	21.744901
2336.000000	21.702108
2335.000000	21.830828
2334.000000	21.910593
2333.000000	22.373687
2332.000000	22.078039
2331.000000	21.956684
2330.000000	21.898702
2329.000000	21.730479
2328.000000	21.946551
2327.000000	21.634319
2326.000000	21.663147
2325.000000	21.815779
2324.000000	21.838116
2323.000000	21.809291
2322.000000	21.791268
2321.000000	21.403245
2320.000000	21.680585
2319.000000	21.504834
2318.000000	21.503006
2317.000000	21.449758
2316.000000	21.389431
2315.000000	21.488993
2314.000000	21.271522
2313.000000	20.874491
2312.000000	20.943962
2311.000000	20.948954
2310.000000	21.093215
2309.000000	21.240399
2308.000000	20.888802
2307.000000	20.766126
2306.000000	20.881996
2305.000000	20.763966
2304.000000	20.729908
2303.000000	20.682669
2302.000000	20.667186
2301.000000	20.430740
2300.000000	20.525754
2299.000000	20.418766
2298.000000	20.194270
2297.000000	20.225463
2296.000000	20.273728
2295.000000	20.239288
2294.000000	20.022033
2293.000000	20.072301
2292.000000	19.925113
2291.000000	19.865603
2290.000000	19.978446
2289.000000	19.803231
2288.000000	19.708186
2287.000000	19.814411
2286.000000	19.721792
2285.000000	19.667972
2284.000000	19.523355
2283.000000	19.574718
2282.000000	19.731699
2281.000000	19.776081
2280.000000	19.657829
2279.000000	19.817157
2278.000000	19.588874
2277.000000	19.746931
2276.000000	19.981137
2275.000000	19.901677
2274.000000	19.954281
2273.000000	19.974920
2272.000000	19.973829
2271.000000	19.964508
2270.000000	19.884451
2269.000000	20.064557
2268.000000	20.125653
2267.000000	20.065318
2266.000000	20.246890
2265.000000	20.467571
2264.000000	20.375665
2263.000000	20.538064
2262.000000	20.815948
2261.000000	20.857761
2260.000000	20.928820
2259.000000	21.221073
2258.000000	21.364317
2257.000000	21.491250
2256.000000	21.659160
2255.000000	21.741269
2254.000000	21.942486
2253.000000	22.236428
2252.000000	22.456006
2251.000000	22.526829
2250.000000	22.725369
2249.000000	22.983625
2248.000000	23.140787
2247.000000	23.290962
2246.000000	23.461348
2245.000000	23.646124
2244.000000	23.866753
2243.000000	24.126049
2242.000000	24.185763
2241.000000	24.222758
2240.000000	24.398016
2239.000000	24.531304
2238.000000	24.622799
2237.000000	24.705242
2236.000000	24.754491
2235.000000	24.912306
2234.000000	25.128255
2233.000000	25.152231
2232.000000	25.168357
2231.000000	25.204451
2230.000000	25.279111
2229.000000	25.367669
2228.000000	25.390666
2227.000000	25.343639
2226.000000	25.311969
2225.000000	25.247693
2224.000000	25.252783
2223.000000	25.225355
2222.000000	25.347366
2221.000000	25.231241
2220.000000	25.111745
2219.000000	25.024033
2218.000000	24.992575
2217.000000	25.061157
2216.000000	25.108594
2215.000000	25.021359
2214.000000	24.864305
2213.000000	24.959007
2212.000000	25.040589
2211.000000	24.821771
2210.000000	24.780882
2209.000000	24.753484
2208.000000	24.599559
2207.000000	24.493820
2206.000000	24.469997
2205.000000	24.372883
2204.000000	24.329961
2203.000000	24.186078
2202.000000	24.099839
2201.000000	24.167747
2200.000000	24.151606
2199.000000	24.050701
2198.000000	23.977908
2197.000000	23.934716
2196.000000	23.800098
2195.000000	23.630874
2194.000000	23.515873
2193.000000	23.417485
2192.000000	23.520349
2191.000000	23.435310
2190.000000	23.459416
2189.000000	23.328334
2188.000000	23.096423
2187.000000	23.120107
2186.000000	23.060880
2185.000000	23.169772
2184.000000	23.169172
2183.000000	23.104364
2182.000000	23.047370
2181.000000	22.889028
2180.000000	22.779367
2179.000000	22.796831
2178.000000	22.890956
2177.000000	22.997958
2176.000000	22.783602
2175.000000	22.915273
2174.000000	23.062127
2173.000000	22.987947
2172.000000	22.976265
2171.000000	23.049073
2170.000000	23.138838
2169.000000	23.213864
2168.000000	23.362630
2167.000000	23.159716
2166.000000	23.263652
2165.000000	23.520856
2164.000000	23.627451
2163.000000	23.537792
2162.000000	23.794419
2161.000000	23.847310
2160.000000	24.033648
2159.000000	24.088890
2158.000000	24.193522
2157.000000	24.383676
2156.000000	24.594017
2155.000000	24.715135
2154.000000	24.791283
2153.000000	24.978392
2152.000000	24.956223
2151.000000	24.981291
2150.000000	25.260300
2149.000000	25.310188
2148.000000	25.418987
2147.000000	25.719807
2146.000000	25.539733
2145.000000	25.822181
2144.000000	26.080347
2143.000000	26.269449
2142.000000	26.229879
2141.000000	26.406859
2140.000000	26.623514
2139.000000	26.569548
2138.000000	26.900736
2137.000000	26.919372
2136.000000	26.832437
2135.000000	27.029912
2134.000000	27.149916
2133.000000	27.024220
2132.000000	27.231224
2131.000000	27.392883
2130.000000	27.685911
2129.000000	27.601875
2128.000000	27.421569
2127.000000	27.568062
2126.000000	27.629434
2125.000000	27.520180
2124.000000	27.734352
2123.000000	27.757103
2122.000000	27.834675
2121.000000	28.124424
2120.000000	27.823957
2119.000000	27.923052
2118.000000	27.948789
2117.000000	28.078148
2116.000000	28.064695
2115.000000	28.282834
2114.000000	28.204813
2113.000000	28.160077
2112.000000	28.269899
2111.000000	28.169492
2110.000000	28.133874
2109.000000	28.285861
2108.000000	28.230635
2107.000000	28.411670
2106.000000	28.472056
2105.000000	28.340941
2104.000000	28.366137
2103.000000	28.328038
2102.000000	28.376733
2101.000000	28.426567
2100.000000	28.501875
2099.000000	28.411430
2098.000000	28.458992
2097.000000	28.412450
2096.000000	28.452778
2095.000000	28.379723
2094.000000	28.398612
2093.000000	28.472050
2092.000000	28.459247
2091.000000	28.438006
2090.000000	28.311224
2089.000000	28.339027
2088.000000	28.416887
2087.000000	28.379064
2086.000000	28.288418
2085.000000	28.289569
2084.000000	28.197617
2083.000000	28.166227
2082.000000	28.053804
2081.000000	27.969541
2080.000000	27.914173
2079.000000	27.826340
2078.000000	27.773901
2077.000000	27.709514
2076.000000	27.545003
2075.000000	27.441004
2074.000000	27.353223
2073.000000	27.238789
2072.000000	27.104865
2071.000000	26.978077
2070.000000	26.919560
2069.000000	26.780066
2068.000000	26.574238
2067.000000	26.384201
2066.000000	26.239797
2065.000000	26.087259
2064.000000	25.893874
2063.000000	25.742982
2062.000000	25.697109
2061.000000	25.485649
2060.000000	25.339270
2059.000000	25.290534
2058.000000	25.123326
2057.000000	24.944985
2056.000000	24.836259
2055.000000	24.724183
2054.000000	24.575348
2053.000000	24.414407
2052.000000	24.232322
2051.000000	24.034914
2050.000000	24.033986
2049.000000	23.981545
2048.000000	23.897690
2047.000000	23.794154
2046.000000	23.705983
2045.000000	23.643396
2044.000000	23.628553
2043.000000	23.611452
2042.000000	23.548438
2041.000000	23.602562
2040.000000	23.639983
2039.000000	23.603587
2038.000000	23.651209
2037.000000	23.710375
2036.000000	23.785768
2035.000000	23.933639
2034.000000	24.052043
2033.000000	24.116891
2032.000000	24.242795
2031.000000	24.363246
2030.000000	24.371077
2029.000000	24.461798
2028.000000	24.623011
2027.000000	24.759458
2026.000000	24.815814
2025.000000	24.873245
2024.000000	24.974694
2023.000000	25.074669
2022.000000	25.146127
2021.000000	25.154297
2020.000000	25.169569
2019.000000	25.169666
2018.000000	25.160671
2017.000000	25.203324
2016.000000	25.216654
2015.000000	25.168447
2014.000000	25.182264
2013.000000	25.151033
2012.000000	25.101673
2011.000000	25.098875
2010.000000	25.049495
2009.000000	24.945323
2008.000000	24.862168
2007.000000	24.772158
2006.000000	24.690945
2005.000000	24.605881
2004.000000	24.503783
2003.000000	24.427183
2002.000000	24.361435
2001.000000	24.267937
2000.000000	24.136081
1999.000000	24.055124
1998.000000	23.922239
1997.000000	23.828907
1996.000000	23.757078
1995.000000	23.631680
1994.000000	23.473010
1993.000000	23.409968
1992.000000	23.275116
1991.000000	23.182895
1990.000000	23.105708
1989.000000	22.956426
1988.000000	22.853914
1987.000000	22.762797
1986.000000	22.619289
1985.000000	22.504371
1984.000000	22.442294
1983.000000	22.312986
1982.000000	22.191450
1981.000000	22.119888
1980.000000	22.022481
1979.000000	21.920086
1978.000000	21.826111
1977.000000	21.650306
1976.000000	21.513193
1975.000000	21.461208
1974.000000	21.381442
1973.000000	21.298021
1972.000000	21.201246
1971.000000	21.092314
1970.000000	21.002162
1969.000000	20.918063
1968.000000	20.812140
1967.000000	20.718653
1966.000000	20.647300
1965.000000	20.566175
1964.000000	20.436308
1963.000000	20.341237
1962.000000	20.271986
1961.000000	20.178661
1960.000000	20.104013
1959.000000	19.979584
1958.000000	19.983192
1957.000000	19.911383
1956.000000	19.780551
1955.000000	19.830264
1954.000000	19.768388
1953.000000	19.637932
1952.000000	19.647745
1951.000000	19.620640
1950.000000	19.530829
1949.000000	19.466972
1948.000000	19.411401
1947.000000	19.399057
1946.000000	19.366143
1945.000000	19.269400
1944.000000	19.308665
1943.000000	19.347829
1942.000000	19.412022
1941.000000	19.428597
1940.000000	19.546257
1939.000000	19.504639
1938.000000	19.565272
1937.000000	19.631907
1936.000000	19.762643
1935.000000	19.768410
1934.000000	19.820335
1933.000000	19.961785
1932.000000	20.055899
1931.000000	20.192242
1930.000000	20.375059
1929.000000	20.464428
1928.000000	20.662538
1927.000000	20.875810
1926.000000	21.045310
1925.000000	21.218758
1924.000000	21.477864
1923.000000	21.708166
1922.000000	21.862847
1921.000000	22.211149
1920.000000	22.463904
1919.000000	22.738869
1918.000000	23.072456
1917.000000	23.395020
1916.000000	23.627286
1915.000000	24.078222
1914.000000	24.373519
1913.000000	24.834490
1912.000000	25.188756
1911.000000	25.559682
1910.000000	25.867368
1909.000000	26.401805
1908.000000	26.849892
1907.000000	27.306460
1906.000000	27.769807
1905.000000	28.352853
1904.000000	28.767903
1903.000000	29.371407
1902.000000	29.988591
1901.000000	30.445627
1900.000000	31.001266
1899.000000	31.636353
1898.000000	32.254510
1897.000000	32.761223
1896.000000	33.320091
1895.000000	33.913452
1894.000000	34.501974
1893.000000	35.032114
1892.000000	35.569720
1891.000000	36.153632
1890.000000	36.756735
1889.000000	37.340820
1888.000000	37.781015
1887.000000	38.327392
1886.000000	38.834461
1885.000000	39.275907
1884.000000	39.824111
1883.000000	40.317018
1882.000000	40.719683
1881.000000	41.161103
1880.000000	41.573956
1879.000000	41.969621
1878.000000	42.441488
1877.000000	42.781095
1876.000000	43.091553
1875.000000	43.486574
1874.000000	43.764767
1873.000000	44.096111
1872.000000	44.443335
1871.000000	44.741863
1870.000000	45.012686
1869.000000	45.201450
1868.000000	45.361033
1867.000000	45.494626
1866.000000	45.666505
1865.000000	45.863082
1864.000000	45.947394
1863.000000	46.121659
1862.000000	46.242338
1861.000000	46.296076
1860.000000	46.406060
1859.000000	46.510198
1858.000000	46.573320
1857.000000	46.647560
1856.000000	46.704220
1855.000000	46.736634
1854.000000	46.802037
1853.000000	46.896520
1852.000000	46.896988
1851.000000	46.855624
1850.000000	46.895441
1849.000000	46.954225
1848.000000	46.995606
1847.000000	46.983538
1846.000000	46.957395
1845.000000	46.897433
1844.000000	46.918887
1843.000000	46.914624
1842.000000	46.906621
1841.000000	46.847101
1840.000000	46.831083
1839.000000	46.845303
1838.000000	46.820241
1837.000000	46.742520
1836.000000	46.705036
1835.000000	46.622745
1834.000000	46.540846
1833.000000	46.512098
1832.000000	46.479529
1831.000000	46.400875
1830.000000	46.337396
1829.000000	46.293045
1828.000000	46.235700
1827.000000	46.199792
1826.000000	46.171711
1825.000000	46.126188
1824.000000	46.105014
1823.000000	46.078951
1822.000000	46.023737
1821.000000	45.969492
1820.000000	45.950972
1819.000000	45.873575
1818.000000	45.848386
1817.000000	45.826274
1816.000000	45.779438
1815.000000	45.728653
1814.000000	45.662007
1813.000000	45.614003
1812.000000	45.595716
1811.000000	45.552434
1810.000000	45.492005
1809.000000	45.457474
1808.000000	45.410734
1807.000000	45.364497
1806.000000	45.333439
1805.000000	45.286391
1804.000000	45.240403
1803.000000	45.214742
1802.000000	45.168161
1801.000000	45.121982
1800.000000	45.104055
1799.000000	45.045239
1798.000000	44.998039
1797.000000	44.974809
1796.000000	44.940056
1795.000000	44.928942
1794.000000	44.915665
1793.000000	44.850526
1792.000000	44.799681
1791.000000	44.788264
1790.000000	44.761758
1789.000000	44.741145
1788.000000	44.736015
1787.000000	44.687449
1786.000000	44.631032
1785.000000	44.608857
1784.000000	44.567948
1783.000000	44.512111
1782.000000	44.481023
1781.000000	44.444692
1780.000000	44.404663
1779.000000	44.363715
1778.000000	44.296834
1777.000000	44.234500
1776.000000	44.179103
1775.000000	44.098827
1774.000000	44.029724
1773.000000	43.974592
1772.000000	43.908056
1771.000000	43.850454
1770.000000	43.782885
1769.000000	43.701296
1768.000000	43.668360
1767.000000	43.604851
1766.000000	43.530750
1765.000000	43.474987
1764.000000	43.452357
1763.000000	43.367903
1762.000000	43.301644
1761.000000	43.260151
1760.000000	43.183242
1759.000000	43.116526
1758.000000	43.072224
1757.000000	43.022289
1756.000000	42.973400
1755.000000	42.883640
1754.000000	42.824164
1753.000000	42.782408
1752.000000	42.745707
1751.000000	42.718047
1750.000000	42.641350
1749.000000	42.584040
1748.000000	42.525811
1747.000000	42.457477
1746.000000	42.383174
1745.000000	42.276792
1744.000000	42.202151
1743.000000	42.147071
1742.000000	42.072168
1741.000000	41.996398
1740.000000	41.981075
1739.000000	41.904192
1738.000000	41.832042
1737.000000	41.770418
1736.000000	41.752767
1735.000000	41.710891
1734.000000	41.725830
1733.000000	41.670121
1732.000000	41.676565
1731.000000	41.676705
1730.000000	41.666321
1729.000000	41.740159
1728.000000	41.791948
1727.000000	41.825594
1726.000000	41.888074
1725.000000	42.003061
1724.000000	42.061756
1723.000000	42.172610
1722.000000	42.279458
1721.000000	42.416678
1720.000000	42.529097
1719.000000	42.690978
1718.000000	42.785822
1717.000000	42.903871
1716.000000	43.046720
1715.000000	43.137535
1714.000000	43.274547
1713.000000	43.407611
1712.000000	43.462506
1711.000000	43.582375
1710.000000	43.687702
1709.000000	43.804363
1708.000000	43.851447
1707.000000	43.915052
1706.000000	43.961521
1705.000000	44.047356
1704.000000	44.127569
1703.000000	44.093837
1702.000000	44.126882
1701.000000	44.143578
1700.000000	44.226392
1699.000000	44.225752
1698.000000	44.263683
1697.000000	44.297713
1696.000000	44.372336
1695.000000	44.425150
1694.000000	44.462365
1693.000000	44.498638
1692.000000	44.596672
1691.000000	44.696088
1690.000000	44.764309
1689.000000	44.859343
1688.000000	45.019429
1687.000000	45.137022
1686.000000	45.276008
1685.000000	45.410353
1684.000000	45.591049
1683.000000	45.773534
1682.000000	45.957088
1681.000000	46.166269
1680.000000	46.363841
1679.000000	46.562758
1678.000000	46.796421
1677.000000	46.974689
1676.000000	47.167302
1675.000000	47.417305
1674.000000	47.616877
1673.000000	47.816433
1672.000000	48.012808
1671.000000	48.184983
1670.000000	48.391856
1669.000000	48.602314
1668.000000	48.740612
1667.000000	48.915442
1666.000000	49.061901
1665.000000	49.185316
1664.000000	49.301057
1663.000000	49.387431
1662.000000	49.478983
1661.000000	49.592848
1660.000000	49.670872
1659.000000	49.770187
1658.000000	49.834618
1657.000000	49.894055
1656.000000	49.944921
1655.000000	49.972565
1654.000000	49.987652
1653.000000	50.043226
1652.000000	50.047480
1651.000000	50.040099
1650.000000	50.041313
1649.000000	50.027945
1648.000000	50.022831
1647.000000	50.012353
1646.000000	49.989165
1645.000000	49.962539
1644.000000	49.959701
1643.000000	49.929212
1642.000000	49.900672
1641.000000	49.868043
1640.000000	49.845666
1639.000000	49.823974
1638.000000	49.760452
1637.000000	49.726918
1636.000000	49.688451
1635.000000	49.634858
1634.000000	49.582427
1633.000000	49.518479
1632.000000	49.463249
1631.000000	49.412620
1630.000000	49.369016
1629.000000	49.291986
1628.000000	49.245379
1627.000000	49.182910
1626.000000	49.128363
1625.000000	49.083294
1624.000000	49.031282
1623.000000	48.951042
1622.000000	48.894540
1621.000000	48.826899
1620.000000	48.745161
1619.000000	48.655198
1618.000000	48.576562
1617.000000	48.530844
1616.000000	48.471154
1615.000000	48.388285
1614.000000	48.318059
1613.000000	48.236512
1612.000000	48.149145
1611.000000	48.064157
1610.000000	47.985316
1609.000000	47.928852
1608.000000	47.854213
1607.000000	47.764078
1606.000000	47.668608
1605.000000	47.588811
1604.000000	47.500291
1603.000000	47.405420
1602.000000	47.319673
1601.000000	47.235137
1600.000000	47.168173
1599.000000	47.095139
1598.000000	47.009619
1597.000000	46.924335
1596.000000	46.855836
1595.000000	46.789866
1594.000000	46.705337
1593.000000	46.636223
1592.000000	46.567664
1591.000000	46.479325
1590.000000	46.413390
1589.000000	46.360514
1588.000000	46.289827
1587.000000	46.219873
1586.000000	46.173197
1585.000000	46.115914
1584.000000	46.045046
1583.000000	45.983501
1582.000000	45.915326
1581.000000	45.853634
1580.000000	45.803379
1579.000000	45.728667
1578.000000	45.666782
1577.000000	45.625305
1576.000000	45.572274
1575.000000	45.491923
1574.000000	45.409017
1573.000000	45.348459
1572.000000	45.297748
1571.000000	45.246136
1570.000000	45.167401
1569.000000	45.112222
1568.000000	45.079547
1567.000000	45.025030
1566.000000	44.972336
1565.000000	44.939839
1564.000000	44.909512
1563.000000	44.867114
1562.000000	44.816910
1561.000000	44.771243
1560.000000	44.749174
1559.000000	44.698302
1558.000000	44.669099
1557.000000	44.643134
1556.000000	44.612922
1555.000000	44.577666
1554.000000	44.542751
1553.000000	44.519281
1552.000000	44.461609
1551.000000	44.411149
1550.000000	44.361935
1549.000000	44.327754
1548.000000	44.283620
1547.000000	44.204366
1546.000000	44.095406
1545.000000	44.012015
1544.000000	43.946471
1543.000000	43.851573
1542.000000	43.746946
1541.000000	43.651216
1540.000000	43.555114
1539.000000	43.431185
1538.000000	43.320563
1537.000000	43.213967
1536.000000	43.108773
1535.000000	42.997339
1534.000000	42.885035
1533.000000	42.785392
1532.000000	42.673889
1531.000000	42.570992
1530.000000	42.475301
1529.000000	42.368769
1528.000000	42.298353
1527.000000	42.196598
1526.000000	42.130753
1525.000000	42.024133
1524.000000	41.962815
1523.000000	41.907787
1522.000000	41.827695
1521.000000	41.767939
1520.000000	41.730805
1519.000000	41.657138
1518.000000	41.628675
1517.000000	41.575760
1516.000000	41.530858
1515.000000	41.490279
1514.000000	41.451396
1513.000000	41.433839
1512.000000	41.392299
1511.000000	41.363416
1510.000000	41.327249
1509.000000	41.301671
1508.000000	41.278250
1507.000000	41.245607
1506.000000	41.232699
1505.000000	41.208086
1504.000000	41.181090
1503.000000	41.167186
1502.000000	41.157504
1501.000000	41.144744
1500.000000	41.131690
1499.000000	41.121649
1498.000000	41.132326
1497.000000	41.101700
1496.000000	41.106771
1495.000000	41.129812
1494.000000	41.127202
1493.000000	41.147358
1492.000000	41.137225
1491.000000	41.165430
1490.000000	41.170305
1489.000000	41.196119
1488.000000	41.243036
1487.000000	41.230484
1486.000000	41.288065
1485.000000	41.322323
1484.000000	41.346191
1483.000000	41.372332
1482.000000	41.400261
1481.000000	41.447075
1480.000000	41.487315
1479.000000	41.525758
1478.000000	41.577829
1477.000000	41.610683
1476.000000	41.642552
1475.000000	41.682685
1474.000000	41.716921
1473.000000	41.752732
1472.000000	41.800364
1471.000000	41.821059
1470.000000	41.884080
