PE UV       SUBTECH     SPECTRUM    ASCII       PEDS        4.00        
   -1
RDVeauUK 322.Sample.asc
18/03/12
11:38:01.00
18/03/12
11:38:01.00
Administrator

200.000000
1
Lambda 750
750N8071901
PerkinElmer UV WinLab 6.0.4.0738 / 1.61.00 Lambda 900

0
0
3350/servo 860.8/2
0
0
UV/VIS
1
1
1
CommonBeamDepol,150mm sphere / downward view
0
0
0
0
Program
Program
3350/servo 860.8/2
3350/0.2 860.8/0.2
3350/0.2 860.8/0.2
0
1
 
 
 
0
 
860.8
319.2
860.8
Front
100
on
 
 
0
0
0
 
0
 
 
 
0
 
 
0
0
0
0
0
 
 
 
 
0
0


0
0
#HDR
-1
-1
#GR
nm
%R
1.0
0.0
2350.000000
-1.000000
2151
8
56.637210
11.669201
#DATA
2350.000000	22.937154
2349.000000	23.441580
2348.000000	22.653389
2347.000000	23.602769
2346.000000	23.581533
2345.000000	22.629381
2344.000000	23.143444
2343.000000	22.927801
2342.000000	23.365775
2341.000000	23.001920
2340.000000	23.148869
2339.000000	23.620044
2338.000000	23.661934
2337.000000	23.853089
2336.000000	23.824037
2335.000000	24.124192
2334.000000	24.060437
2333.000000	23.998461
2332.000000	24.084858
2331.000000	24.005020
2330.000000	23.746181
2329.000000	23.823157
2328.000000	24.059096
2327.000000	23.550970
2326.000000	23.709230
2325.000000	23.572437
2324.000000	23.748820
2323.000000	23.805999
2322.000000	23.636561
2321.000000	23.689639
2320.000000	23.544281
2319.000000	23.355876
2318.000000	23.468772
2317.000000	23.682444
2316.000000	23.256721
2315.000000	23.193942
2314.000000	23.566561
2313.000000	23.407429
2312.000000	23.459180
2311.000000	23.245464
2310.000000	23.540625
2309.000000	23.621351
2308.000000	23.541990
2307.000000	23.136985
2306.000000	23.164393
2305.000000	23.088469
2304.000000	23.098504
2303.000000	23.162799
2302.000000	23.070082
2301.000000	22.924432
2300.000000	22.792441
2299.000000	23.009299
2298.000000	22.895046
2297.000000	22.917432
2296.000000	22.619502
2295.000000	22.444698
2294.000000	22.533880
2293.000000	22.525068
2292.000000	22.444173
2291.000000	22.347254
2290.000000	22.512990
2289.000000	22.484586
2288.000000	22.461795
2287.000000	22.411016
2286.000000	22.155907
2285.000000	22.228820
2284.000000	22.412953
2283.000000	22.447915
2282.000000	22.417130
2281.000000	22.363734
2280.000000	22.199134
2279.000000	22.194323
2278.000000	22.062330
2277.000000	22.179136
2276.000000	22.359284
2275.000000	22.232232
2274.000000	22.289517
2273.000000	22.411167
2272.000000	22.312142
2271.000000	22.326760
2270.000000	22.446013
2269.000000	22.308837
2268.000000	22.320441
2267.000000	22.658223
2266.000000	22.800899
2265.000000	22.624790
2264.000000	22.631711
2263.000000	22.696095
2262.000000	22.775217
2261.000000	23.044112
2260.000000	23.068331
2259.000000	23.047647
2258.000000	23.253524
2257.000000	23.437990
2256.000000	23.416526
2255.000000	23.454222
2254.000000	23.739824
2253.000000	23.781015
2252.000000	23.812964
2251.000000	23.996077
2250.000000	24.146343
2249.000000	24.366747
2248.000000	24.497407
2247.000000	24.563123
2246.000000	24.516917
2245.000000	24.627935
2244.000000	24.876619
2243.000000	25.065705
2242.000000	25.198224
2241.000000	25.184266
2240.000000	25.175960
2239.000000	25.345570
2238.000000	25.541522
2237.000000	25.661631
2236.000000	25.698995
2235.000000	25.574232
2234.000000	25.646635
2233.000000	25.700807
2232.000000	25.721814
2231.000000	25.883329
2230.000000	26.042935
2229.000000	26.054612
2228.000000	26.035751
2227.000000	26.112993
2226.000000	25.937725
2225.000000	25.828380
2224.000000	25.890660
2223.000000	25.865419
2222.000000	25.912789
2221.000000	25.782118
2220.000000	25.729615
2219.000000	25.817959
2218.000000	25.825166
2217.000000	25.779186
2216.000000	25.781508
2215.000000	25.765170
2214.000000	25.796572
2213.000000	25.880106
2212.000000	25.737159
2211.000000	25.581743
2210.000000	25.477272
2209.000000	25.480025
2208.000000	25.433150
2207.000000	25.515367
2206.000000	25.533642
2205.000000	25.468191
2204.000000	25.354982
2203.000000	25.230408
2202.000000	25.316057
2201.000000	25.350809
2200.000000	25.218582
2199.000000	25.215801
2198.000000	25.157575
2197.000000	25.135127
2196.000000	25.091885
2195.000000	24.913217
2194.000000	24.817096
2193.000000	24.775735
2192.000000	24.761623
2191.000000	24.619255
2190.000000	24.686190
2189.000000	24.611048
2188.000000	24.549024
2187.000000	24.591783
2186.000000	24.586839
2185.000000	24.432512
2184.000000	24.551307
2183.000000	24.626623
2182.000000	24.556110
2181.000000	24.424610
2180.000000	24.415233
2179.000000	24.427005
2178.000000	24.402432
2177.000000	24.553148
2176.000000	24.529211
2175.000000	24.550920
2174.000000	24.678872
2173.000000	24.632941
2172.000000	24.532438
2171.000000	24.688866
2170.000000	24.775602
2169.000000	24.863464
2168.000000	24.809124
2167.000000	24.957390
2166.000000	24.797032
2165.000000	25.029593
2164.000000	25.094267
2163.000000	25.088332
2162.000000	25.138243
2161.000000	25.180382
2160.000000	25.430336
2159.000000	25.363317
2158.000000	25.422445
2157.000000	25.591523
2156.000000	25.736768
2155.000000	25.756392
2154.000000	25.824039
2153.000000	25.952563
2152.000000	26.129153
2151.000000	26.135570
2150.000000	26.306728
2149.000000	26.273455
2148.000000	26.383723
2147.000000	26.559897
2146.000000	26.497750
2145.000000	26.615238
2144.000000	26.658550
2143.000000	26.917482
2142.000000	26.854134
2141.000000	27.172684
2140.000000	27.216869
2139.000000	27.263500
2138.000000	27.486930
2137.000000	27.372478
2136.000000	27.381030
2135.000000	27.337263
2134.000000	27.536182
2133.000000	27.396209
2132.000000	27.704841
2131.000000	27.685603
2130.000000	27.778839
2129.000000	27.869123
2128.000000	27.630383
2127.000000	27.964212
2126.000000	27.740306
2125.000000	27.762454
2124.000000	27.809893
2123.000000	27.982480
2122.000000	28.000270
2121.000000	28.020955
2120.000000	27.999115
2119.000000	27.991019
2118.000000	28.094383
2117.000000	28.150615
2116.000000	28.103516
2115.000000	28.222093
2114.000000	28.220814
2113.000000	28.186155
2112.000000	28.112826
2111.000000	28.222888
2110.000000	28.229844
2109.000000	28.157399
2108.000000	27.995694
2107.000000	28.168778
2106.000000	28.156794
2105.000000	28.204669
2104.000000	28.237564
2103.000000	28.248829
2102.000000	28.290648
2101.000000	28.367665
2100.000000	28.356366
2099.000000	28.315318
2098.000000	28.314693
2097.000000	28.149400
2096.000000	28.139496
2095.000000	28.230037
2094.000000	28.279174
2093.000000	28.251390
2092.000000	28.257333
2091.000000	28.174488
2090.000000	28.136349
2089.000000	28.177151
2088.000000	28.134820
2087.000000	28.202348
2086.000000	28.173472
2085.000000	28.158216
2084.000000	27.991472
2083.000000	27.894749
2082.000000	27.878040
2081.000000	27.907523
2080.000000	27.895004
2079.000000	27.821196
2078.000000	27.730340
2077.000000	27.750553
2076.000000	27.636516
2075.000000	27.575139
2074.000000	27.537006
2073.000000	27.446367
2072.000000	27.338688
2071.000000	27.259763
2070.000000	27.258245
2069.000000	27.108461
2068.000000	27.002780
2067.000000	26.870685
2066.000000	26.779554
2065.000000	26.711275
2064.000000	26.629582
2063.000000	26.484450
2062.000000	26.332399
2061.000000	26.298435
2060.000000	26.185565
2059.000000	26.132512
2058.000000	26.046780
2057.000000	25.928087
2056.000000	25.870695
2055.000000	25.747607
2054.000000	25.682043
2053.000000	25.589180
2052.000000	25.485620
2051.000000	25.363557
2050.000000	25.294878
2049.000000	25.315341
2048.000000	25.211816
2047.000000	25.159813
2046.000000	25.089735
2045.000000	25.078859
2044.000000	25.086430
2043.000000	25.010477
2042.000000	24.894103
2041.000000	24.943573
2040.000000	25.049687
2039.000000	25.050937
2038.000000	25.064320
2037.000000	25.094422
2036.000000	25.101963
2035.000000	25.131120
2034.000000	25.213619
2033.000000	25.261926
2032.000000	25.279215
2031.000000	25.324670
2030.000000	25.389381
2029.000000	25.472512
2028.000000	25.585431
2027.000000	25.653803
2026.000000	25.709998
2025.000000	25.749933
2024.000000	25.763366
2023.000000	25.775555
2022.000000	25.787045
2021.000000	25.803919
2020.000000	25.820656
2019.000000	25.855814
2018.000000	25.877383
2017.000000	25.839823
2016.000000	25.836837
2015.000000	25.811604
2014.000000	25.827089
2013.000000	25.832049
2012.000000	25.787212
2011.000000	25.735278
2010.000000	25.667617
2009.000000	25.631592
2008.000000	25.605266
2007.000000	25.502689
2006.000000	25.417318
2005.000000	25.346388
2004.000000	25.268751
2003.000000	25.204874
2002.000000	25.161970
2001.000000	25.114025
2000.000000	25.033148
1999.000000	25.002328
1998.000000	24.943659
1997.000000	24.805868
1996.000000	24.730887
1995.000000	24.688140
1994.000000	24.624416
1993.000000	24.561420
1992.000000	24.453039
1991.000000	24.375007
1990.000000	24.338011
1989.000000	24.228316
1988.000000	24.141318
1987.000000	24.128600
1986.000000	24.017354
1985.000000	23.954436
1984.000000	23.934137
1983.000000	23.872431
1982.000000	23.805514
1981.000000	23.774508
1980.000000	23.691689
1979.000000	23.607586
1978.000000	23.543397
1977.000000	23.434939
1976.000000	23.397190
1975.000000	23.319278
1974.000000	23.242487
1973.000000	23.218014
1972.000000	23.180227
1971.000000	23.107573
1970.000000	23.052367
1969.000000	22.987325
1968.000000	22.905019
1967.000000	22.883602
1966.000000	22.853213
1965.000000	22.791127
1964.000000	22.701202
1963.000000	22.641141
1962.000000	22.685391
1961.000000	22.599939
1960.000000	22.540473
1959.000000	22.510514
1958.000000	22.399571
1957.000000	22.405915
1956.000000	22.315471
1955.000000	22.345421
1954.000000	22.317029
1953.000000	22.266242
1952.000000	22.252140
1951.000000	22.291465
1950.000000	22.264757
1949.000000	22.195874
1948.000000	22.150722
1947.000000	22.162965
1946.000000	22.197141
1945.000000	22.213546
1944.000000	22.208789
1943.000000	22.220749
1942.000000	22.208792
1941.000000	22.275799
1940.000000	22.337394
1939.000000	22.358165
1938.000000	22.399372
1937.000000	22.468100
1936.000000	22.552671
1935.000000	22.560666
1934.000000	22.634496
1933.000000	22.778300
1932.000000	22.792860
1931.000000	22.886453
1930.000000	23.006736
1929.000000	23.071706
1928.000000	23.189841
1927.000000	23.298099
1926.000000	23.483182
1925.000000	23.654578
1924.000000	23.801733
1923.000000	23.956258
1922.000000	24.155128
1921.000000	24.250787
1920.000000	24.410452
1919.000000	24.682055
1918.000000	24.884488
1917.000000	25.046281
1916.000000	25.168582
1915.000000	25.485707
1914.000000	25.703169
1913.000000	26.051276
1912.000000	26.244479
1911.000000	26.532142
1910.000000	26.804198
1909.000000	27.078570
1908.000000	27.365950
1907.000000	27.697127
1906.000000	28.011705
1905.000000	28.349013
1904.000000	28.667442
1903.000000	28.979761
1902.000000	29.435025
1901.000000	29.825483
1900.000000	30.239116
1899.000000	30.569217
1898.000000	30.922138
1897.000000	31.347523
1896.000000	31.734806
1895.000000	32.120904
1894.000000	32.528572
1893.000000	32.945399
1892.000000	33.282079
1891.000000	33.632349
1890.000000	34.034055
1889.000000	34.440828
1888.000000	34.832180
1887.000000	35.112811
1886.000000	35.457485
1885.000000	35.829153
1884.000000	36.215139
1883.000000	36.621841
1882.000000	36.879002
1881.000000	37.215796
1880.000000	37.517808
1879.000000	37.840136
1878.000000	38.130734
1877.000000	38.360249
1876.000000	38.626100
1875.000000	38.935460
1874.000000	39.143209
1873.000000	39.379275
1872.000000	39.608833
1871.000000	39.835802
1870.000000	39.963379
1869.000000	40.151264
1868.000000	40.301195
1867.000000	40.418140
1866.000000	40.529094
1865.000000	40.622798
1864.000000	40.754323
1863.000000	40.803924
1862.000000	40.912781
1861.000000	40.995077
1860.000000	41.074744
1859.000000	41.139547
1858.000000	41.225693
1857.000000	41.330009
1856.000000	41.355596
1855.000000	41.372689
1854.000000	41.390954
1853.000000	41.438672
1852.000000	41.473417
1851.000000	41.503848
1850.000000	41.508491
1849.000000	41.551472
1848.000000	41.558339
1847.000000	41.557018
1846.000000	41.536194
1845.000000	41.522786
1844.000000	41.541193
1843.000000	41.517235
1842.000000	41.482521
1841.000000	41.452125
1840.000000	41.418204
1839.000000	41.435521
1838.000000	41.392265
1837.000000	41.370603
1836.000000	41.361265
1835.000000	41.289637
1834.000000	41.251172
1833.000000	41.204197
1832.000000	41.157488
1831.000000	41.126073
1830.000000	41.089872
1829.000000	41.000543
1828.000000	40.973202
1827.000000	40.945376
1826.000000	40.913507
1825.000000	40.877926
1824.000000	40.862389
1823.000000	40.848593
1822.000000	40.802708
1821.000000	40.768207
1820.000000	40.740733
1819.000000	40.722023
1818.000000	40.695824
1817.000000	40.654749
1816.000000	40.614914
1815.000000	40.607472
1814.000000	40.567846
1813.000000	40.515069
1812.000000	40.489291
1811.000000	40.463322
1810.000000	40.458913
1809.000000	40.441311
1808.000000	40.391555
1807.000000	40.345289
1806.000000	40.315953
1805.000000	40.254434
1804.000000	40.205037
1803.000000	40.217381
1802.000000	40.186663
1801.000000	40.146648
1800.000000	40.133235
1799.000000	40.108816
1798.000000	40.088431
1797.000000	40.081855
1796.000000	40.060198
1795.000000	40.031539
1794.000000	40.028561
1793.000000	40.016238
1792.000000	39.981088
1791.000000	39.964502
1790.000000	39.961739
1789.000000	39.943559
1788.000000	39.939526
1787.000000	39.915552
1786.000000	39.903606
1785.000000	39.895972
1784.000000	39.866713
1783.000000	39.836255
1782.000000	39.818105
1781.000000	39.804637
1780.000000	39.799815
1779.000000	39.777896
1778.000000	39.718772
1777.000000	39.688197
1776.000000	39.658968
1775.000000	39.609784
1774.000000	39.570347
1773.000000	39.542159
1772.000000	39.490490
1771.000000	39.454076
1770.000000	39.402884
1769.000000	39.389175
1768.000000	39.342292
1767.000000	39.280343
1766.000000	39.270143
1765.000000	39.247285
1764.000000	39.193318
1763.000000	39.131418
1762.000000	39.092984
1761.000000	39.038805
1760.000000	39.019912
1759.000000	38.958860
1758.000000	38.924206
1757.000000	38.881985
1756.000000	38.870631
1755.000000	38.819741
1754.000000	38.787082
1753.000000	38.742344
1752.000000	38.718578
1751.000000	38.698387
1750.000000	38.622142
1749.000000	38.610894
1748.000000	38.553920
1747.000000	38.490289
1746.000000	38.459839
1745.000000	38.394515
1744.000000	38.361723
1743.000000	38.328058
1742.000000	38.286837
1741.000000	38.268556
1740.000000	38.213139
1739.000000	38.172193
1738.000000	38.173147
1737.000000	38.131816
1736.000000	38.105711
1735.000000	38.082024
1734.000000	38.082548
1733.000000	38.109418
1732.000000	38.097521
1731.000000	38.112901
1730.000000	38.099454
1729.000000	38.159518
1728.000000	38.190779
1727.000000	38.241427
1726.000000	38.285127
1725.000000	38.319432
1724.000000	38.390827
1723.000000	38.442739
1722.000000	38.548408
1721.000000	38.636262
1720.000000	38.711988
1719.000000	38.826060
1718.000000	38.889035
1717.000000	38.982378
1716.000000	39.088195
1715.000000	39.116405
1714.000000	39.220522
1713.000000	39.315538
1712.000000	39.378485
1711.000000	39.426800
1710.000000	39.520921
1709.000000	39.584725
1708.000000	39.591714
1707.000000	39.662901
1706.000000	39.664748
1705.000000	39.712365
1704.000000	39.741827
1703.000000	39.742760
1702.000000	39.724120
1701.000000	39.767208
1700.000000	39.804979
1699.000000	39.775869
1698.000000	39.786301
1697.000000	39.845404
1696.000000	39.889268
1695.000000	39.894962
1694.000000	39.897477
1693.000000	39.931322
1692.000000	39.983384
1691.000000	40.050700
1690.000000	40.095277
1689.000000	40.164276
1688.000000	40.269524
1687.000000	40.368615
1686.000000	40.453660
1685.000000	40.586967
1684.000000	40.675355
1683.000000	40.821176
1682.000000	40.950256
1681.000000	41.119533
1680.000000	41.259683
1679.000000	41.415509
1678.000000	41.568218
1677.000000	41.702261
1676.000000	41.859589
1675.000000	42.054060
1674.000000	42.192992
1673.000000	42.356224
1672.000000	42.505840
1671.000000	42.645450
1670.000000	42.808281
1669.000000	42.960543
1668.000000	43.064280
1667.000000	43.220487
1666.000000	43.280020
1665.000000	43.388206
1664.000000	43.489175
1663.000000	43.569415
1662.000000	43.620486
1661.000000	43.696689
1660.000000	43.793647
1659.000000	43.841508
1658.000000	43.900214
1657.000000	43.929664
1656.000000	43.978215
1655.000000	43.983867
1654.000000	43.978624
1653.000000	44.041598
1652.000000	44.056024
1651.000000	44.035935
1650.000000	44.031953
1649.000000	44.037451
1648.000000	44.020764
1647.000000	44.011944
1646.000000	43.975830
1645.000000	43.963466
1644.000000	43.963099
1643.000000	43.961112
1642.000000	43.916459
1641.000000	43.888215
1640.000000	43.837942
1639.000000	43.814681
1638.000000	43.795751
1637.000000	43.751411
1636.000000	43.724014
1635.000000	43.675034
1634.000000	43.641437
1633.000000	43.592929
1632.000000	43.539811
1631.000000	43.491642
1630.000000	43.441664
1629.000000	43.411140
1628.000000	43.361800
1627.000000	43.319669
1626.000000	43.277593
1625.000000	43.235106
1624.000000	43.185665
1623.000000	43.119088
1622.000000	43.071742
1621.000000	43.006903
1620.000000	42.962233
1619.000000	42.906234
1618.000000	42.842727
1617.000000	42.796954
1616.000000	42.743713
1615.000000	42.675865
1614.000000	42.621558
1613.000000	42.568268
1612.000000	42.505534
1611.000000	42.450475
1610.000000	42.390253
1609.000000	42.331760
1608.000000	42.256195
1607.000000	42.189910
1606.000000	42.127194
1605.000000	42.071737
1604.000000	42.007541
1603.000000	41.933855
1602.000000	41.876117
1601.000000	41.821513
1600.000000	41.772986
1599.000000	41.707382
1598.000000	41.648192
1597.000000	41.600127
1596.000000	41.525701
1595.000000	41.465908
1594.000000	41.421366
1593.000000	41.368607
1592.000000	41.318383
1591.000000	41.262273
1590.000000	41.214288
1589.000000	41.152861
1588.000000	41.106609
1587.000000	41.062592
1586.000000	41.011910
1585.000000	40.974623
1584.000000	40.929931
1583.000000	40.889620
1582.000000	40.846539
1581.000000	40.794073
1580.000000	40.764316
1579.000000	40.726627
1578.000000	40.687801
1577.000000	40.630715
1576.000000	40.566930
1575.000000	40.523402
1574.000000	40.472940
1573.000000	40.421983
1572.000000	40.383025
1571.000000	40.338295
1570.000000	40.280768
1569.000000	40.254700
1568.000000	40.218298
1567.000000	40.168408
1566.000000	40.147652
1565.000000	40.104467
1564.000000	40.069278
1563.000000	40.047520
1562.000000	40.005767
1561.000000	39.982111
1560.000000	39.970048
1559.000000	39.932167
1558.000000	39.902988
1557.000000	39.901038
1556.000000	39.878757
1555.000000	39.845646
1554.000000	39.800749
1553.000000	39.779671
1552.000000	39.747847
1551.000000	39.719966
1550.000000	39.688014
1549.000000	39.633580
1548.000000	39.595482
1547.000000	39.544124
1546.000000	39.496907
1545.000000	39.426505
1544.000000	39.361518
1543.000000	39.303332
1542.000000	39.243804
1541.000000	39.157967
1540.000000	39.096476
1539.000000	39.008504
1538.000000	38.938958
1537.000000	38.863031
1536.000000	38.781165
1535.000000	38.688228
1534.000000	38.623603
1533.000000	38.549633
1532.000000	38.475905
1531.000000	38.419590
1530.000000	38.353205
1529.000000	38.270377
1528.000000	38.207225
1527.000000	38.154846
1526.000000	38.105138
1525.000000	38.044952
1524.000000	37.984289
1523.000000	37.941334
1522.000000	37.874582
1521.000000	37.838275
1520.000000	37.825306
1519.000000	37.787946
1518.000000	37.757117
1517.000000	37.722057
1516.000000	37.705889
1515.000000	37.655511
1514.000000	37.627981
1513.000000	37.616650
1512.000000	37.578931
1511.000000	37.574193
1510.000000	37.555243
1509.000000	37.546053
1508.000000	37.515167
1507.000000	37.493146
1506.000000	37.481917
1505.000000	37.467130
1504.000000	37.471172
1503.000000	37.446652
1502.000000	37.441618
1501.000000	37.434808
1500.000000	37.410924
1499.000000	37.413445
1498.000000	37.412984
1497.000000	37.410990
1496.000000	37.411060
1495.000000	37.421213
1494.000000	37.420951
1493.000000	37.429296
1492.000000	37.448058
1491.000000	37.440999
1490.000000	37.460531
1489.000000	37.481513
1488.000000	37.509660
1487.000000	37.512429
1486.000000	37.572458
1485.000000	37.555194
1484.000000	37.575942
1483.000000	37.605493
1482.000000	37.616955
1481.000000	37.654146
1480.000000	37.690621
1479.000000	37.713790
1478.000000	37.719911
1477.000000	37.742067
1476.000000	37.759881
1475.000000	37.802374
1474.000000	37.809413
1473.000000	37.845785
1472.000000	37.876900
1471.000000	37.890193
1470.000000	37.933576
