PE UV       SUBTECH     SPECTRUM    ASCII       PEDS        4.00        
   -1
RDVeauUK 32.Sample.asc
18/03/12
10:42:42.00
18/03/12
10:42:42.00
Administrator

200.000000
1
Lambda 750
750N8071901
PerkinElmer UV WinLab 6.0.4.0738 / 1.61.00 Lambda 900

0
0
3350/servo 860.8/2
0
0
UV/VIS
1
1
1
CommonBeamDepol,150mm sphere / downward view
0
0
0
0
Program
Program
3350/servo 860.8/2
3350/0.2 860.8/0.2
3350/0.2 860.8/0.2
0
1
 
 
 
0
 
860.8
319.2
860.8
Front
100
on
 
 
0
0
0
 
0
 
 
 
0
 
 
0
0
0
0
0
 
 
 
 
0
0


0
0
#HDR
-1
-1
#GR
nm
%R
1.0
0.0
2350.000000
-1.000000
2151
8
56.847963
11.716129
#DATA
2350.000000	23.474752
2349.000000	23.375903
2348.000000	23.322155
2347.000000	23.860626
2346.000000	23.604928
2345.000000	23.332528
2344.000000	23.476822
2343.000000	22.959606
2342.000000	23.399666
2341.000000	23.333067
2340.000000	23.411769
2339.000000	23.726203
2338.000000	23.915029
2337.000000	23.468316
2336.000000	23.620479
2335.000000	23.863102
2334.000000	23.941315
2333.000000	23.978067
2332.000000	24.254695
2331.000000	23.899740
2330.000000	24.000783
2329.000000	23.909372
2328.000000	24.108511
2327.000000	23.913537
2326.000000	24.052230
2325.000000	23.964992
2324.000000	23.862750
2323.000000	23.541270
2322.000000	23.849623
2321.000000	23.667680
2320.000000	23.972036
2319.000000	23.824970
2318.000000	23.971342
2317.000000	23.887113
2316.000000	23.610317
2315.000000	23.580271
2314.000000	23.397531
2313.000000	23.513241
2312.000000	23.618735
2311.000000	23.711818
2310.000000	23.540625
2309.000000	23.461420
2308.000000	23.565029
2307.000000	23.236288
2306.000000	23.155102
2305.000000	23.366545
2304.000000	23.243625
2303.000000	23.219677
2302.000000	23.126309
2301.000000	22.923624
2300.000000	22.568952
2299.000000	22.727548
2298.000000	22.700251
2297.000000	22.549368
2296.000000	22.657438
2295.000000	22.743884
2294.000000	22.720720
2293.000000	22.750351
2292.000000	22.581560
2291.000000	22.521095
2290.000000	22.594548
2289.000000	22.347680
2288.000000	22.465630
2287.000000	22.429183
2286.000000	22.346520
2285.000000	22.388280
2284.000000	22.330697
2283.000000	22.322458
2282.000000	22.173083
2281.000000	22.259985
2280.000000	22.369512
2279.000000	22.473485
2278.000000	22.237290
2277.000000	22.224745
2276.000000	22.331948
2275.000000	22.450044
2274.000000	22.524160
2273.000000	22.446274
2272.000000	22.445523
2271.000000	22.393927
2270.000000	22.447023
2269.000000	22.406480
2268.000000	22.456064
2267.000000	22.539023
2266.000000	22.548996
2265.000000	22.741072
2264.000000	22.743525
2263.000000	22.857195
2262.000000	22.921673
2261.000000	23.033107
2260.000000	23.110106
2259.000000	23.180567
2258.000000	23.372193
2257.000000	23.593134
2256.000000	23.597821
2255.000000	23.601352
2254.000000	23.863893
2253.000000	24.034191
2252.000000	24.053217
2251.000000	24.263177
2250.000000	24.531804
2249.000000	24.658213
2248.000000	24.589385
2247.000000	24.562215
2246.000000	24.658991
2245.000000	24.755304
2244.000000	24.978494
2243.000000	25.112739
2242.000000	25.248373
2241.000000	25.325882
2240.000000	25.382805
2239.000000	25.489621
2238.000000	25.502817
2237.000000	25.623008
2236.000000	25.760606
2235.000000	25.787427
2234.000000	25.805646
2233.000000	25.752764
2232.000000	25.740006
2231.000000	25.900404
2230.000000	26.026672
2229.000000	26.073809
2228.000000	26.111482
2227.000000	26.140470
2226.000000	26.050553
2225.000000	25.907973
2224.000000	25.841593
2223.000000	25.884405
2222.000000	25.935418
2221.000000	26.004570
2220.000000	26.003482
2219.000000	26.038528
2218.000000	25.952146
2217.000000	25.853291
2216.000000	25.909812
2215.000000	25.889945
2214.000000	25.814345
2213.000000	25.843028
2212.000000	25.833885
2211.000000	25.657881
2210.000000	25.619176
2209.000000	25.582763
2208.000000	25.423358
2207.000000	25.416635
2206.000000	25.423275
2205.000000	25.431818
2204.000000	25.335196
2203.000000	25.334841
2202.000000	25.319588
2201.000000	25.264474
2200.000000	25.301044
2199.000000	25.300558
2198.000000	25.236387
2197.000000	25.157615
2196.000000	25.098443
2195.000000	25.006384
2194.000000	24.997656
2193.000000	24.877616
2192.000000	24.810762
2191.000000	24.884969
2190.000000	24.823081
2189.000000	24.911290
2188.000000	24.621624
2187.000000	24.630292
2186.000000	24.614633
2185.000000	24.515507
2184.000000	24.616269
2183.000000	24.670508
2182.000000	24.669957
2181.000000	24.496562
2180.000000	24.655686
2179.000000	24.505938
2178.000000	24.580549
2177.000000	24.528555
2176.000000	24.598136
2175.000000	24.581241
2174.000000	24.735167
2173.000000	24.607474
2172.000000	24.653677
2171.000000	24.816258
2170.000000	24.753660
2169.000000	24.794177
2168.000000	24.934767
2167.000000	24.923523
2166.000000	24.906193
2165.000000	25.030298
2164.000000	25.058140
2163.000000	25.265701
2162.000000	25.350183
2161.000000	25.446192
2160.000000	25.519546
2159.000000	25.576158
2158.000000	25.485697
2157.000000	25.803792
2156.000000	25.865103
2155.000000	25.831298
2154.000000	25.996099
2153.000000	26.061809
2152.000000	26.029350
2151.000000	26.073291
2150.000000	26.321914
2149.000000	26.467414
2148.000000	26.425642
2147.000000	26.458141
2146.000000	26.640331
2145.000000	26.724997
2144.000000	26.720180
2143.000000	26.877470
2142.000000	26.917715
2141.000000	27.055274
2140.000000	27.313384
2139.000000	27.433373
2138.000000	27.489843
2137.000000	27.428827
2136.000000	27.563091
2135.000000	27.370598
2134.000000	27.730924
2133.000000	27.648085
2132.000000	27.606802
2131.000000	27.681282
2130.000000	27.819269
2129.000000	28.057644
2128.000000	27.733333
2127.000000	27.946826
2126.000000	27.739603
2125.000000	27.989955
2124.000000	27.999099
2123.000000	27.861247
2122.000000	27.910933
2121.000000	28.031725
2120.000000	28.134834
2119.000000	27.990416
2118.000000	28.106750
2117.000000	28.199833
2116.000000	28.275391
2115.000000	28.292288
2114.000000	28.267708
2113.000000	28.147995
2112.000000	28.276242
2111.000000	28.202336
2110.000000	28.138406
2109.000000	28.238003
2108.000000	28.247653
2107.000000	28.235397
2106.000000	28.232058
2105.000000	28.182007
2104.000000	28.287464
2103.000000	28.467634
2102.000000	28.480439
2101.000000	28.435629
2100.000000	28.508521
2099.000000	28.367404
2098.000000	28.209967
2097.000000	28.250550
2096.000000	28.289086
2095.000000	28.263278
2094.000000	28.372485
2093.000000	28.303102
2092.000000	28.305442
2091.000000	28.272110
2090.000000	28.203981
2089.000000	28.164653
2088.000000	28.260429
2087.000000	28.234726
2086.000000	28.195434
2085.000000	28.096723
2084.000000	27.984617
2083.000000	28.094021
2082.000000	28.033334
2081.000000	27.951390
2080.000000	27.905294
2079.000000	27.901477
2078.000000	27.781262
2077.000000	27.754687
2076.000000	27.628243
2075.000000	27.577360
2074.000000	27.598805
2073.000000	27.569159
2072.000000	27.457566
2071.000000	27.333334
2070.000000	27.230214
2069.000000	27.177066
2068.000000	27.148183
2067.000000	26.995611
2066.000000	26.859040
2065.000000	26.773142
2064.000000	26.605361
2063.000000	26.526938
2062.000000	26.492709
2061.000000	26.367428
2060.000000	26.307431
2059.000000	26.193980
2058.000000	26.091873
2057.000000	26.044476
2056.000000	25.938332
2055.000000	25.838352
2054.000000	25.684062
2053.000000	25.566851
2052.000000	25.540476
2051.000000	25.433316
2050.000000	25.341525
2049.000000	25.329686
2048.000000	25.347471
2047.000000	25.269486
2046.000000	25.161241
2045.000000	25.099855
2044.000000	25.067958
2043.000000	25.079853
2042.000000	25.061580
2041.000000	25.112424
2040.000000	25.099575
2039.000000	25.054776
2038.000000	25.080589
2037.000000	25.151308
2036.000000	25.224005
2035.000000	25.269438
2034.000000	25.342403
2033.000000	25.369061
2032.000000	25.382695
2031.000000	25.412118
2030.000000	25.457100
2029.000000	25.527894
2028.000000	25.636670
2027.000000	25.675030
2026.000000	25.686438
2025.000000	25.729705
2024.000000	25.773883
2023.000000	25.799821
2022.000000	25.808578
2021.000000	25.837264
2020.000000	25.877162
2019.000000	25.869666
2018.000000	25.857461
2017.000000	25.903139
2016.000000	25.880927
2015.000000	25.815446
2014.000000	25.811720
2013.000000	25.792596
2012.000000	25.764354
2011.000000	25.752479
2010.000000	25.676317
2009.000000	25.630783
2008.000000	25.596260
2007.000000	25.513921
2006.000000	25.414789
2005.000000	25.396903
2004.000000	25.333958
2003.000000	25.243440
2002.000000	25.191630
2001.000000	25.153611
2000.000000	25.073735
1999.000000	25.006680
1998.000000	24.922702
1997.000000	24.862151
1996.000000	24.831304
1995.000000	24.750618
1994.000000	24.656715
1993.000000	24.578740
1992.000000	24.452735
1991.000000	24.412881
1990.000000	24.382481
1989.000000	24.308341
1988.000000	24.203891
1987.000000	24.114016
1986.000000	24.080852
1985.000000	24.008828
1984.000000	23.931097
1983.000000	23.899494
1982.000000	23.806831
1981.000000	23.719908
1980.000000	23.700908
1979.000000	23.641930
1978.000000	23.581604
1977.000000	23.498658
1976.000000	23.407419
1975.000000	23.368516
1974.000000	23.256271
1973.000000	23.211936
1972.000000	23.225810
1971.000000	23.126817
1970.000000	23.082649
1969.000000	22.969197
1968.000000	22.906235
1967.000000	22.899803
1966.000000	22.879851
1965.000000	22.800953
1964.000000	22.731384
1963.000000	22.689663
1962.000000	22.619156
1961.000000	22.543329
1960.000000	22.508773
1959.000000	22.426764
1958.000000	22.372233
1957.000000	22.417156
1956.000000	22.384630
1955.000000	22.341068
1954.000000	22.273602
1953.000000	22.252172
1952.000000	22.276443
1951.000000	22.229309
1950.000000	22.185725
1949.000000	22.239698
1948.000000	22.224381
1947.000000	22.168125
1946.000000	22.161543
1945.000000	22.251477
1944.000000	22.204742
1943.000000	22.223684
1942.000000	22.252791
1941.000000	22.306953
1940.000000	22.368750
1939.000000	22.394968
1938.000000	22.425855
1937.000000	22.529954
1936.000000	22.609897
1935.000000	22.645347
1934.000000	22.618134
1933.000000	22.777896
1932.000000	22.833567
1931.000000	22.992929
1930.000000	23.093350
1929.000000	23.044516
1928.000000	23.229949
1927.000000	23.425896
1926.000000	23.494791
1925.000000	23.589043
1924.000000	23.803450
1923.000000	23.998756
1922.000000	24.147963
1921.000000	24.314197
1920.000000	24.510915
1919.000000	24.653865
1918.000000	24.907313
1917.000000	25.058292
1916.000000	25.283074
1915.000000	25.623355
1914.000000	25.846237
1913.000000	26.082797
1912.000000	26.310032
1911.000000	26.528909
1910.000000	26.854275
1909.000000	27.167546
1908.000000	27.371304
1907.000000	27.796057
1906.000000	28.061115
1905.000000	28.416819
1904.000000	28.726667
1903.000000	29.084745
1902.000000	29.488785
1901.000000	29.908519
1900.000000	30.198082
1899.000000	30.672977
1898.000000	31.101358
1897.000000	31.429296
1896.000000	31.774231
1895.000000	32.205363
1894.000000	32.582052
1893.000000	32.944994
1892.000000	33.347226
1891.000000	33.684450
1890.000000	34.149965
1889.000000	34.485940
1888.000000	34.880700
1887.000000	35.175159
1886.000000	35.586402
1885.000000	35.952165
1884.000000	36.354291
1883.000000	36.657299
1882.000000	36.994530
1881.000000	37.289109
1880.000000	37.559708
1879.000000	37.920607
1878.000000	38.212134
1877.000000	38.477918
1876.000000	38.726592
1875.000000	39.082674
1874.000000	39.276332
1873.000000	39.462317
1872.000000	39.711639
1871.000000	39.878178
1870.000000	40.110974
1869.000000	40.303074
1868.000000	40.381827
1867.000000	40.538225
1866.000000	40.624681
1865.000000	40.744217
1864.000000	40.829200
1863.000000	40.936976
1862.000000	41.049209
1861.000000	41.082513
1860.000000	41.175508
1859.000000	41.258201
1858.000000	41.289114
1857.000000	41.351519
1856.000000	41.390032
1855.000000	41.465069
1854.000000	41.507044
1853.000000	41.575085
1852.000000	41.587807
1851.000000	41.625716
1850.000000	41.623867
1849.000000	41.604068
1848.000000	41.625274
1847.000000	41.651623
1846.000000	41.594851
1845.000000	41.601294
1844.000000	41.636661
1843.000000	41.620478
1842.000000	41.609294
1841.000000	41.606048
1840.000000	41.544155
1839.000000	41.537699
1838.000000	41.493862
1837.000000	41.438780
1836.000000	41.408545
1835.000000	41.351367
1834.000000	41.306645
1833.000000	41.276758
1832.000000	41.227122
1831.000000	41.175394
1830.000000	41.147279
1829.000000	41.096162
1828.000000	41.049932
1827.000000	41.032726
1826.000000	41.008751
1825.000000	40.951535
1824.000000	40.911532
1823.000000	40.897644
1822.000000	40.831234
1821.000000	40.816473
1820.000000	40.839943
1819.000000	40.811112
1818.000000	40.778443
1817.000000	40.734140
1816.000000	40.716485
1815.000000	40.697915
1814.000000	40.651403
1813.000000	40.605414
1812.000000	40.569310
1811.000000	40.531083
1810.000000	40.508343
1809.000000	40.500168
1808.000000	40.450302
1807.000000	40.378408
1806.000000	40.361642
1805.000000	40.348748
1804.000000	40.313116
1803.000000	40.285364
1802.000000	40.256071
1801.000000	40.238442
1800.000000	40.226448
1799.000000	40.190681
1798.000000	40.164420
1797.000000	40.160690
1796.000000	40.136610
1795.000000	40.117783
1794.000000	40.102954
1793.000000	40.085368
1792.000000	40.051221
1791.000000	40.057352
1790.000000	40.040512
1789.000000	40.019179
1788.000000	40.003081
1787.000000	40.006995
1786.000000	40.001642
1785.000000	39.957416
1784.000000	39.932515
1783.000000	39.921604
1782.000000	39.894528
1781.000000	39.858550
1780.000000	39.851802
1779.000000	39.838206
1778.000000	39.793580
1777.000000	39.763498
1776.000000	39.723023
1775.000000	39.687515
1774.000000	39.643615
1773.000000	39.625589
1772.000000	39.578983
1771.000000	39.561720
1770.000000	39.523199
1769.000000	39.480603
1768.000000	39.418819
1767.000000	39.387057
1766.000000	39.350308
1765.000000	39.303843
1764.000000	39.271770
1763.000000	39.220917
1762.000000	39.191721
1761.000000	39.151635
1760.000000	39.100912
1759.000000	39.064282
1758.000000	39.043418
1757.000000	39.000071
1756.000000	38.967947
1755.000000	38.902955
1754.000000	38.839778
1753.000000	38.816514
1752.000000	38.793766
1751.000000	38.763461
1750.000000	38.711129
1749.000000	38.687010
1748.000000	38.649085
1747.000000	38.584261
1746.000000	38.517921
1745.000000	38.477410
1744.000000	38.476334
1743.000000	38.419371
1742.000000	38.370341
1741.000000	38.336760
1740.000000	38.301713
1739.000000	38.258833
1738.000000	38.257768
1737.000000	38.205976
1736.000000	38.218159
1735.000000	38.184897
1734.000000	38.211181
1733.000000	38.179959
1732.000000	38.178805
1731.000000	38.192738
1730.000000	38.166818
1729.000000	38.257530
1728.000000	38.295289
1727.000000	38.285925
1726.000000	38.371454
1725.000000	38.402538
1724.000000	38.491761
1723.000000	38.567366
1722.000000	38.621757
1721.000000	38.719533
1720.000000	38.789896
1719.000000	38.945062
1718.000000	38.989452
1717.000000	39.046013
1716.000000	39.159623
1715.000000	39.218732
1714.000000	39.311401
1713.000000	39.413753
1712.000000	39.457423
1711.000000	39.505125
1710.000000	39.552745
1709.000000	39.609655
1708.000000	39.663638
1707.000000	39.743264
1706.000000	39.762112
1705.000000	39.822628
1704.000000	39.821474
1703.000000	39.824129
1702.000000	39.824392
1701.000000	39.837632
1700.000000	39.863554
1699.000000	39.843656
1698.000000	39.879394
1697.000000	39.879236
1696.000000	39.955614
1695.000000	39.974794
1694.000000	39.976497
1693.000000	39.999392
1692.000000	40.062717
1691.000000	40.161949
1690.000000	40.191122
1689.000000	40.289995
1688.000000	40.376827
1687.000000	40.447229
1686.000000	40.547054
1685.000000	40.668408
1684.000000	40.780907
1683.000000	40.919427
1682.000000	41.034934
1681.000000	41.199874
1680.000000	41.371834
1679.000000	41.517343
1678.000000	41.639433
1677.000000	41.792103
1676.000000	41.954404
1675.000000	42.119910
1674.000000	42.262878
1673.000000	42.438577
1672.000000	42.580494
1671.000000	42.701148
1670.000000	42.847263
1669.000000	43.032730
1668.000000	43.143140
1667.000000	43.282060
1666.000000	43.377622
1665.000000	43.468809
1664.000000	43.540412
1663.000000	43.586322
1662.000000	43.686391
1661.000000	43.802704
1660.000000	43.823416
1659.000000	43.882105
1658.000000	43.941015
1657.000000	43.981700
1656.000000	44.038053
1655.000000	44.070930
1654.000000	44.047347
1653.000000	44.079864
1652.000000	44.109578
1651.000000	44.112387
1650.000000	44.113769
1649.000000	44.091518
1648.000000	44.060654
1647.000000	44.077759
1646.000000	44.096638
1645.000000	44.054082
1644.000000	44.036508
1643.000000	44.024609
1642.000000	43.991790
1641.000000	43.956850
1640.000000	43.905567
1639.000000	43.879178
1638.000000	43.858725
1637.000000	43.822377
1636.000000	43.774227
1635.000000	43.738009
1634.000000	43.696614
1633.000000	43.653973
1632.000000	43.611479
1631.000000	43.573341
1630.000000	43.517393
1629.000000	43.474308
1628.000000	43.421129
1627.000000	43.386085
1626.000000	43.343910
1625.000000	43.278031
1624.000000	43.232537
1623.000000	43.208673
1622.000000	43.149691
1621.000000	43.068153
1620.000000	43.024894
1619.000000	42.960994
1618.000000	42.886351
1617.000000	42.867107
1616.000000	42.815288
1615.000000	42.744096
1614.000000	42.690296
1613.000000	42.642468
1612.000000	42.594810
1611.000000	42.533480
1610.000000	42.448552
1609.000000	42.385915
1608.000000	42.344877
1607.000000	42.275942
1606.000000	42.205331
1605.000000	42.165976
1604.000000	42.097523
1603.000000	42.026977
1602.000000	41.956388
1601.000000	41.881235
1600.000000	41.837066
1599.000000	41.790803
1598.000000	41.736871
1597.000000	41.682019
1596.000000	41.614061
1595.000000	41.551633
1594.000000	41.510941
1593.000000	41.468702
1592.000000	41.416353
1591.000000	41.346576
1590.000000	41.286147
1589.000000	41.236677
1588.000000	41.182729
1587.000000	41.143467
1586.000000	41.105347
1585.000000	41.068975
1584.000000	41.020027
1583.000000	40.967154
1582.000000	40.917588
1581.000000	40.862085
1580.000000	40.822918
1579.000000	40.770857
1578.000000	40.711280
1577.000000	40.669272
1576.000000	40.638790
1575.000000	40.597393
1574.000000	40.547232
1573.000000	40.492627
1572.000000	40.439192
1571.000000	40.384543
1570.000000	40.347753
1569.000000	40.307017
1568.000000	40.269001
1567.000000	40.233172
1566.000000	40.201078
1565.000000	40.179750
1564.000000	40.143049
1563.000000	40.124325
1562.000000	40.089749
1561.000000	40.061335
1560.000000	40.033798
1559.000000	39.994394
1558.000000	39.975535
1557.000000	39.974298
1556.000000	39.925000
1555.000000	39.882276
1554.000000	39.855787
1553.000000	39.837737
1552.000000	39.809560
1551.000000	39.764176
1550.000000	39.748614
1549.000000	39.717354
1548.000000	39.676232
1547.000000	39.617375
1546.000000	39.558423
1545.000000	39.497732
1544.000000	39.429810
1543.000000	39.366360
1542.000000	39.299347
1541.000000	39.238401
1540.000000	39.163756
1539.000000	39.069005
1538.000000	38.998947
1537.000000	38.923930
1536.000000	38.842060
1535.000000	38.779274
1534.000000	38.690371
1533.000000	38.618017
1532.000000	38.547536
1531.000000	38.472201
1530.000000	38.403590
1529.000000	38.322076
1528.000000	38.271171
1527.000000	38.233473
1526.000000	38.157365
1525.000000	38.108695
1524.000000	38.043681
1523.000000	38.005988
1522.000000	37.946817
1521.000000	37.905144
1520.000000	37.900188
1519.000000	37.850478
1518.000000	37.823287
1517.000000	37.785798
1516.000000	37.765603
1515.000000	37.725830
1514.000000	37.706396
1513.000000	37.683842
1512.000000	37.651677
1511.000000	37.656889
1510.000000	37.612105
1509.000000	37.608588
1508.000000	37.590760
1507.000000	37.549094
1506.000000	37.544638
1505.000000	37.542912
1504.000000	37.525210
1503.000000	37.530430
1502.000000	37.516812
1501.000000	37.510498
1500.000000	37.502390
1499.000000	37.496724
1498.000000	37.483609
1497.000000	37.473710
1496.000000	37.469839
1495.000000	37.493461
1494.000000	37.468196
1493.000000	37.484534
1492.000000	37.503604
1491.000000	37.503731
1490.000000	37.528214
1489.000000	37.545547
1488.000000	37.564688
1487.000000	37.579997
1486.000000	37.607359
1485.000000	37.609806
1484.000000	37.642097
1483.000000	37.660710
1482.000000	37.673587
1481.000000	37.711885
1480.000000	37.723581
1479.000000	37.766372
1478.000000	37.784018
1477.000000	37.789287
1476.000000	37.820649
1475.000000	37.842415
1474.000000	37.880397
1473.000000	37.915857
1472.000000	37.930494
1471.000000	37.939632
1470.000000	37.995658
