PE UV       SUBTECH     SPECTRUM    ASCII       PEDS        4.00        
   -1
RDVeauUK 12.Sample.asc
18/03/12
10:22:24.00
18/03/12
10:22:24.00
Administrator

200.000000
1
Lambda 750
750N8071901
PerkinElmer UV WinLab 6.0.4.0738 / 1.61.00 Lambda 900

0
0
3350/servo 860.8/2
0
0
UV/VIS
1
1
1
CommonBeamDepol,150mm sphere / downward view
0
0
0
0
Program
Program
3350/servo 860.8/2
3350/0.2 860.8/0.2
3350/0.2 860.8/0.2
0
1
 
 
 
0
 
860.8
319.2
860.8
Front
100
on
 
 
0
0
0
 
0
 
 
 
0
 
 
0
0
0
0
0
 
 
 
 
0
0


0
0
#HDR
-1
-1
#GR
nm
%R
1.0
0.0
2350.000000
-1.000000
2151
8
56.887166
11.681901
#DATA
2350.000000	22.947510
2349.000000	22.872949
2348.000000	22.794267
2347.000000	23.577577
2346.000000	22.823129
2345.000000	22.664594
2344.000000	22.902362
2343.000000	22.605122
2342.000000	22.648549
2341.000000	22.924063
2340.000000	22.965487
2339.000000	23.374157
2338.000000	23.770303
2337.000000	23.903176
2336.000000	23.807853
2335.000000	23.899625
2334.000000	23.780907
2333.000000	23.890937
2332.000000	24.086974
2331.000000	23.862097
2330.000000	23.848264
2329.000000	23.526589
2328.000000	23.819585
2327.000000	23.431526
2326.000000	23.801141
2325.000000	23.575061
2324.000000	23.754284
2323.000000	23.525336
2322.000000	23.325876
2321.000000	23.478104
2320.000000	23.628540
2319.000000	23.337710
2318.000000	23.375001
2317.000000	23.422773
2316.000000	23.393916
2315.000000	23.228437
2314.000000	23.306749
2313.000000	23.069233
2312.000000	23.189653
2311.000000	23.457930
2310.000000	23.174459
2309.000000	23.064325
2308.000000	22.798256
2307.000000	22.776810
2306.000000	22.822453
2305.000000	23.071197
2304.000000	22.797657
2303.000000	23.069387
2302.000000	22.952986
2301.000000	22.842009
2300.000000	22.727736
2299.000000	22.615576
2298.000000	22.517372
2297.000000	22.349634
2296.000000	22.294059
2295.000000	22.198844
2294.000000	22.118433
2293.000000	22.266563
2292.000000	22.046538
2291.000000	21.972562
2290.000000	22.072739
2289.000000	22.146455
2288.000000	22.243868
2287.000000	22.184329
2286.000000	21.924269
2285.000000	21.706309
2284.000000	21.728322
2283.000000	21.837586
2282.000000	21.741835
2281.000000	21.986254
2280.000000	22.035532
2279.000000	22.096086
2278.000000	22.061623
2277.000000	22.051492
2276.000000	21.965482
2275.000000	22.050134
2274.000000	22.110814
2273.000000	22.149575
2272.000000	22.132684
2271.000000	22.185760
2270.000000	22.190978
2269.000000	22.109717
2268.000000	21.987035
2267.000000	22.129702
2266.000000	22.346017
2265.000000	22.351615
2264.000000	22.412727
2263.000000	22.516713
2262.000000	22.574220
2261.000000	22.520845
2260.000000	22.710114
2259.000000	22.984365
2258.000000	23.127584
2257.000000	23.178135
2256.000000	23.195820
2255.000000	23.320421
2254.000000	23.390330
2253.000000	23.335409
2252.000000	23.638905
2251.000000	23.926623
2250.000000	23.828043
2249.000000	23.938193
2248.000000	24.099073
2247.000000	24.289912
2246.000000	24.594815
2245.000000	24.504502
2244.000000	24.379359
2243.000000	24.658555
2242.000000	24.886938
2241.000000	24.948409
2240.000000	25.117526
2239.000000	25.178876
2238.000000	25.190445
2237.000000	25.310581
2236.000000	25.398526
2235.000000	25.458890
2234.000000	25.516636
2233.000000	25.579609
2232.000000	25.607100
2231.000000	25.698631
2230.000000	25.742334
2229.000000	25.711797
2228.000000	25.780346
2227.000000	25.672150
2226.000000	25.571565
2225.000000	25.659093
2224.000000	25.630078
2223.000000	25.549629
2222.000000	25.654576
2221.000000	25.698673
2220.000000	25.750130
2219.000000	25.609217
2218.000000	25.625049
2217.000000	25.527088
2216.000000	25.478767
2215.000000	25.540130
2214.000000	25.537856
2213.000000	25.503867
2212.000000	25.358937
2211.000000	25.275270
2210.000000	25.362436
2209.000000	25.356780
2208.000000	25.279900
2207.000000	25.238856
2206.000000	25.180104
2205.000000	25.100933
2204.000000	24.951697
2203.000000	24.973816
2202.000000	25.024762
2201.000000	25.021609
2200.000000	24.958995
2199.000000	24.998058
2198.000000	24.981382
2197.000000	24.866083
2196.000000	24.803745
2195.000000	24.774222
2194.000000	24.522514
2193.000000	24.448302
2192.000000	24.438137
2191.000000	24.399695
2190.000000	24.474391
2189.000000	24.424242
2188.000000	24.407051
2187.000000	24.273033
2186.000000	24.420175
2185.000000	24.459707
2184.000000	24.299515
2183.000000	24.463592
2182.000000	24.359073
2181.000000	24.294915
2180.000000	24.238323
2179.000000	24.325591
2178.000000	24.282344
2177.000000	24.196754
2176.000000	24.254920
2175.000000	24.233199
2174.000000	24.256206
2173.000000	24.278717
2172.000000	24.279890
2171.000000	24.518809
2170.000000	24.364146
2169.000000	24.495612
2168.000000	24.751530
2167.000000	24.831971
2166.000000	24.621329
2165.000000	24.736985
2164.000000	24.863819
2163.000000	24.810156
2162.000000	24.816715
2161.000000	24.972881
2160.000000	25.103768
2159.000000	25.247543
2158.000000	25.239329
2157.000000	25.365497
2156.000000	25.482913
2155.000000	25.357562
2154.000000	25.761929
2153.000000	25.537688
2152.000000	25.801130
2151.000000	25.919300
2150.000000	25.987016
2149.000000	26.004704
2148.000000	26.134723
2147.000000	26.181429
2146.000000	26.226173
2145.000000	26.540389
2144.000000	26.553084
2143.000000	26.665447
2142.000000	26.845094
2141.000000	26.800869
2140.000000	26.926519
2139.000000	26.990317
2138.000000	27.131597
2137.000000	26.990989
2136.000000	26.981039
2135.000000	27.204623
2134.000000	27.348576
2133.000000	27.046315
2132.000000	27.398270
2131.000000	27.548638
2130.000000	27.694762
2129.000000	27.509675
2128.000000	27.486654
2127.000000	27.432797
2126.000000	27.467899
2125.000000	27.662871
2124.000000	27.736665
2123.000000	27.571835
2122.000000	27.758316
2121.000000	27.813816
2120.000000	27.877078
2119.000000	27.866547
2118.000000	27.824108
2117.000000	27.860142
2116.000000	27.850479
2115.000000	27.886305
2114.000000	27.858943
2113.000000	27.881475
2112.000000	28.019187
2111.000000	28.044264
2110.000000	28.043745
2109.000000	28.006670
2108.000000	27.840712
2107.000000	28.025059
2106.000000	27.990851
2105.000000	28.025893
2104.000000	28.000338
2103.000000	28.106113
2102.000000	28.046991
2101.000000	28.051303
2100.000000	28.127178
2099.000000	28.062749
2098.000000	27.941406
2097.000000	28.035253
2096.000000	27.972681
2095.000000	28.047009
2094.000000	28.059566
2093.000000	27.910067
2092.000000	27.988450
2091.000000	28.000928
2090.000000	27.915914
2089.000000	28.007011
2088.000000	28.047518
2087.000000	27.994263
2086.000000	27.826419
2085.000000	27.865974
2084.000000	27.780589
2083.000000	27.776657
2082.000000	27.689269
2081.000000	27.660862
2080.000000	27.579427
2079.000000	27.611518
2078.000000	27.468065
2077.000000	27.449770
2076.000000	27.428971
2075.000000	27.393870
2074.000000	27.250191
2073.000000	27.119022
2072.000000	27.077842
2071.000000	27.027259
2070.000000	26.951321
2069.000000	26.852303
2068.000000	26.751931
2067.000000	26.615284
2066.000000	26.478860
2065.000000	26.492774
2064.000000	26.433494
2063.000000	26.250212
2062.000000	26.147774
2061.000000	26.068257
2060.000000	25.998273
2059.000000	25.960422
2058.000000	25.790041
2057.000000	25.676129
2056.000000	25.640731
2055.000000	25.523522
2054.000000	25.389670
2053.000000	25.398723
2052.000000	25.319841
2051.000000	25.158824
2050.000000	25.046395
2049.000000	24.993989
2048.000000	24.926163
2047.000000	24.935115
2046.000000	24.853303
2045.000000	24.825501
2044.000000	24.815911
2043.000000	24.786900
2042.000000	24.742476
2041.000000	24.795425
2040.000000	24.843265
2039.000000	24.810924
2038.000000	24.798957
2037.000000	24.799183
2036.000000	24.853939
2035.000000	24.938343
2034.000000	24.956761
2033.000000	24.977006
2032.000000	25.101257
2031.000000	25.188089
2030.000000	25.208361
2029.000000	25.249773
2028.000000	25.340657
2027.000000	25.408889
2026.000000	25.439306
2025.000000	25.451467
2024.000000	25.477891
2023.000000	25.518334
2022.000000	25.574754
2021.000000	25.585559
2020.000000	25.551265
2019.000000	25.555814
2018.000000	25.579554
2017.000000	25.573915
2016.000000	25.518201
2015.000000	25.536124
2014.000000	25.538602
2013.000000	25.495587
2012.000000	25.466390
2011.000000	25.461392
2010.000000	25.423808
2009.000000	25.352188
2008.000000	25.286087
2007.000000	25.221062
2006.000000	25.146964
2005.000000	25.104749
2004.000000	25.036476
2003.000000	24.966293
2002.000000	24.920837
2001.000000	24.893315
2000.000000	24.813815
1999.000000	24.719017
1998.000000	24.628091
1997.000000	24.586302
1996.000000	24.536530
1995.000000	24.474479
1994.000000	24.388404
1993.000000	24.309717
1992.000000	24.210203
1991.000000	24.114549
1990.000000	24.080306
1989.000000	23.975579
1988.000000	23.874826
1987.000000	23.870853
1986.000000	23.837089
1985.000000	23.713265
1984.000000	23.631878
1983.000000	23.628454
1982.000000	23.543968
1981.000000	23.491478
1980.000000	23.425442
1979.000000	23.349553
1978.000000	23.257808
1977.000000	23.173378
1976.000000	23.134992
1975.000000	23.089907
1974.000000	22.992956
1973.000000	22.924018
1972.000000	22.860138
1971.000000	22.815063
1970.000000	22.744375
1969.000000	22.689676
1968.000000	22.654093
1967.000000	22.631374
1966.000000	22.569814
1965.000000	22.523315
1964.000000	22.456198
1963.000000	22.405011
1962.000000	22.366473
1961.000000	22.294001
1960.000000	22.223269
1959.000000	22.211465
1958.000000	22.178031
1957.000000	22.112518
1956.000000	22.088549
1955.000000	22.045214
1954.000000	22.019112
1953.000000	21.998613
1952.000000	21.969716
1951.000000	21.953348
1950.000000	21.922118
1949.000000	21.913804
1948.000000	21.890996
1947.000000	21.884318
1946.000000	21.949569
1945.000000	21.895028
1944.000000	21.874715
1943.000000	22.009931
1942.000000	21.936307
1941.000000	22.030709
1940.000000	22.035371
1939.000000	22.133103
1938.000000	22.125140
1937.000000	22.235541
1936.000000	22.356424
1935.000000	22.284897
1934.000000	22.379260
1933.000000	22.453671
1932.000000	22.485184
1931.000000	22.680978
1930.000000	22.747500
1929.000000	22.849438
1928.000000	22.931817
1927.000000	23.086451
1926.000000	23.159734
1925.000000	23.347703
1924.000000	23.572275
1923.000000	23.695410
1922.000000	23.829994
1921.000000	24.091150
1920.000000	24.183175
1919.000000	24.392376
1918.000000	24.623924
1917.000000	24.842081
1916.000000	24.974229
1915.000000	25.387849
1914.000000	25.532921
1913.000000	25.845279
1912.000000	26.160643
1911.000000	26.297640
1910.000000	26.489801
1909.000000	26.879206
1908.000000	27.156961
1907.000000	27.481381
1906.000000	27.820328
1905.000000	28.156206
1904.000000	28.532316
1903.000000	28.772419
1902.000000	29.302848
1901.000000	29.671836
1900.000000	30.047694
1899.000000	30.486087
1898.000000	30.822167
1897.000000	31.207730
1896.000000	31.539299
1895.000000	32.028961
1894.000000	32.329716
1893.000000	32.800581
1892.000000	33.212278
1891.000000	33.585610
1890.000000	33.999970
1889.000000	34.383680
1888.000000	34.779818
1887.000000	35.108365
1886.000000	35.485067
1885.000000	35.809762
1884.000000	36.225843
1883.000000	36.537288
1882.000000	36.852039
1881.000000	37.144300
1880.000000	37.483783
1879.000000	37.821860
1878.000000	38.174060
1877.000000	38.397185
1876.000000	38.640528
1875.000000	38.885413
1874.000000	39.248072
1873.000000	39.425488
1872.000000	39.609943
1871.000000	39.758011
1870.000000	39.923731
1869.000000	40.141171
1868.000000	40.321479
1867.000000	40.383123
1866.000000	40.507190
1865.000000	40.646416
1864.000000	40.744030
1863.000000	40.874488
1862.000000	41.006695
1861.000000	41.018400
1860.000000	41.139262
1859.000000	41.197410
1858.000000	41.281742
1857.000000	41.307287
1856.000000	41.379833
1855.000000	41.418425
1854.000000	41.439611
1853.000000	41.522377
1852.000000	41.560749
1851.000000	41.573516
1850.000000	41.559669
1849.000000	41.539055
1848.000000	41.569848
1847.000000	41.572566
1846.000000	41.560626
1845.000000	41.539134
1844.000000	41.504559
1843.000000	41.498969
1842.000000	41.497358
1841.000000	41.466155
1840.000000	41.419112
1839.000000	41.440872
1838.000000	41.437408
1837.000000	41.376966
1836.000000	41.329543
1835.000000	41.287919
1834.000000	41.247535
1833.000000	41.186107
1832.000000	41.150414
1831.000000	41.094640
1830.000000	41.067738
1829.000000	41.016412
1828.000000	40.982402
1827.000000	40.953262
1826.000000	40.908553
1825.000000	40.858209
1824.000000	40.833368
1823.000000	40.799138
1822.000000	40.741205
1821.000000	40.708710
1820.000000	40.727978
1819.000000	40.702282
1818.000000	40.651780
1817.000000	40.626294
1816.000000	40.597598
1815.000000	40.567467
1814.000000	40.513559
1813.000000	40.484684
1812.000000	40.475617
1811.000000	40.436178
1810.000000	40.387907
1809.000000	40.366449
1808.000000	40.342735
1807.000000	40.292015
1806.000000	40.243418
1805.000000	40.185041
1804.000000	40.166850
1803.000000	40.164292
1802.000000	40.148260
1801.000000	40.126080
1800.000000	40.084703
1799.000000	40.046505
1798.000000	40.027842
1797.000000	40.020145
1796.000000	40.006385
1795.000000	39.972454
1794.000000	39.954777
1793.000000	39.943156
1792.000000	39.922408
1791.000000	39.915137
1790.000000	39.912467
1789.000000	39.905851
1788.000000	39.903744
1787.000000	39.857563
1786.000000	39.841257
1785.000000	39.833921
1784.000000	39.837310
1783.000000	39.816489
1782.000000	39.798341
1781.000000	39.761770
1780.000000	39.719047
1779.000000	39.704003
1778.000000	39.664136
1777.000000	39.623133
1776.000000	39.605758
1775.000000	39.551207
1774.000000	39.499005
1773.000000	39.466028
1772.000000	39.429670
1771.000000	39.381097
1770.000000	39.346527
1769.000000	39.297545
1768.000000	39.257757
1767.000000	39.195823
1766.000000	39.156331
1765.000000	39.115315
1764.000000	39.106959
1763.000000	39.064014
1762.000000	39.007528
1761.000000	38.978285
1760.000000	38.933438
1759.000000	38.885065
1758.000000	38.859936
1757.000000	38.801606
1756.000000	38.747263
1755.000000	38.701559
1754.000000	38.680573
1753.000000	38.657433
1752.000000	38.640755
1751.000000	38.567429
1750.000000	38.500216
1749.000000	38.496061
1748.000000	38.426932
1747.000000	38.388816
1746.000000	38.340937
1745.000000	38.300979
1744.000000	38.238498
1743.000000	38.225192
1742.000000	38.187423
1741.000000	38.120999
1740.000000	38.046733
1739.000000	38.038940
1738.000000	38.008870
1737.000000	37.972251
1736.000000	37.956389
1735.000000	37.957865
1734.000000	37.945806
1733.000000	37.937525
1732.000000	37.955831
1731.000000	37.941170
1730.000000	37.944871
1729.000000	38.013462
1728.000000	38.077248
1727.000000	38.119893
1726.000000	38.131521
1725.000000	38.213623
1724.000000	38.272766
1723.000000	38.339897
1722.000000	38.439905
1721.000000	38.536378
1720.000000	38.604902
1719.000000	38.720945
1718.000000	38.773724
1717.000000	38.852269
1716.000000	38.927203
1715.000000	39.050247
1714.000000	39.101983
1713.000000	39.173335
1712.000000	39.286373
1711.000000	39.311896
1710.000000	39.377106
1709.000000	39.440111
1708.000000	39.489095
1707.000000	39.546257
1706.000000	39.534964
1705.000000	39.581226
1704.000000	39.626917
1703.000000	39.618122
1702.000000	39.590525
1701.000000	39.660712
1700.000000	39.685397
1699.000000	39.636548
1698.000000	39.680445
1697.000000	39.718076
1696.000000	39.758906
1695.000000	39.751506
1694.000000	39.759801
1693.000000	39.805411
1692.000000	39.868183
1691.000000	39.944214
1690.000000	40.005917
1689.000000	40.100758
1688.000000	40.192922
1687.000000	40.243197
1686.000000	40.363912
1685.000000	40.471389
1684.000000	40.598571
1683.000000	40.720190
1682.000000	40.889989
1681.000000	41.017107
1680.000000	41.202037
1679.000000	41.342857
1678.000000	41.499332
1677.000000	41.649794
1676.000000	41.830212
1675.000000	42.013132
1674.000000	42.159162
1673.000000	42.330597
1672.000000	42.480617
1671.000000	42.588842
1670.000000	42.747530
1669.000000	42.898986
1668.000000	43.045349
1667.000000	43.192233
1666.000000	43.264023
1665.000000	43.339905
1664.000000	43.445633
1663.000000	43.525576
1662.000000	43.621903
1661.000000	43.691221
1660.000000	43.774206
1659.000000	43.833004
1658.000000	43.863159
1657.000000	43.903646
1656.000000	43.941766
1655.000000	43.973541
1654.000000	43.999372
1653.000000	44.014772
1652.000000	44.018061
1651.000000	44.047884
1650.000000	44.047648
1649.000000	44.035932
1648.000000	44.015904
1647.000000	44.005970
1646.000000	43.993552
1645.000000	43.966909
1644.000000	43.947506
1643.000000	43.935997
1642.000000	43.909574
1641.000000	43.850050
1640.000000	43.815873
1639.000000	43.816301
1638.000000	43.782285
1637.000000	43.741591
1636.000000	43.693948
1635.000000	43.643243
1634.000000	43.606407
1633.000000	43.555776
1632.000000	43.506609
1631.000000	43.463295
1630.000000	43.422226
1629.000000	43.367003
1628.000000	43.331427
1627.000000	43.276134
1626.000000	43.235576
1625.000000	43.200179
1624.000000	43.152460
1623.000000	43.076775
1622.000000	43.028414
1621.000000	42.969243
1620.000000	42.912833
1619.000000	42.865645
1618.000000	42.786856
1617.000000	42.745934
1616.000000	42.702205
1615.000000	42.649039
1614.000000	42.581673
1613.000000	42.509252
1612.000000	42.449256
1611.000000	42.402899
1610.000000	42.351285
1609.000000	42.280338
1608.000000	42.226634
1607.000000	42.152056
1606.000000	42.071527
1605.000000	42.022846
1604.000000	41.952276
1603.000000	41.878285
1602.000000	41.808297
1601.000000	41.749746
1600.000000	41.715587
1599.000000	41.656357
1598.000000	41.588465
1597.000000	41.515097
1596.000000	41.438454
1595.000000	41.407408
1594.000000	41.365193
1593.000000	41.304744
1592.000000	41.259884
1591.000000	41.190318
1590.000000	41.133825
1589.000000	41.094149
1588.000000	41.043041
1587.000000	40.995381
1586.000000	40.951778
1585.000000	40.900417
1584.000000	40.835887
1583.000000	40.793056
1582.000000	40.744317
1581.000000	40.688818
1580.000000	40.650452
1579.000000	40.601731
1578.000000	40.545614
1577.000000	40.499560
1576.000000	40.448714
1575.000000	40.417831
1574.000000	40.356542
1573.000000	40.311766
1572.000000	40.270895
1571.000000	40.222824
1570.000000	40.164810
1569.000000	40.128514
1568.000000	40.094626
1567.000000	40.056993
1566.000000	40.013073
1565.000000	39.976160
1564.000000	39.955333
1563.000000	39.924672
1562.000000	39.889104
1561.000000	39.853816
1560.000000	39.826155
1559.000000	39.784136
1558.000000	39.772162
1557.000000	39.758058
1556.000000	39.733148
1555.000000	39.705296
1554.000000	39.650000
1553.000000	39.635111
1552.000000	39.606918
1551.000000	39.566594
1550.000000	39.535248
1549.000000	39.487481
1548.000000	39.468894
1547.000000	39.408447
1546.000000	39.322377
1545.000000	39.287998
1544.000000	39.214817
1543.000000	39.149050
1542.000000	39.067057
1541.000000	39.023304
1540.000000	38.952910
1539.000000	38.855631
1538.000000	38.784485
1537.000000	38.690653
1536.000000	38.615372
1535.000000	38.535675
1534.000000	38.459616
1533.000000	38.392633
1532.000000	38.327585
1531.000000	38.251640
1530.000000	38.194161
1529.000000	38.115280
1528.000000	38.031475
1527.000000	37.961567
1526.000000	37.912729
1525.000000	37.869001
1524.000000	37.797919
1523.000000	37.771352
1522.000000	37.704110
1521.000000	37.644346
1520.000000	37.645185
1519.000000	37.601564
1518.000000	37.564273
1517.000000	37.529923
1516.000000	37.492030
1515.000000	37.466915
1514.000000	37.436345
1513.000000	37.432682
1512.000000	37.388313
1511.000000	37.393822
1510.000000	37.362196
1509.000000	37.350152
1508.000000	37.324412
1507.000000	37.303550
1506.000000	37.282831
1505.000000	37.284200
1504.000000	37.266151
1503.000000	37.267865
1502.000000	37.249534
1501.000000	37.247303
1500.000000	37.232343
1499.000000	37.234946
1498.000000	37.214263
1497.000000	37.230617
1496.000000	37.222885
1495.000000	37.231994
1494.000000	37.224383
1493.000000	37.251137
1492.000000	37.261383
1491.000000	37.266464
1490.000000	37.296334
1489.000000	37.299728
1488.000000	37.333855
1487.000000	37.340677
1486.000000	37.358094
1485.000000	37.378715
1484.000000	37.409138
1483.000000	37.432760
1482.000000	37.436845
1481.000000	37.479308
1480.000000	37.515507
1479.000000	37.530159
1478.000000	37.563993
1477.000000	37.572802
1476.000000	37.588194
1475.000000	37.613389
1474.000000	37.657841
1473.000000	37.694720
1472.000000	37.706007
1471.000000	37.743695
1470.000000	37.785145
