PE UV       SUBTECH     SPECTRUM    ASCII       PEDS        4.00        
   -1
RDVeauUK 122.Sample.asc
18/03/12
11:27:53.00
18/03/12
11:27:53.00
Administrator

200.000000
1
Lambda 750
750N8071901
PerkinElmer UV WinLab 6.0.4.0738 / 1.61.00 Lambda 900

0
0
3350/servo 860.8/2
0
0
UV/VIS
1
1
1
CommonBeamDepol,150mm sphere / downward view
0
0
0
0
Program
Program
3350/servo 860.8/2
3350/0.2 860.8/0.2
3350/0.2 860.8/0.2
0
1
 
 
 
0
 
860.8
319.2
860.8
Front
100
on
 
 
0
0
0
 
0
 
 
 
0
 
 
0
0
0
0
0
 
 
 
 
0
0


0
0
#HDR
-1
-1
#GR
nm
%R
1.0
0.0
2350.000000
-1.000000
2151
8
56.475991
11.635889
#DATA
2350.000000	22.537600
2349.000000	23.192369
2348.000000	22.820908
2347.000000	23.648516
2346.000000	23.069981
2345.000000	22.914302
2344.000000	23.018061
2343.000000	22.206051
2342.000000	22.735940
2341.000000	23.132559
2340.000000	22.960940
2339.000000	23.417305
2338.000000	23.503208
2337.000000	23.474867
2336.000000	23.159282
2335.000000	23.346457
2334.000000	23.923894
2333.000000	23.878519
2332.000000	23.590356
2331.000000	23.685858
2330.000000	23.647729
2329.000000	23.587754
2328.000000	23.409742
2327.000000	23.762442
2326.000000	23.471776
2325.000000	23.373285
2324.000000	23.553844
2323.000000	23.514646
2322.000000	23.296991
2321.000000	23.266972
2320.000000	23.481213
2319.000000	23.252228
2318.000000	23.431021
2317.000000	23.398350
2316.000000	23.345827
2315.000000	23.098042
2314.000000	23.013273
2313.000000	23.167991
2312.000000	22.869734
2311.000000	22.839728
2310.000000	22.926369
2309.000000	23.175062
2308.000000	23.057552
2307.000000	22.697387
2306.000000	23.079665
2305.000000	22.777364
2304.000000	22.451770
2303.000000	22.726100
2302.000000	22.778149
2301.000000	22.835140
2300.000000	22.526758
2299.000000	22.409820
2298.000000	22.485057
2297.000000	22.349028
2296.000000	22.339178
2295.000000	22.445203
2294.000000	22.269560
2293.000000	22.161141
2292.000000	22.183320
2291.000000	21.927817
2290.000000	21.983620
2289.000000	21.902081
2288.000000	21.934995
2287.000000	21.986710
2286.000000	21.830424
2285.000000	21.776496
2284.000000	21.910116
2283.000000	21.968090
2282.000000	21.909750
2281.000000	21.938930
2280.000000	21.959595
2279.000000	21.877704
2278.000000	21.848523
2277.000000	21.873294
2276.000000	21.779071
2275.000000	21.881353
2274.000000	22.049634
2273.000000	22.039611
2272.000000	22.007589
2271.000000	22.070516
2270.000000	22.070885
2269.000000	22.009149
2268.000000	21.962514
2267.000000	22.174351
2266.000000	22.238463
2265.000000	22.260691
2264.000000	22.253181
2263.000000	22.461768
2262.000000	22.696232
2261.000000	22.705397
2260.000000	22.679842
2259.000000	22.729626
2258.000000	22.974375
2257.000000	23.074941
2256.000000	23.052623
2255.000000	23.218026
2254.000000	23.374279
2253.000000	23.465074
2252.000000	23.483613
2251.000000	23.586936
2250.000000	23.856667
2249.000000	24.175166
2248.000000	24.255233
2247.000000	24.235693
2246.000000	24.342855
2245.000000	24.466655
2244.000000	24.730521
2243.000000	24.880398
2242.000000	24.802886
2241.000000	24.862956
2240.000000	25.003286
2239.000000	25.047966
2238.000000	25.207726
2237.000000	25.313513
2236.000000	25.268525
2235.000000	25.382164
2234.000000	25.468619
2233.000000	25.494901
2232.000000	25.587594
2231.000000	25.640230
2230.000000	25.669305
2229.000000	25.645417
2228.000000	25.603908
2227.000000	25.568606
2226.000000	25.521868
2225.000000	25.555763
2224.000000	25.578991
2223.000000	25.513475
2222.000000	25.542946
2221.000000	25.553403
2220.000000	25.650688
2219.000000	25.560696
2218.000000	25.507464
2217.000000	25.622294
2216.000000	25.590516
2215.000000	25.568071
2214.000000	25.504128
2213.000000	25.519931
2212.000000	25.401141
2211.000000	25.356963
2210.000000	25.392231
2209.000000	25.335464
2208.000000	25.219730
2207.000000	25.186764
2206.000000	24.979483
2205.000000	24.953322
2204.000000	25.000959
2203.000000	24.965038
2202.000000	24.689490
2201.000000	24.901790
2200.000000	24.911211
2199.000000	24.963852
2198.000000	24.972400
2197.000000	24.762721
2196.000000	24.699123
2195.000000	24.665005
2194.000000	24.504568
2193.000000	24.369117
2192.000000	24.412710
2191.000000	24.380911
2190.000000	24.369199
2189.000000	24.324935
2188.000000	24.230896
2187.000000	24.342085
2186.000000	24.405573
2185.000000	24.272869
2184.000000	24.161634
2183.000000	24.308935
2182.000000	24.284654
2181.000000	24.076640
2180.000000	24.213612
2179.000000	24.074881
2178.000000	24.175554
2177.000000	24.225681
2176.000000	24.128254
2175.000000	24.218794
2174.000000	24.253990
2173.000000	24.258987
2172.000000	24.273143
2171.000000	24.351368
2170.000000	24.520556
2169.000000	24.469567
2168.000000	24.473308
2167.000000	24.533296
2166.000000	24.469046
2165.000000	24.692092
2164.000000	24.627434
2163.000000	24.808748
2162.000000	24.874727
2161.000000	24.972378
2160.000000	25.083352
2159.000000	25.060955
2158.000000	25.210267
2157.000000	25.343909
2156.000000	25.386938
2155.000000	25.345914
2154.000000	25.645347
2153.000000	25.784221
2152.000000	25.671005
2151.000000	25.801572
2150.000000	25.828016
2149.000000	25.874395
2148.000000	25.989867
2147.000000	26.292335
2146.000000	26.087517
2145.000000	26.327009
2144.000000	26.414339
2143.000000	26.635488
2142.000000	26.599008
2141.000000	26.642883
2140.000000	26.690302
2139.000000	26.848454
2138.000000	26.991955
2137.000000	27.045631
2136.000000	27.074682
2135.000000	27.133132
2134.000000	27.320038
2133.000000	27.182697
2132.000000	27.233433
2131.000000	27.493571
2130.000000	27.470487
2129.000000	27.435171
2128.000000	27.329366
2127.000000	27.535603
2126.000000	27.436236
2125.000000	27.572132
2124.000000	27.609422
2123.000000	27.705534
2122.000000	27.624915
2121.000000	27.580609
2120.000000	27.563685
2119.000000	27.673201
2118.000000	27.754328
2117.000000	27.823405
2116.000000	27.755440
2115.000000	27.850503
2114.000000	27.859345
2113.000000	27.709803
2112.000000	27.775221
2111.000000	27.920245
2110.000000	27.880002
2109.000000	28.068332
2108.000000	27.921174
2107.000000	28.032820
2106.000000	27.968685
2105.000000	27.889117
2104.000000	27.911102
2103.000000	28.026100
2102.000000	27.959497
2101.000000	27.872178
2100.000000	28.064141
2099.000000	27.976107
2098.000000	27.948253
2097.000000	27.880808
2096.000000	28.009449
2095.000000	28.036332
2094.000000	28.002167
2093.000000	27.899381
2092.000000	27.938627
2091.000000	27.893726
2090.000000	27.812904
2089.000000	27.883337
2088.000000	27.784907
2087.000000	27.871308
2086.000000	27.850597
2085.000000	27.877567
2084.000000	27.617790
2083.000000	27.682769
2082.000000	27.695420
2081.000000	27.589969
2080.000000	27.457655
2079.000000	27.479600
2078.000000	27.415227
2077.000000	27.411656
2076.000000	27.333220
2075.000000	27.347039
2074.000000	27.234061
2073.000000	27.077889
2072.000000	26.960880
2071.000000	26.910351
2070.000000	26.911897
2069.000000	26.812654
2068.000000	26.760912
2067.000000	26.642428
2066.000000	26.491569
2065.000000	26.394978
2064.000000	26.300481
2063.000000	26.205605
2062.000000	26.153727
2061.000000	26.086715
2060.000000	25.971719
2059.000000	25.897138
2058.000000	25.734658
2057.000000	25.616268
2056.000000	25.602773
2055.000000	25.510400
2054.000000	25.372104
2053.000000	25.236253
2052.000000	25.185782
2051.000000	25.067866
2050.000000	25.023576
2049.000000	24.993383
2048.000000	24.922223
2047.000000	24.853719
2046.000000	24.831285
2045.000000	24.809552
2044.000000	24.775837
2043.000000	24.776599
2042.000000	24.699976
2041.000000	24.761695
2040.000000	24.808929
2039.000000	24.806581
2038.000000	24.834831
2037.000000	24.828889
2036.000000	24.816356
2035.000000	24.783353
2034.000000	24.806042
2033.000000	24.932838
2032.000000	25.019908
2031.000000	25.084971
2030.000000	25.147515
2029.000000	25.191360
2028.000000	25.240807
2027.000000	25.328329
2026.000000	25.381264
2025.000000	25.421428
2024.000000	25.481430
2023.000000	25.517930
2022.000000	25.544224
2021.000000	25.576162
2020.000000	25.572796
2019.000000	25.551466
2018.000000	25.545877
2017.000000	25.516870
2016.000000	25.540650
2015.000000	25.552097
2014.000000	25.552657
2013.000000	25.538783
2012.000000	25.508263
2011.000000	25.431343
2010.000000	25.320113
2009.000000	25.270350
2008.000000	25.262609
2007.000000	25.191209
2006.000000	25.096779
2005.000000	25.069824
2004.000000	25.030199
2003.000000	24.951110
2002.000000	24.903527
2001.000000	24.800070
2000.000000	24.746609
1999.000000	24.737439
1998.000000	24.668790
1997.000000	24.558161
1996.000000	24.492192
1995.000000	24.429316
1994.000000	24.368357
1993.000000	24.300803
1992.000000	24.181241
1991.000000	24.131055
1990.000000	24.058527
1989.000000	23.985810
1988.000000	23.898518
1987.000000	23.832571
1986.000000	23.764983
1985.000000	23.677509
1984.000000	23.634107
1983.000000	23.602303
1982.000000	23.564945
1981.000000	23.499278
1980.000000	23.402546
1979.000000	23.308928
1978.000000	23.257098
1977.000000	23.195360
1976.000000	23.096103
1975.000000	23.076939
1974.000000	22.978767
1973.000000	22.947927
1972.000000	22.900757
1971.000000	22.798959
1970.000000	22.744375
1969.000000	22.733833
1968.000000	22.666852
1967.000000	22.593100
1966.000000	22.552393
1965.000000	22.521694
1964.000000	22.454577
1963.000000	22.396908
1962.000000	22.354218
1961.000000	22.270810
1960.000000	22.263375
1959.000000	22.172274
1958.000000	22.134999
1957.000000	22.089022
1956.000000	22.037818
1955.000000	22.066477
1954.000000	22.115583
1953.000000	22.026550
1952.000000	21.978627
1951.000000	21.991209
1950.000000	21.949339
1949.000000	21.951960
1948.000000	21.965362
1947.000000	21.850727
1946.000000	21.833469
1945.000000	21.876416
1944.000000	21.844262
1943.000000	21.909228
1942.000000	21.977169
1941.000000	22.104853
1940.000000	22.125088
1939.000000	22.052622
1938.000000	22.132519
1937.000000	22.263436
1936.000000	22.315072
1935.000000	22.384635
1934.000000	22.306336
1933.000000	22.405245
1932.000000	22.464073
1931.000000	22.624407
1930.000000	22.719605
1929.000000	22.874000
1928.000000	22.963337
1927.000000	23.019774
1926.000000	23.133184
1925.000000	23.351641
1924.000000	23.557025
1923.000000	23.599612
1922.000000	23.793566
1921.000000	24.082971
1920.000000	24.297672
1919.000000	24.333369
1918.000000	24.533737
1917.000000	24.701978
1916.000000	24.905676
1915.000000	25.243939
1914.000000	25.545146
1913.000000	25.880336
1912.000000	25.952771
1911.000000	26.294811
1910.000000	26.515243
1909.000000	26.755286
1908.000000	27.095648
1907.000000	27.458442
1906.000000	27.719386
1905.000000	28.130842
1904.000000	28.439435
1903.000000	28.777774
1902.000000	29.234435
1901.000000	29.602033
1900.000000	29.971186
1899.000000	30.334592
1898.000000	30.679337
1897.000000	31.069150
1896.000000	31.512207
1895.000000	31.851850
1894.000000	32.252478
1893.000000	32.674067
1892.000000	33.071260
1891.000000	33.425665
1890.000000	33.825598
1889.000000	34.245310
1888.000000	34.629606
1887.000000	34.929205
1886.000000	35.319578
1885.000000	35.713514
1884.000000	36.044177
1883.000000	36.404650
1882.000000	36.741561
1881.000000	37.069673
1880.000000	37.343644
1879.000000	37.684443
1878.000000	37.981468
1877.000000	38.258223
1876.000000	38.486359
1875.000000	38.761609
1874.000000	39.030069
1873.000000	39.250222
1872.000000	39.486757
1871.000000	39.636432
1870.000000	39.833237
1869.000000	40.009145
1868.000000	40.188168
1867.000000	40.268790
1866.000000	40.400903
1865.000000	40.536907
1864.000000	40.619806
1863.000000	40.764957
1862.000000	40.860775
1861.000000	40.863317
1860.000000	40.949344
1859.000000	41.041998
1858.000000	41.118343
1857.000000	41.169948
1856.000000	41.190787
1855.000000	41.225384
1854.000000	41.289199
1853.000000	41.373444
1852.000000	41.357109
1851.000000	41.382385
1850.000000	41.416432
1849.000000	41.446280
1848.000000	41.455565
1847.000000	41.459080
1846.000000	41.430893
1845.000000	41.393218
1844.000000	41.371046
1843.000000	41.372413
1842.000000	41.360088
1841.000000	41.347861
1840.000000	41.325961
1839.000000	41.306789
1838.000000	41.238455
1837.000000	41.199606
1836.000000	41.169922
1835.000000	41.122734
1834.000000	41.079195
1833.000000	41.057154
1832.000000	41.005387
1831.000000	40.986799
1830.000000	40.939279
1829.000000	40.898758
1828.000000	40.880298
1827.000000	40.832651
1826.000000	40.767710
1825.000000	40.742437
1824.000000	40.719914
1823.000000	40.681010
1822.000000	40.627810
1821.000000	40.627255
1820.000000	40.611760
1819.000000	40.554678
1818.000000	40.518638
1817.000000	40.489892
1816.000000	40.461798
1815.000000	40.439248
1814.000000	40.403871
1813.000000	40.376918
1812.000000	40.331785
1811.000000	40.275234
1810.000000	40.259469
1809.000000	40.248433
1808.000000	40.204782
1807.000000	40.143232
1806.000000	40.121851
1805.000000	40.097819
1804.000000	40.072343
1803.000000	40.049401
1802.000000	39.999108
1801.000000	39.992442
1800.000000	39.983992
1799.000000	39.949645
1798.000000	39.919938
1797.000000	39.898142
1796.000000	39.898353
1795.000000	39.881142
1794.000000	39.857783
1793.000000	39.839259
1792.000000	39.802513
1791.000000	39.818232
1790.000000	39.805813
1789.000000	39.774277
1788.000000	39.759806
1787.000000	39.729724
1786.000000	39.721728
1785.000000	39.707181
1784.000000	39.691715
1783.000000	39.677619
1782.000000	39.677827
1781.000000	39.649282
1780.000000	39.626626
1779.000000	39.602843
1778.000000	39.553445
1777.000000	39.511753
1776.000000	39.469539
1775.000000	39.408109
1774.000000	39.356626
1773.000000	39.346002
1772.000000	39.303772
1771.000000	39.258756
1770.000000	39.222664
1769.000000	39.182803
1768.000000	39.153254
1767.000000	39.087893
1766.000000	39.063194
1765.000000	39.030882
1764.000000	38.982084
1763.000000	38.938532
1762.000000	38.888619
1761.000000	38.844064
1760.000000	38.798607
1759.000000	38.775183
1758.000000	38.714468
1757.000000	38.667403
1756.000000	38.664747
1755.000000	38.601520
1754.000000	38.551871
1753.000000	38.513651
1752.000000	38.457041
1751.000000	38.444783
1750.000000	38.400080
1749.000000	38.366633
1748.000000	38.340787
1747.000000	38.258958
1746.000000	38.217677
1745.000000	38.182717
1744.000000	38.094094
1743.000000	38.099321
1742.000000	38.052135
1741.000000	38.004250
1740.000000	37.982482
1739.000000	37.960407
1738.000000	37.899115
1737.000000	37.849563
1736.000000	37.850120
1735.000000	37.811308
1734.000000	37.845859
1733.000000	37.841848
1732.000000	37.832587
1731.000000	37.820704
1730.000000	37.874062
1729.000000	37.885246
1728.000000	37.956925
1727.000000	37.983257
1726.000000	38.028071
1725.000000	38.065958
1724.000000	38.132309
1723.000000	38.241311
1722.000000	38.300502
1721.000000	38.363049
1720.000000	38.464484
1719.000000	38.586840
1718.000000	38.639970
1717.000000	38.728950
1716.000000	38.822341
1715.000000	38.881561
1714.000000	38.999351
1713.000000	39.047754
1712.000000	39.126976
1711.000000	39.219994
1710.000000	39.230555
1709.000000	39.318502
1708.000000	39.371889
1707.000000	39.417656
1706.000000	39.432636
1705.000000	39.476234
1704.000000	39.499846
1703.000000	39.495916
1702.000000	39.489645
1701.000000	39.546211
1700.000000	39.525582
1699.000000	39.522861
1698.000000	39.559798
1697.000000	39.602600
1696.000000	39.620744
1695.000000	39.633682
1694.000000	39.694459
1693.000000	39.698747
1692.000000	39.760480
1691.000000	39.818679
1690.000000	39.880893
1689.000000	39.944039
1688.000000	40.024014
1687.000000	40.118590
1686.000000	40.222099
1685.000000	40.338185
1684.000000	40.480862
1683.000000	40.621737
1682.000000	40.742714
1681.000000	40.912554
1680.000000	41.059695
1679.000000	41.205456
1678.000000	41.396511
1677.000000	41.526729
1676.000000	41.692954
1675.000000	41.864310
1674.000000	42.029620
1673.000000	42.172678
1672.000000	42.339210
1671.000000	42.473903
1670.000000	42.624103
1669.000000	42.821736
1668.000000	42.924174
1667.000000	43.073949
1666.000000	43.140503
1665.000000	43.235608
1664.000000	43.343361
1663.000000	43.388089
1662.000000	43.483006
1661.000000	43.544399
1660.000000	43.633158
1659.000000	43.690560
1658.000000	43.751183
1657.000000	43.783579
1656.000000	43.844972
1655.000000	43.858234
1654.000000	43.875894
1653.000000	43.900684
1652.000000	43.918140
1651.000000	43.912093
1650.000000	43.904165
1649.000000	43.900458
1648.000000	43.892384
1647.000000	43.860164
1646.000000	43.887124
1645.000000	43.826277
1644.000000	43.823775
1643.000000	43.798977
1642.000000	43.767010
1641.000000	43.737479
1640.000000	43.719598
1639.000000	43.689534
1638.000000	43.650766
1637.000000	43.634687
1636.000000	43.579654
1635.000000	43.548072
1634.000000	43.514277
1633.000000	43.456363
1632.000000	43.412570
1631.000000	43.360236
1630.000000	43.302458
1629.000000	43.253421
1628.000000	43.210035
1627.000000	43.172460
1626.000000	43.128760
1625.000000	43.067558
1624.000000	43.026017
1623.000000	42.970892
1622.000000	42.913211
1621.000000	42.854843
1620.000000	42.793687
1619.000000	42.739829
1618.000000	42.684933
1617.000000	42.629519
1616.000000	42.586186
1615.000000	42.535052
1614.000000	42.466773
1613.000000	42.403672
1612.000000	42.336396
1611.000000	42.274140
1610.000000	42.211507
1609.000000	42.156136
1608.000000	42.109909
1607.000000	42.054486
1606.000000	41.978006
1605.000000	41.906642
1604.000000	41.841443
1603.000000	41.769270
1602.000000	41.703732
1601.000000	41.649838
1600.000000	41.595829
1599.000000	41.533351
1598.000000	41.472960
1597.000000	41.418527
1596.000000	41.351714
1595.000000	41.288183
1594.000000	41.233716
1593.000000	41.185722
1592.000000	41.134183
1591.000000	41.067153
1590.000000	41.010145
1589.000000	40.979255
1588.000000	40.930987
1587.000000	40.871488
1586.000000	40.824328
1585.000000	40.789259
1584.000000	40.752675
1583.000000	40.686877
1582.000000	40.652014
1581.000000	40.614430
1580.000000	40.556324
1579.000000	40.507198
1578.000000	40.448765
1577.000000	40.402207
1576.000000	40.358028
1575.000000	40.320357
1574.000000	40.274962
1573.000000	40.225637
1572.000000	40.160586
1571.000000	40.100675
1570.000000	40.067369
1569.000000	40.027625
1568.000000	39.992612
1567.000000	39.955090
1566.000000	39.911785
1565.000000	39.884180
1564.000000	39.864662
1563.000000	39.835623
1562.000000	39.798444
1561.000000	39.751726
1560.000000	39.747226
1559.000000	39.727979
1558.000000	39.688991
1557.000000	39.658995
1556.000000	39.631353
1555.000000	39.592672
1554.000000	39.567443
1553.000000	39.527071
1552.000000	39.501197
1551.000000	39.465223
1550.000000	39.430437
1549.000000	39.403303
1548.000000	39.360418
1547.000000	39.327203
1546.000000	39.259748
1545.000000	39.183080
1544.000000	39.109699
1543.000000	39.055772
1542.000000	38.969326
1541.000000	38.907966
1540.000000	38.827555
1539.000000	38.750512
1538.000000	38.688280
1537.000000	38.612961
1536.000000	38.512699
1535.000000	38.439368
1534.000000	38.359970
1533.000000	38.291271
1532.000000	38.221657
1531.000000	38.143079
1530.000000	38.062636
1529.000000	37.999033
1528.000000	37.931813
1527.000000	37.874440
1526.000000	37.824469
1525.000000	37.748092
1524.000000	37.702609
1523.000000	37.661167
1522.000000	37.617812
1521.000000	37.579704
1520.000000	37.532963
1519.000000	37.497142
1518.000000	37.464613
1517.000000	37.427836
1516.000000	37.421485
1515.000000	37.380812
1514.000000	37.343157
1513.000000	37.327846
1512.000000	37.293105
1511.000000	37.300599
1510.000000	37.267291
1509.000000	37.243095
1508.000000	37.220686
1507.000000	37.204503
1506.000000	37.201395
1505.000000	37.175737
1504.000000	37.173253
1503.000000	37.183075
1502.000000	37.155516
1501.000000	37.146619
1500.000000	37.136627
1499.000000	37.122423
1498.000000	37.147280
1497.000000	37.131680
1496.000000	37.125054
1495.000000	37.133539
1494.000000	37.144563
1493.000000	37.154217
1492.000000	37.173965
1491.000000	37.180259
1490.000000	37.188993
1489.000000	37.210808
1488.000000	37.222081
1487.000000	37.240741
1486.000000	37.269880
1485.000000	37.290223
1484.000000	37.306364
1483.000000	37.343866
1482.000000	37.354830
1481.000000	37.380817
1480.000000	37.432399
1479.000000	37.436624
1478.000000	37.454486
1477.000000	37.511123
1476.000000	37.509429
1475.000000	37.550899
1474.000000	37.567141
1473.000000	37.598258
1472.000000	37.636639
1471.000000	37.672620
1470.000000	37.698696
