PE UV       SUBTECH     SPECTRUM    ASCII       PEDS        4.00        
   -1
3C-XXX-C025.Sample.Raw.asc
23/09/06
08:55:58.00
23/09/06
08:55:58.00
Administrator

250.000000
1
Lambda 750
750N8071901
PerkinElmer UV WinLab 6.0.4.0738 / 1.61.00 Lambda 900

0
0
3350/servo 860.8/2
0
0
UV/VIS
1
1
1
CommonBeamDepol,150mm sphere / downward view
0
0
0
0
Program
Program
3350/servo 860.8/2
3350/0.2 860.8/0.2
3350/0.2 860.8/0.2
0
1
 
 
 
0
 
860.8
319.2
860.8
Front
100
on
 
 
0
0
0
 
0
 
 
 
0
 
 
0
0
0
0
0
 
 
 
 
0
0


0
0
#HDR
-1
-1
#GR
nm
%R
1.0
0.0
2500.000000
-10.000000
226
8
67.997254
16.495203
#DATA
2500.000000	16.495203
2490.000000	16.691901
2480.000000	16.839491
2470.000000	16.674274
2460.000000	17.445341
2450.000000	18.350139
2440.000000	19.172651
2430.000000	19.262929
2420.000000	19.316695
2410.000000	19.296995
2400.000000	19.241696
2390.000000	20.183666
2380.000000	19.988902
2370.000000	19.581534
2360.000000	20.333915
2350.000000	19.928347
2340.000000	20.508147
2330.000000	20.104057
2320.000000	19.517922
2310.000000	19.094078
2300.000000	18.935056
2290.000000	19.025007
2280.000000	19.317994
2270.000000	20.433648
2260.000000	21.522075
2250.000000	22.576418
2240.000000	22.854372
2230.000000	22.497573
2220.000000	22.013559
2210.000000	21.379821
2200.000000	21.096976
2190.000000	21.106111
2180.000000	21.659494
2170.000000	22.552504
2160.000000	23.550767
2150.000000	23.939341
2140.000000	24.382891
2130.000000	24.452902
2120.000000	24.546697
2110.000000	24.626182
2100.000000	24.300453
2090.000000	23.475580
2080.000000	22.443914
2070.000000	21.309273
2060.000000	20.784238
2050.000000	20.827628
2040.000000	21.249029
2030.000000	21.185403
2020.000000	20.660488
2010.000000	19.801240
2000.000000	18.973472
1990.000000	18.182800
1980.000000	17.440474
1970.000000	16.932936
1960.000000	16.748745
1950.000000	17.062587
1940.000000	18.282033
1930.000000	20.300404
1920.000000	23.585583
1910.000000	28.171595
1900.000000	32.752377
1890.000000	37.135819
1880.000000	40.161749
1870.000000	41.317256
1860.000000	41.675455
1850.000000	41.354346
1840.000000	41.004750
1830.000000	40.509768
1820.000000	39.984490
1810.000000	39.498270
1800.000000	39.119592
1790.000000	38.799585
1780.000000	38.335299
1770.000000	37.890996
1760.000000	37.489477
1750.000000	37.157573
1740.000000	37.551596
1730.000000	38.658896
1720.000000	39.469313
1710.000000	39.698089
1700.000000	40.644109
1690.000000	42.609416
1680.000000	44.426434
1670.000000	45.127027
1660.000000	45.174775
1650.000000	44.689465
1640.000000	43.977818
1630.000000	43.134089
1620.000000	42.140812
1610.000000	41.171969
1600.000000	40.347101
1590.000000	39.636256
1580.000000	38.933737
1570.000000	38.510196
1560.000000	37.894800
1550.000000	36.807664
1540.000000	35.824171
1530.000000	35.228043
1520.000000	34.766803
1510.000000	34.449876
1500.000000	34.293968
1490.000000	34.343067
1480.000000	34.501285
1470.000000	34.921819
1460.000000	35.708318
1450.000000	36.946785
1440.000000	38.802098
1430.000000	41.538207
1420.000000	45.151351
1410.000000	49.049387
1400.000000	52.330120
1390.000000	54.364489
1380.000000	55.572156
1370.000000	56.751576
1360.000000	57.890769
1350.000000	59.020591
1340.000000	59.928593
1330.000000	60.633642
1320.000000	61.126227
1310.000000	61.376007
1300.000000	61.324338
1290.000000	61.327495
1280.000000	61.343018
1270.000000	61.405037
1260.000000	61.348992
1250.000000	61.057035
1240.000000	60.725213
1230.000000	60.358015
1220.000000	59.708957
1210.000000	59.124272
1200.000000	58.931048
1190.000000	59.413102
1180.000000	60.563953
1170.000000	61.992924
1160.000000	63.176331
1150.000000	64.164241
1140.000000	64.853553
1130.000000	65.159883
1120.000000	65.317211
1110.000000	65.403999
1100.000000	65.422962
1090.000000	65.393847
1080.000000	65.290867
1070.000000	65.177140
1060.000000	65.100197
1050.000000	65.015976
1040.000000	64.968772
1030.000000	64.916154
1020.000000	64.991028
1010.000000	65.114507
1000.000000	65.225079
990.000000	65.442453
980.000000	65.724306
970.000000	66.020025
960.000000	66.349031
950.000000	66.540263
940.000000	66.657077
930.000000	66.740465
920.000000	66.849498
910.000000	67.015995
900.000000	67.321448
890.000000	67.571824
880.000000	67.620464
870.000000	67.997254
860.000000	67.897839
850.000000	66.388286
840.000000	66.790768
830.000000	66.854620
820.000000	66.549493
810.000000	66.411310
800.000000	66.540274
790.000000	66.422473
780.000000	66.416149
770.000000	66.574716
760.000000	66.690725
750.000000	66.677341
740.000000	66.717652
730.000000	66.585669
720.000000	66.689110
710.000000	66.691796
700.000000	66.678387
690.000000	66.749253
680.000000	66.602030
670.000000	66.583559
660.000000	66.574476
650.000000	66.477956
640.000000	66.464677
630.000000	66.435752
620.000000	66.352924
610.000000	66.202463
600.000000	66.133076
590.000000	66.050186
580.000000	65.949767
570.000000	65.871019
560.000000	65.658916
550.000000	65.575391
540.000000	65.316789
530.000000	65.121645
520.000000	64.959664
510.000000	64.682246
500.000000	64.354046
490.000000	63.978916
480.000000	63.788356
470.000000	63.160437
460.000000	62.406760
450.000000	61.418712
440.000000	60.028276
430.000000	58.394050
420.000000	56.494525
410.000000	54.554038
400.000000	52.824998
390.000000	50.802689
380.000000	48.851061
370.000000	46.538371
360.000000	44.097458
350.000000	41.555694
340.000000	38.867206
330.000000	36.697786
320.000000	36.212611
310.000000	34.399867
300.000000	28.272678
290.000000	23.508222
280.000000	21.632705
270.000000	22.482244
260.000000	23.678850
250.000000	24.599697
