PE UV       SUBTECH     SPECTRUM    ASCII       PEDS        4.00        
   -1
3C-XXX-C058.Sample.Raw.asc
23/09/06
10:46:38.00
23/09/06
10:46:38.00
Administrator

250.000000
1
Lambda 750
750N8071901
PerkinElmer UV WinLab 6.0.4.0738 / 1.61.00 Lambda 900

0
0
3350/servo 860.8/2
0
0
UV/VIS
1
1
1
CommonBeamDepol,150mm sphere / downward view
0
0
0
0
Program
Program
3350/servo 860.8/2
3350/0.2 860.8/0.2
3350/0.2 860.8/0.2
0
1
 
 
 
0
 
860.8
319.2
860.8
Front
100
on
 
 
0
0
0
 
0
 
 
 
0
 
 
0
0
0
0
0
 
 
 
 
0
0


0
0
#HDR
-1
-1
#GR
nm
%R
1.0
0.0
2500.000000
-10.000000
226
8
74.826461
20.773998
#DATA
2500.000000	20.773998
2490.000000	21.757364
2480.000000	21.790165
2470.000000	22.146370
2460.000000	23.176055
2450.000000	24.500312
2440.000000	24.836080
2430.000000	24.314647
2420.000000	24.835204
2410.000000	25.603308
2400.000000	24.555946
2390.000000	25.323827
2380.000000	25.584216
2370.000000	25.750689
2360.000000	26.238201
2350.000000	25.944284
2340.000000	26.058784
2330.000000	25.491177
2320.000000	25.362182
2310.000000	24.921497
2300.000000	24.698162
2290.000000	25.019110
2280.000000	25.122577
2270.000000	26.188505
2260.000000	27.825647
2250.000000	28.684246
2240.000000	28.977701
2230.000000	28.625976
2220.000000	28.034487
2210.000000	27.507990
2200.000000	27.093376
2190.000000	27.357517
2180.000000	28.067436
2170.000000	28.883961
2160.000000	29.721781
2150.000000	30.484687
2140.000000	30.826210
2130.000000	30.868980
2120.000000	30.999846
2110.000000	30.870586
2100.000000	30.657235
2090.000000	29.819559
2080.000000	28.700963
2070.000000	27.612107
2060.000000	26.871362
2050.000000	27.129921
2040.000000	27.518856
2030.000000	27.348385
2020.000000	26.738076
2010.000000	25.905161
2000.000000	24.990194
1990.000000	24.123056
1980.000000	23.350874
1970.000000	22.752277
1960.000000	22.436871
1950.000000	22.952117
1940.000000	24.194356
1930.000000	26.353756
1920.000000	29.854458
1910.000000	34.862672
1900.000000	39.574436
1890.000000	44.034641
1880.000000	46.965094
1870.000000	48.154965
1860.000000	48.467382
1850.000000	48.118755
1840.000000	47.793238
1830.000000	47.274392
1820.000000	46.767674
1810.000000	46.354953
1800.000000	46.029890
1790.000000	45.710720
1780.000000	45.249274
1770.000000	44.875108
1760.000000	44.446752
1750.000000	44.161631
1740.000000	44.538890
1730.000000	45.656500
1720.000000	46.426743
1710.000000	46.681298
1700.000000	47.621100
1690.000000	49.541084
1680.000000	51.276579
1670.000000	51.972667
1660.000000	52.041132
1650.000000	51.548410
1640.000000	50.855254
1630.000000	50.081392
1620.000000	49.120882
1610.000000	48.212218
1600.000000	47.425234
1590.000000	46.718703
1580.000000	46.047771
1570.000000	45.622011
1560.000000	45.007428
1550.000000	43.969188
1540.000000	42.985135
1530.000000	42.389979
1520.000000	41.988431
1510.000000	41.677267
1500.000000	41.538700
1490.000000	41.617672
1480.000000	41.756991
1470.000000	42.195124
1460.000000	42.990187
1450.000000	44.238389
1440.000000	46.066855
1430.000000	48.796793
1420.000000	52.300221
1410.000000	56.036374
1400.000000	59.132936
1390.000000	61.078462
1380.000000	62.251121
1370.000000	63.276522
1360.000000	64.412499
1350.000000	65.494272
1340.000000	66.318094
1330.000000	67.048026
1320.000000	67.630398
1310.000000	67.951429
1300.000000	68.011859
1290.000000	68.003321
1280.000000	67.986256
1270.000000	68.058068
1260.000000	68.034356
1250.000000	67.720437
1240.000000	67.437357
1230.000000	67.075826
1220.000000	66.468793
1210.000000	65.986229
1200.000000	65.887191
1190.000000	66.380679
1180.000000	67.409851
1170.000000	68.762335
1160.000000	69.876929
1150.000000	70.804560
1140.000000	71.439738
1130.000000	71.708853
1120.000000	71.872683
1110.000000	71.978943
1100.000000	71.999243
1090.000000	71.949517
1080.000000	71.865603
1070.000000	71.760757
1060.000000	71.672261
1050.000000	71.621577
1040.000000	71.557929
1030.000000	71.517815
1020.000000	71.575400
1010.000000	71.723862
1000.000000	71.846115
990.000000	72.063804
980.000000	72.343464
970.000000	72.688027
960.000000	73.003574
950.000000	73.196860
940.000000	73.318233
930.000000	73.417729
920.000000	73.569045
910.000000	73.758162
900.000000	74.033243
890.000000	74.165400
880.000000	74.405360
870.000000	74.700195
860.000000	74.518618
850.000000	74.052606
840.000000	74.226591
830.000000	74.190173
820.000000	74.078498
810.000000	73.943058
800.000000	74.147862
790.000000	74.199894
780.000000	74.342865
770.000000	74.452723
760.000000	74.503556
750.000000	74.527687
740.000000	74.660873
730.000000	74.531176
720.000000	74.588213
710.000000	74.668888
700.000000	74.717119
690.000000	74.728500
680.000000	74.763207
670.000000	74.754640
660.000000	74.826461
650.000000	74.651976
640.000000	74.701446
630.000000	74.703994
620.000000	74.702768
610.000000	74.605269
600.000000	74.568314
590.000000	74.495354
580.000000	74.372519
570.000000	74.449099
560.000000	74.285872
550.000000	74.241491
540.000000	74.114795
530.000000	73.915288
520.000000	73.710008
510.000000	73.442025
500.000000	73.293352
490.000000	73.020556
480.000000	72.808740
470.000000	72.212407
460.000000	71.430005
450.000000	70.690621
440.000000	69.481817
430.000000	68.003802
420.000000	66.187900
410.000000	64.534360
400.000000	63.114346
390.000000	61.377344
380.000000	59.790746
370.000000	58.114987
360.000000	55.500391
350.000000	53.492045
340.000000	51.753612
330.000000	49.405979
320.000000	49.310657
310.000000	47.947159
300.000000	41.721085
290.000000	33.550829
280.000000	28.861153
270.000000	29.016036
260.000000	30.025701
250.000000	31.113286
