PE UV       SUBTECH     SPECTRUM    ASCII       PEDS        4.00        
   -1
3C-XXX-C029.Sample.Raw.asc
23/09/06
09:07:51.00
23/09/06
09:07:51.00
Administrator

250.000000
1
Lambda 750
750N8071901
PerkinElmer UV WinLab 6.0.4.0738 / 1.61.00 Lambda 900

0
0
3350/servo 860.8/2
0
0
UV/VIS
1
1
1
CommonBeamDepol,150mm sphere / downward view
0
0
0
0
Program
Program
3350/servo 860.8/2
3350/0.2 860.8/0.2
3350/0.2 860.8/0.2
0
1
 
 
 
0
 
860.8
319.2
860.8
Front
100
on
 
 
0
0
0
 
0
 
 
 
0
 
 
0
0
0
0
0
 
 
 
 
0
0


0
0
#HDR
-1
-1
#GR
nm
%R
1.0
0.0
2500.000000
-10.000000
226
8
64.175035
16.793438
#DATA
2500.000000	16.793438
2490.000000	17.937020
2480.000000	17.680805
2470.000000	17.496491
2460.000000	18.629953
2450.000000	19.919697
2440.000000	20.529342
2430.000000	20.268267
2420.000000	20.274907
2410.000000	20.805099
2400.000000	20.598945
2390.000000	20.792652
2380.000000	20.926939
2370.000000	20.713365
2360.000000	21.005820
2350.000000	21.674252
2340.000000	21.444038
2330.000000	21.030237
2320.000000	20.549881
2310.000000	20.133324
2300.000000	19.753574
2290.000000	20.130569
2280.000000	20.320320
2270.000000	21.135191
2260.000000	22.335956
2250.000000	23.404284
2240.000000	23.763118
2230.000000	23.571661
2220.000000	22.971630
2210.000000	22.273354
2200.000000	21.913411
2190.000000	22.359508
2180.000000	22.600639
2170.000000	23.537844
2160.000000	24.474411
2150.000000	24.750613
2140.000000	25.088898
2130.000000	25.223014
2120.000000	25.314033
2110.000000	25.330981
2100.000000	25.082952
2090.000000	24.363539
2080.000000	23.245982
2070.000000	22.323507
2060.000000	21.661970
2050.000000	21.880539
2040.000000	22.212617
2030.000000	22.257881
2020.000000	21.683361
2010.000000	20.944810
2000.000000	20.174698
1990.000000	19.540084
1980.000000	18.854666
1970.000000	18.328271
1960.000000	18.091664
1950.000000	18.462551
1940.000000	19.583832
1930.000000	21.380507
1920.000000	24.358217
1910.000000	28.641954
1900.000000	32.997883
1890.000000	36.890906
1880.000000	39.442911
1870.000000	40.482708
1860.000000	40.724693
1850.000000	40.428872
1840.000000	40.128629
1830.000000	39.678125
1820.000000	39.246931
1810.000000	38.856024
1800.000000	38.573903
1790.000000	38.227497
1780.000000	37.860788
1770.000000	37.497521
1760.000000	37.118459
1750.000000	36.872520
1740.000000	37.171688
1730.000000	38.236419
1720.000000	38.851668
1710.000000	39.071636
1700.000000	39.930112
1690.000000	41.698315
1680.000000	43.231104
1670.000000	43.867917
1660.000000	43.929266
1650.000000	43.460481
1640.000000	42.816664
1630.000000	42.106320
1620.000000	41.236174
1610.000000	40.421922
1600.000000	39.698083
1590.000000	39.060796
1580.000000	38.455255
1570.000000	38.058651
1560.000000	37.504438
1550.000000	36.524807
1540.000000	35.658059
1530.000000	35.127371
1520.000000	34.772808
1510.000000	34.518462
1500.000000	34.360973
1490.000000	34.390330
1480.000000	34.530934
1470.000000	34.913777
1460.000000	35.633524
1450.000000	36.768341
1440.000000	38.434082
1430.000000	40.908647
1420.000000	44.086869
1410.000000	47.473418
1400.000000	50.296735
1390.000000	52.042133
1380.000000	53.095406
1370.000000	54.063908
1360.000000	55.125804
1350.000000	56.106585
1340.000000	56.885203
1330.000000	57.583035
1320.000000	58.120988
1310.000000	58.432088
1300.000000	58.435921
1290.000000	58.414171
1280.000000	58.400619
1270.000000	58.429735
1260.000000	58.393194
1250.000000	58.141702
1240.000000	57.858946
1230.000000	57.462300
1220.000000	56.887207
1210.000000	56.413593
1200.000000	56.299459
1190.000000	56.750732
1180.000000	57.720672
1170.000000	58.972493
1160.000000	60.006770
1150.000000	60.880033
1140.000000	61.463056
1130.000000	61.701165
1120.000000	61.843361
1110.000000	61.913461
1100.000000	61.908908
1090.000000	61.854363
1080.000000	61.761695
1070.000000	61.628872
1060.000000	61.517646
1050.000000	61.459601
1040.000000	61.396454
1030.000000	61.298927
1020.000000	61.331194
1010.000000	61.463226
1000.000000	61.554295
990.000000	61.792884
980.000000	62.043050
970.000000	62.287383
960.000000	62.556799
950.000000	62.757616
940.000000	62.864928
930.000000	62.948319
920.000000	63.065207
910.000000	63.207102
900.000000	63.456889
890.000000	63.656868
880.000000	63.870987
870.000000	64.175035
860.000000	64.146080
850.000000	63.485635
840.000000	63.862451
830.000000	63.811172
820.000000	63.621736
810.000000	63.698805
800.000000	63.860011
790.000000	63.786887
780.000000	63.668579
770.000000	63.831814
760.000000	63.917251
750.000000	63.880442
740.000000	64.012196
730.000000	63.846406
720.000000	64.013384
710.000000	63.922890
700.000000	64.013080
690.000000	64.095492
680.000000	63.936818
670.000000	63.910312
660.000000	63.935858
650.000000	63.809758
640.000000	63.788910
630.000000	63.866709
620.000000	63.812992
610.000000	63.682133
600.000000	63.602912
590.000000	63.589104
580.000000	63.437090
570.000000	63.411290
560.000000	63.253397
550.000000	63.102550
540.000000	62.981999
530.000000	62.798674
520.000000	62.666059
510.000000	62.407698
500.000000	62.312774
490.000000	61.977999
480.000000	61.750502
470.000000	61.263000
460.000000	60.612549
450.000000	59.900033
440.000000	58.757885
430.000000	57.292232
420.000000	55.738573
410.000000	54.103568
400.000000	52.639533
390.000000	50.967210
380.000000	49.186921
370.000000	47.237478
360.000000	44.731588
350.000000	42.458718
340.000000	40.409168
330.000000	39.053479
320.000000	37.320666
310.000000	36.071360
300.000000	32.284786
290.000000	26.043193
280.000000	23.017973
270.000000	23.646336
260.000000	24.454386
250.000000	25.666547
