PE UV       SUBTECH     SPECTRUM    ASCII       PEDS        4.00        
   -1
3C-XXX-C050.Sample.Raw.asc
23/09/06
10:18:06.00
23/09/06
10:18:06.00
Administrator

250.000000
1
Lambda 750
750N8071901
PerkinElmer UV WinLab 6.0.4.0738 / 1.61.00 Lambda 900

0
0
3350/servo 860.8/2
0
0
UV/VIS
1
1
1
CommonBeamDepol,150mm sphere / downward view
0
0
0
0
Program
Program
3350/servo 860.8/2
3350/0.2 860.8/0.2
3350/0.2 860.8/0.2
0
1
 
 
 
0
 
860.8
319.2
860.8
Front
100
on
 
 
0
0
0
 
0
 
 
 
0
 
 
0
0
0
0
0
 
 
 
 
0
0


0
0
#HDR
-1
-1
#GR
nm
%R
1.0
0.0
2500.000000
-10.000000
226
8
73.084250
24.160079
#DATA
2500.000000	24.160079
2490.000000	24.238269
2480.000000	24.464259
2470.000000	25.245016
2460.000000	25.504042
2450.000000	27.143415
2440.000000	27.613784
2430.000000	28.044541
2420.000000	28.122333
2410.000000	28.158545
2400.000000	27.782003
2390.000000	28.542123
2380.000000	28.734442
2370.000000	27.858406
2360.000000	28.900834
2350.000000	29.049593
2340.000000	29.312900
2330.000000	28.514436
2320.000000	27.992656
2310.000000	27.781187
2300.000000	27.282611
2290.000000	27.979626
2280.000000	28.059016
2270.000000	29.365329
2260.000000	30.622846
2250.000000	31.390361
2240.000000	31.897476
2230.000000	31.522438
2220.000000	30.973442
2210.000000	30.313519
2200.000000	30.232662
2190.000000	30.058428
2180.000000	30.997574
2170.000000	31.987807
2160.000000	32.757310
2150.000000	33.308157
2140.000000	33.885812
2130.000000	33.836842
2120.000000	34.113356
2110.000000	33.773625
2100.000000	33.642002
2090.000000	32.815417
2080.000000	31.657856
2070.000000	30.538122
2060.000000	29.687960
2050.000000	30.064999
2040.000000	30.491698
2030.000000	30.397519
2020.000000	29.705078
2010.000000	28.773695
2000.000000	27.748296
1990.000000	26.913289
1980.000000	26.097940
1970.000000	25.448749
1960.000000	25.241966
1950.000000	25.676065
1940.000000	27.119625
1930.000000	29.190880
1920.000000	32.848366
1910.000000	37.699959
1900.000000	42.031737
1890.000000	46.064269
1880.000000	48.705959
1870.000000	49.679168
1860.000000	49.929119
1850.000000	49.710351
1840.000000	49.340242
1830.000000	48.909046
1820.000000	48.462861
1810.000000	48.078036
1800.000000	47.744085
1790.000000	47.496212
1780.000000	47.122686
1770.000000	46.746493
1760.000000	46.374981
1750.000000	46.117713
1740.000000	46.472826
1730.000000	47.487129
1720.000000	48.165512
1710.000000	48.388675
1700.000000	49.249241
1690.000000	50.980856
1680.000000	52.472726
1670.000000	53.080186
1660.000000	53.152172
1650.000000	52.722753
1640.000000	52.117013
1630.000000	51.397116
1620.000000	50.551696
1610.000000	49.742987
1600.000000	49.047882
1590.000000	48.422535
1580.000000	47.840702
1570.000000	47.466782
1560.000000	46.906285
1550.000000	45.980784
1540.000000	45.094896
1530.000000	44.553961
1520.000000	44.181278
1510.000000	43.925040
1500.000000	43.810946
1490.000000	43.890566
1480.000000	44.049184
1470.000000	44.453856
1460.000000	45.169080
1450.000000	46.323085
1440.000000	47.979623
1430.000000	50.407338
1420.000000	53.510055
1410.000000	56.762169
1400.000000	59.429468
1390.000000	61.100510
1380.000000	62.098472
1370.000000	63.067160
1360.000000	63.978543
1350.000000	64.896761
1340.000000	65.657732
1330.000000	66.266971
1320.000000	66.693193
1310.000000	66.904072
1300.000000	66.909809
1290.000000	66.902907
1280.000000	66.895191
1270.000000	66.967668
1260.000000	66.948002
1250.000000	66.710671
1240.000000	66.484946
1230.000000	66.157850
1220.000000	65.650429
1210.000000	65.222869
1200.000000	65.113444
1190.000000	65.543063
1180.000000	66.473663
1170.000000	67.619921
1160.000000	68.604410
1150.000000	69.393953
1140.000000	69.953915
1130.000000	70.200965
1120.000000	70.331421
1110.000000	70.422819
1100.000000	70.457222
1090.000000	70.421355
1080.000000	70.356276
1070.000000	70.276999
1060.000000	70.239221
1050.000000	70.179245
1040.000000	70.170468
1030.000000	70.110381
1020.000000	70.150014
1010.000000	70.296348
1000.000000	70.407697
990.000000	70.582214
980.000000	70.842711
970.000000	71.130118
960.000000	71.420923
950.000000	71.552932
940.000000	71.710869
930.000000	71.724904
920.000000	71.941984
910.000000	72.097434
900.000000	72.359522
890.000000	72.483333
880.000000	72.589837
870.000000	72.850364
860.000000	72.807665
850.000000	72.319261
840.000000	72.676227
830.000000	72.634298
820.000000	72.375128
810.000000	72.383143
800.000000	72.580000
790.000000	72.428026
780.000000	72.496491
770.000000	72.553274
760.000000	72.735121
750.000000	72.638436
740.000000	72.788517
730.000000	72.756586
720.000000	72.977324
710.000000	72.861528
700.000000	72.924050
690.000000	73.039105
680.000000	72.985056
670.000000	72.971693
660.000000	72.993605
650.000000	72.987351
640.000000	73.048229
630.000000	73.084250
620.000000	72.989390
610.000000	72.906209
600.000000	72.966120
590.000000	72.940152
580.000000	72.781502
570.000000	72.858406
560.000000	72.827001
550.000000	72.777008
540.000000	72.636807
530.000000	72.496235
520.000000	72.362244
510.000000	72.178897
500.000000	72.024768
490.000000	71.893640
480.000000	71.734181
470.000000	71.270432
460.000000	70.689054
450.000000	70.079371
440.000000	69.021472
430.000000	67.777096
420.000000	66.288836
410.000000	64.755378
400.000000	63.551130
390.000000	62.073982
380.000000	60.724206
370.000000	59.000456
360.000000	57.022547
350.000000	54.719880
340.000000	52.913127
330.000000	51.001929
320.000000	50.143702
310.000000	48.915638
300.000000	42.681513
290.000000	34.798031
280.000000	29.933071
270.000000	30.036890
260.000000	30.911268
250.000000	32.374800
