PE UV       SUBTECH     SPECTRUM    ASCII       PEDS        4.00        
   -1
3C-XXX-C001.Sample.Raw.asc
23/09/05
14:48:31.00
23/09/05
14:48:31.00
Administrator

250.000000
1
Lambda 750
750N8071901
PerkinElmer UV WinLab 6.0.4.0738 / 1.61.00 Lambda 900

0
0
3350/servo 860.8/2
0
0
UV/VIS
1
1
1
CommonBeamDepol,150mm sphere / downward view
0
0
0
0
Program
Program
3350/servo 860.8/2
3350/0.2 860.8/0.2
3350/0.2 860.8/0.2
0
1
 
 
 
0
 
860.8
319.2
860.8
Front
100
on
 
 
0
0
0
 
0
 
 
 
0
 
 
0
0
0
0
0
 
 
 
 
0
0


0
0
#HDR
-1
-1
#GR
nm
%R
1.0
0.0
2500.000000
-10.000000
226
8
65.199934
15.975247
#DATA
2500.000000	15.975247
2490.000000	16.660410
2480.000000	16.230120
2470.000000	17.339771
2460.000000	16.858435
2450.000000	18.150015
2440.000000	17.896793
2430.000000	18.795440
2420.000000	19.198012
2410.000000	19.421390
2400.000000	19.192883
2390.000000	19.547725
2380.000000	19.435618
2370.000000	19.200595
2360.000000	19.384563
2350.000000	19.783777
2340.000000	19.589414
2330.000000	19.639632
2320.000000	18.900990
2310.000000	18.837069
2300.000000	18.309441
2290.000000	18.660646
2280.000000	19.268020
2270.000000	20.341531
2260.000000	21.506742
2250.000000	21.855311
2240.000000	22.373576
2230.000000	22.162664
2220.000000	21.505629
2210.000000	21.204895
2200.000000	20.822927
2190.000000	20.701973
2180.000000	21.225024
2170.000000	21.964764
2160.000000	23.181581
2150.000000	23.414761
2140.000000	23.891682
2130.000000	24.145980
2120.000000	24.109619
2110.000000	23.935856
2100.000000	23.507091
2090.000000	22.856552
2080.000000	21.948316
2070.000000	21.030876
2060.000000	20.348776
2050.000000	20.513046
2040.000000	21.076906
2030.000000	20.874387
2020.000000	20.332668
2010.000000	19.591863
2000.000000	18.820947
1990.000000	18.103957
1980.000000	17.352382
1970.000000	16.818501
1960.000000	16.716962
1950.000000	17.136508
1940.000000	18.215125
1930.000000	20.003222
1920.000000	23.207506
1910.000000	27.462797
1900.000000	31.829949
1890.000000	36.008674
1880.000000	38.656004
1870.000000	39.845576
1860.000000	40.046450
1850.000000	39.899118
1840.000000	39.428634
1830.000000	38.990269
1820.000000	38.479787
1810.000000	38.120058
1800.000000	37.784540
1790.000000	37.423958
1780.000000	37.039194
1770.000000	36.681844
1760.000000	36.260995
1750.000000	35.918976
1740.000000	36.346044
1730.000000	37.413862
1720.000000	38.113208
1710.000000	38.346490
1700.000000	39.181398
1690.000000	41.030777
1680.000000	42.754911
1670.000000	43.383583
1660.000000	43.407669
1650.000000	43.006720
1640.000000	42.333853
1630.000000	41.549079
1620.000000	40.694886
1610.000000	39.770196
1600.000000	39.020077
1590.000000	38.341577
1580.000000	37.724341
1570.000000	37.333444
1560.000000	36.748559
1550.000000	35.740989
1540.000000	34.830870
1530.000000	34.260276
1520.000000	33.882710
1510.000000	33.581766
1500.000000	33.431616
1490.000000	33.472729
1480.000000	33.645310
1470.000000	34.044632
1460.000000	34.770538
1450.000000	35.944072
1440.000000	37.676124
1430.000000	40.247169
1420.000000	43.616398
1410.000000	47.183903
1400.000000	50.194253
1390.000000	52.088462
1380.000000	53.188124
1370.000000	54.268411
1360.000000	55.326126
1350.000000	56.346787
1340.000000	57.180813
1330.000000	57.853728
1320.000000	58.384542
1310.000000	58.677228
1300.000000	58.673978
1290.000000	58.639725
1280.000000	58.644281
1270.000000	58.692236
1260.000000	58.681598
1250.000000	58.390169
1240.000000	58.133257
1230.000000	57.760523
1220.000000	57.185314
1210.000000	56.663739
1200.000000	56.541292
1190.000000	57.015010
1180.000000	58.015210
1170.000000	59.332256
1160.000000	60.468314
1150.000000	61.349403
1140.000000	61.984206
1130.000000	62.240788
1120.000000	62.371829
1110.000000	62.464835
1100.000000	62.504235
1090.000000	62.469960
1080.000000	62.388817
1070.000000	62.266134
1060.000000	62.214248
1050.000000	62.139834
1040.000000	62.126483
1030.000000	62.069463
1020.000000	62.133458
1010.000000	62.284680
1000.000000	62.436224
990.000000	62.618313
980.000000	62.851570
970.000000	63.151943
960.000000	63.435990
950.000000	63.651997
940.000000	63.799467
930.000000	63.933097
920.000000	64.071388
910.000000	64.265395
900.000000	64.644757
890.000000	64.764751
880.000000	64.978132
870.000000	65.156793
860.000000	65.199934
850.000000	64.146556
840.000000	64.501311
830.000000	64.651262
820.000000	64.391696
810.000000	64.552011
800.000000	64.329987
790.000000	64.621183
780.000000	64.469172
770.000000	64.667917
760.000000	64.574895
750.000000	64.758772
740.000000	64.735898
730.000000	64.792147
720.000000	64.863742
710.000000	65.003165
700.000000	65.109920
690.000000	65.082680
680.000000	64.936113
670.000000	64.922913
660.000000	64.965719
650.000000	65.012104
640.000000	64.942660
630.000000	64.977252
620.000000	64.941599
610.000000	64.830963
600.000000	64.883196
590.000000	64.849566
580.000000	64.722032
570.000000	64.652091
560.000000	64.602328
550.000000	64.409965
540.000000	64.328279
530.000000	64.202788
520.000000	64.012310
510.000000	63.877111
500.000000	63.603732
490.000000	63.366035
480.000000	63.187865
470.000000	62.629105
460.000000	61.918089
450.000000	61.214453
440.000000	60.044835
430.000000	58.370978
420.000000	56.630455
410.000000	54.792435
400.000000	53.015457
390.000000	51.415573
380.000000	49.342652
370.000000	47.552589
360.000000	44.657930
350.000000	42.168462
340.000000	40.386841
330.000000	38.075876
320.000000	37.074420
310.000000	34.759272
300.000000	33.284358
290.000000	27.367760
280.000000	24.539400
270.000000	25.145538
260.000000	26.173574
250.000000	27.438263
