PE UV       SUBTECH     SPECTRUM    ASCII       PEDS        4.00        
   -1
3C-XXX-C013.Sample.Raw.asc
23/09/05
15:41:19.00
23/09/05
15:41:19.00
Administrator

250.000000
1
Lambda 750
750N8071901
PerkinElmer UV WinLab 6.0.4.0738 / 1.61.00 Lambda 900

0
0
3350/servo 860.8/2
0
0
UV/VIS
1
1
1
CommonBeamDepol,150mm sphere / downward view
0
0
0
0
Program
Program
3350/servo 860.8/2
3350/0.2 860.8/0.2
3350/0.2 860.8/0.2
0
1
 
 
 
0
 
860.8
319.2
860.8
Front
100
on
 
 
0
0
0
 
0
 
 
 
0
 
 
0
0
0
0
0
 
 
 
 
0
0


0
0
#HDR
-1
-1
#GR
nm
%R
1.0
0.0
2500.000000
-10.000000
226
8
66.590427
17.381657
#DATA
2500.000000	17.381657
2490.000000	18.065764
2480.000000	18.011030
2470.000000	18.833011
2460.000000	19.006528
2450.000000	19.890122
2440.000000	19.806078
2430.000000	20.958372
2420.000000	20.558699
2410.000000	21.100756
2400.000000	20.681612
2390.000000	20.655094
2380.000000	21.379015
2370.000000	21.154010
2360.000000	21.371157
2350.000000	21.346898
2340.000000	21.608493
2330.000000	21.209900
2320.000000	20.878765
2310.000000	20.506120
2300.000000	20.173936
2290.000000	20.428001
2280.000000	21.148259
2270.000000	21.824760
2260.000000	23.379052
2250.000000	23.808524
2240.000000	24.214814
2230.000000	24.028558
2220.000000	23.319582
2210.000000	22.870048
2200.000000	22.315725
2190.000000	22.340088
2180.000000	23.073510
2170.000000	23.788619
2160.000000	24.633337
2150.000000	25.310625
2140.000000	25.697898
2130.000000	25.762493
2120.000000	25.803802
2110.000000	25.735819
2100.000000	25.238047
2090.000000	24.728507
2080.000000	23.739545
2070.000000	22.610779
2060.000000	22.030896
2050.000000	22.134489
2040.000000	22.573531
2030.000000	22.575761
2020.000000	22.034643
2010.000000	21.264112
2000.000000	20.393841
1990.000000	19.628177
1980.000000	18.915118
1970.000000	18.336161
1960.000000	18.156790
1950.000000	18.551537
1940.000000	19.581739
1930.000000	21.571820
1920.000000	24.618527
1910.000000	29.055705
1900.000000	33.514180
1890.000000	37.800804
1880.000000	40.398372
1870.000000	41.638071
1860.000000	41.870219
1850.000000	41.650848
1840.000000	41.279708
1830.000000	40.843915
1820.000000	40.307694
1810.000000	39.972193
1800.000000	39.599526
1790.000000	39.267460
1780.000000	38.863482
1770.000000	38.489357
1760.000000	38.083983
1750.000000	37.760578
1740.000000	38.111976
1730.000000	39.202090
1720.000000	39.949568
1710.000000	40.127557
1700.000000	41.017986
1690.000000	42.846748
1680.000000	44.531366
1670.000000	45.213414
1660.000000	45.235383
1650.000000	44.832210
1640.000000	44.167820
1630.000000	43.347251
1620.000000	42.478173
1610.000000	41.549621
1600.000000	40.797987
1590.000000	40.085026
1580.000000	39.450024
1570.000000	39.065557
1560.000000	38.484139
1550.000000	37.457150
1540.000000	36.552465
1530.000000	35.981361
1520.000000	35.566520
1510.000000	35.242913
1500.000000	35.100341
1490.000000	35.090985
1480.000000	35.278492
1470.000000	35.666518
1460.000000	36.386400
1450.000000	37.553648
1440.000000	39.271360
1430.000000	41.830382
1420.000000	45.207417
1410.000000	48.811870
1400.000000	51.866603
1390.000000	53.796579
1380.000000	54.904869
1370.000000	55.983937
1360.000000	57.080569
1350.000000	58.108501
1340.000000	58.956604
1330.000000	59.644550
1320.000000	60.125400
1310.000000	60.396507
1300.000000	60.374381
1290.000000	60.336744
1280.000000	60.358347
1270.000000	60.405152
1260.000000	60.365354
1250.000000	60.068660
1240.000000	59.803169
1230.000000	59.426177
1220.000000	58.828424
1210.000000	58.281515
1200.000000	58.100421
1190.000000	58.539986
1180.000000	59.582842
1170.000000	60.914032
1160.000000	62.079841
1150.000000	62.989251
1140.000000	63.643986
1130.000000	63.898758
1120.000000	64.044940
1110.000000	64.125849
1100.000000	64.142510
1090.000000	64.095389
1080.000000	64.037823
1070.000000	63.917069
1060.000000	63.825449
1050.000000	63.763148
1040.000000	63.734002
1030.000000	63.675556
1020.000000	63.696608
1010.000000	63.832875
1000.000000	63.978641
990.000000	64.153599
980.000000	64.386379
970.000000	64.687750
960.000000	64.995438
950.000000	65.139735
940.000000	65.256618
930.000000	65.414023
920.000000	65.473803
910.000000	65.719829
900.000000	66.022089
890.000000	66.166065
880.000000	66.288976
870.000000	66.572974
860.000000	66.590427
850.000000	65.629734
840.000000	65.969466
830.000000	65.715710
820.000000	65.783949
810.000000	65.569138
800.000000	65.655655
790.000000	65.726464
780.000000	65.577226
770.000000	65.735097
760.000000	65.775146
750.000000	65.896885
740.000000	65.799359
730.000000	65.882055
720.000000	65.940702
710.000000	66.073339
700.000000	66.047488
690.000000	66.062528
680.000000	65.935224
670.000000	65.894045
660.000000	65.983440
650.000000	65.949492
640.000000	65.881495
630.000000	65.844579
620.000000	65.798262
610.000000	65.694046
600.000000	65.665637
590.000000	65.633159
580.000000	65.469616
570.000000	65.389047
560.000000	65.275914
550.000000	65.160178
540.000000	64.994428
530.000000	64.869968
520.000000	64.625142
510.000000	64.433454
500.000000	64.232178
490.000000	63.845483
480.000000	63.673881
470.000000	63.120680
460.000000	62.376220
450.000000	61.612367
440.000000	60.462183
430.000000	58.757380
420.000000	56.965318
410.000000	55.187564
400.000000	53.486194
390.000000	51.807111
380.000000	49.908204
370.000000	48.140711
360.000000	45.600199
350.000000	43.386269
340.000000	40.612121
330.000000	39.108951
320.000000	37.866850
310.000000	36.315725
300.000000	31.774251
290.000000	26.200827
280.000000	23.286741
270.000000	23.908837
260.000000	24.665710
250.000000	26.170719
