PE UV       SUBTECH     SPECTRUM    ASCII       PEDS        4.00        
   -1
3C-XXX-C008.Sample.Raw.asc
23/09/05
15:11:37.00
23/09/05
15:11:37.00
Administrator

250.000000
1
Lambda 750
750N8071901
PerkinElmer UV WinLab 6.0.4.0738 / 1.61.00 Lambda 900

0
0
3350/servo 860.8/2
0
0
UV/VIS
1
1
1
CommonBeamDepol,150mm sphere / downward view
0
0
0
0
Program
Program
3350/servo 860.8/2
3350/0.2 860.8/0.2
3350/0.2 860.8/0.2
0
1
 
 
 
0
 
860.8
319.2
860.8
Front
100
on
 
 
0
0
0
 
0
 
 
 
0
 
 
0
0
0
0
0
 
 
 
 
0
0


0
0
#HDR
-1
-1
#GR
nm
%R
1.0
0.0
2500.000000
-10.000000
226
8
67.432347
17.688312
#DATA
2500.000000	17.688312
2490.000000	18.461987
2480.000000	18.524773
2470.000000	19.689574
2460.000000	19.405380
2450.000000	20.874258
2440.000000	20.861114
2430.000000	21.741194
2420.000000	21.399843
2410.000000	21.996267
2400.000000	21.943833
2390.000000	21.283561
2380.000000	21.332138
2370.000000	21.979501
2360.000000	22.100484
2350.000000	22.080084
2340.000000	22.084866
2330.000000	22.027860
2320.000000	21.360192
2310.000000	21.369404
2300.000000	20.898738
2290.000000	21.060741
2280.000000	21.853119
2270.000000	22.951272
2260.000000	23.846136
2250.000000	24.628363
2240.000000	24.779116
2230.000000	24.401184
2220.000000	24.154362
2210.000000	23.814780
2200.000000	23.147144
2190.000000	23.109549
2180.000000	23.969076
2170.000000	24.646171
2160.000000	25.492088
2150.000000	25.972871
2140.000000	26.612991
2130.000000	26.530286
2120.000000	26.588884
2110.000000	26.438886
2100.000000	26.055228
2090.000000	25.420673
2080.000000	24.475953
2070.000000	23.345328
2060.000000	22.853071
2050.000000	22.981436
2040.000000	23.425445
2030.000000	23.314674
2020.000000	22.716351
2010.000000	21.896638
2000.000000	21.122382
1990.000000	20.338384
1980.000000	19.583345
1970.000000	18.996645
1960.000000	18.796440
1950.000000	19.254678
1940.000000	20.381872
1930.000000	22.270673
1920.000000	25.613835
1910.000000	29.862145
1900.000000	34.121083
1890.000000	38.216885
1880.000000	40.988429
1870.000000	42.097662
1860.000000	42.331264
1850.000000	42.194056
1840.000000	41.736703
1830.000000	41.332284
1820.000000	40.810341
1810.000000	40.442021
1800.000000	40.106687
1790.000000	39.741509
1780.000000	39.388465
1770.000000	39.028295
1760.000000	38.592571
1750.000000	38.295624
1740.000000	38.654827
1730.000000	39.687311
1720.000000	40.406893
1710.000000	40.639093
1700.000000	41.438434
1690.000000	43.212517
1680.000000	44.895765
1670.000000	45.511034
1660.000000	45.585782
1650.000000	45.183439
1640.000000	44.524166
1630.000000	43.748558
1620.000000	42.904199
1610.000000	41.965534
1600.000000	41.256604
1590.000000	40.567081
1580.000000	39.951639
1570.000000	39.544273
1560.000000	38.983567
1550.000000	37.994382
1540.000000	37.120481
1530.000000	36.537629
1520.000000	36.128095
1510.000000	35.828672
1500.000000	35.660254
1490.000000	35.702754
1480.000000	35.857936
1470.000000	36.248888
1460.000000	36.938678
1450.000000	38.086336
1440.000000	39.760134
1430.000000	42.229061
1420.000000	45.524417
1410.000000	49.039642
1400.000000	52.021822
1390.000000	53.892848
1380.000000	54.985676
1370.000000	56.060874
1360.000000	57.085852
1350.000000	58.121885
1340.000000	58.943628
1330.000000	59.586609
1320.000000	60.021103
1310.000000	60.257382
1300.000000	60.234293
1290.000000	60.177661
1280.000000	60.220129
1270.000000	60.260723
1260.000000	60.224474
1250.000000	59.940202
1240.000000	59.678625
1230.000000	59.303223
1220.000000	58.742280
1210.000000	58.202195
1200.000000	58.014529
1190.000000	58.465248
1180.000000	59.459952
1170.000000	60.749470
1160.000000	61.879637
1150.000000	62.749532
1140.000000	63.410254
1130.000000	63.669029
1120.000000	63.795405
1110.000000	63.870030
1100.000000	63.901726
1090.000000	63.879779
1080.000000	63.819926
1070.000000	63.695782
1060.000000	63.637078
1050.000000	63.586649
1040.000000	63.554025
1030.000000	63.495422
1020.000000	63.537472
1010.000000	63.691610
1000.000000	63.793413
990.000000	63.982478
980.000000	64.208433
970.000000	64.470366
960.000000	64.784238
950.000000	64.942312
940.000000	65.091307
930.000000	65.163923
920.000000	65.246834
910.000000	65.485913
900.000000	65.870075
890.000000	67.432347
880.000000	67.291596
870.000000	66.349667
860.000000	66.393023
850.000000	64.767957
840.000000	64.984812
830.000000	64.831718
820.000000	64.820089
810.000000	64.709470
800.000000	64.701182
790.000000	64.813829
780.000000	64.651616
770.000000	64.984837
760.000000	64.875118
750.000000	64.954529
740.000000	64.938176
730.000000	64.890699
720.000000	64.841160
710.000000	65.074118
700.000000	65.045980
690.000000	65.030896
680.000000	64.924285
670.000000	64.945489
660.000000	64.978826
650.000000	64.876045
640.000000	64.877508
630.000000	64.815642
620.000000	64.791954
610.000000	64.697274
600.000000	64.637653
590.000000	64.584839
580.000000	64.444145
570.000000	64.334150
560.000000	64.236317
550.000000	64.100880
540.000000	63.977861
530.000000	63.847859
520.000000	63.585459
510.000000	63.457429
500.000000	63.159083
490.000000	62.893105
480.000000	62.621889
470.000000	62.167765
460.000000	61.404543
450.000000	60.794920
440.000000	59.678348
430.000000	58.059042
420.000000	56.423943
410.000000	54.880209
400.000000	53.262412
390.000000	51.740913
380.000000	49.958919
370.000000	48.366482
360.000000	46.145197
350.000000	44.148966
340.000000	41.808770
330.000000	39.987151
320.000000	39.299258
310.000000	37.069328
300.000000	32.395882
290.000000	26.901626
280.000000	23.981942
270.000000	24.423052
260.000000	25.291118
250.000000	26.773076
