PE UV       SUBTECH     SPECTRUM    ASCII       PEDS        4.00        
   -1
3C-XXX-C027.Sample.Raw.asc
23/09/06
09:01:43.00
23/09/06
09:01:43.00
Administrator

250.000000
1
Lambda 750
750N8071901
PerkinElmer UV WinLab 6.0.4.0738 / 1.61.00 Lambda 900

0
0
3350/servo 860.8/2
0
0
UV/VIS
1
1
1
CommonBeamDepol,150mm sphere / downward view
0
0
0
0
Program
Program
3350/servo 860.8/2
3350/0.2 860.8/0.2
3350/0.2 860.8/0.2
0
1
 
 
 
0
 
860.8
319.2
860.8
Front
100
on
 
 
0
0
0
 
0
 
 
 
0
 
 
0
0
0
0
0
 
 
 
 
0
0


0
0
#HDR
-1
-1
#GR
nm
%R
1.0
0.0
2500.000000
-10.000000
226
8
66.188559
17.566720
#DATA
2500.000000	17.566720
2490.000000	17.772209
2480.000000	18.212235
2470.000000	18.233350
2460.000000	19.625250
2450.000000	19.808368
2440.000000	20.407334
2430.000000	20.787639
2420.000000	20.950640
2410.000000	20.590495
2400.000000	20.916641
2390.000000	21.338297
2380.000000	21.375876
2370.000000	21.120874
2360.000000	21.704044
2350.000000	21.547806
2340.000000	21.982266
2330.000000	21.316323
2320.000000	20.864475
2310.000000	20.376772
2300.000000	20.629629
2290.000000	20.520011
2280.000000	20.814603
2270.000000	21.813289
2260.000000	22.974712
2250.000000	23.850442
2240.000000	24.420205
2230.000000	24.074423
2220.000000	23.473366
2210.000000	22.998447
2200.000000	22.369965
2190.000000	22.567678
2180.000000	23.114881
2170.000000	23.894972
2160.000000	24.898572
2150.000000	25.449101
2140.000000	25.791047
2130.000000	25.886540
2120.000000	25.912330
2110.000000	25.920024
2100.000000	25.738363
2090.000000	24.778365
2080.000000	23.837584
2070.000000	22.768726
2060.000000	22.184598
2050.000000	22.344133
2040.000000	22.755360
2030.000000	22.646680
2020.000000	21.973882
2010.000000	21.243641
2000.000000	20.382016
1990.000000	19.593039
1980.000000	18.760203
1970.000000	18.243665
1960.000000	17.952667
1950.000000	18.356731
1940.000000	19.601822
1930.000000	21.559667
1920.000000	24.963058
1910.000000	29.378838
1900.000000	33.667121
1890.000000	37.824624
1880.000000	40.813642
1870.000000	41.854918
1860.000000	42.179229
1850.000000	41.987121
1840.000000	41.573319
1830.000000	41.095705
1820.000000	40.609374
1810.000000	40.177082
1800.000000	39.749530
1790.000000	39.424793
1780.000000	38.996118
1770.000000	38.571835
1760.000000	38.182105
1750.000000	37.927094
1740.000000	38.229820
1730.000000	39.305956
1720.000000	40.047609
1710.000000	40.290330
1700.000000	41.153260
1690.000000	42.936470
1680.000000	44.631266
1670.000000	45.329488
1660.000000	45.391563
1650.000000	44.957772
1640.000000	44.282697
1630.000000	43.499715
1620.000000	42.563078
1610.000000	41.636570
1600.000000	40.874187
1590.000000	40.178658
1580.000000	39.515146
1570.000000	39.111916
1560.000000	38.564721
1550.000000	37.580703
1540.000000	36.626420
1530.000000	36.026494
1520.000000	35.592467
1510.000000	35.254389
1500.000000	35.124192
1490.000000	35.165888
1480.000000	35.342581
1470.000000	35.710599
1460.000000	36.437126
1450.000000	37.572509
1440.000000	39.267709
1430.000000	41.805360
1420.000000	45.178223
1410.000000	48.815910
1400.000000	51.886748
1390.000000	53.813492
1380.000000	54.910879
1370.000000	56.024550
1360.000000	57.096213
1350.000000	58.131709
1340.000000	58.987155
1330.000000	59.718096
1320.000000	60.275089
1310.000000	60.574026
1300.000000	60.572152
1290.000000	60.562468
1280.000000	60.543418
1270.000000	60.584981
1260.000000	60.520088
1250.000000	60.188002
1240.000000	59.893159
1230.000000	59.537366
1220.000000	58.926349
1210.000000	58.388272
1200.000000	58.212496
1190.000000	58.681884
1180.000000	59.677118
1170.000000	60.998680
1160.000000	62.126762
1150.000000	63.022139
1140.000000	63.640903
1130.000000	63.916575
1120.000000	64.037604
1110.000000	64.112087
1100.000000	64.128922
1090.000000	64.096932
1080.000000	63.970118
1070.000000	63.816912
1060.000000	63.715517
1050.000000	63.605327
1040.000000	63.530121
1030.000000	63.439276
1020.000000	63.465482
1010.000000	63.581488
1000.000000	63.679037
990.000000	63.868381
980.000000	64.142486
970.000000	64.401640
960.000000	64.691311
950.000000	64.876814
940.000000	64.986688
930.000000	65.029829
920.000000	65.151048
910.000000	65.328457
900.000000	65.611530
890.000000	65.759216
880.000000	65.900455
870.000000	66.088480
860.000000	66.188559
850.000000	65.199764
840.000000	65.551733
830.000000	65.547779
820.000000	65.159112
810.000000	65.267741
800.000000	65.415847
790.000000	65.280832
780.000000	65.179724
770.000000	65.273750
760.000000	65.392514
750.000000	65.283296
740.000000	65.434902
730.000000	65.314436
720.000000	65.332143
710.000000	65.247154
700.000000	65.373014
690.000000	65.354678
680.000000	65.218816
670.000000	65.148576
660.000000	65.159767
650.000000	65.012107
640.000000	64.890647
630.000000	64.929497
620.000000	64.842873
610.000000	64.690663
600.000000	64.564153
590.000000	64.556395
580.000000	64.315545
570.000000	64.262629
560.000000	64.090058
550.000000	63.960169
540.000000	63.754284
530.000000	63.517553
520.000000	63.296111
510.000000	62.947784
500.000000	62.646204
490.000000	62.324053
480.000000	62.121891
470.000000	61.429912
460.000000	60.598784
450.000000	59.821602
440.000000	58.407512
430.000000	56.768167
420.000000	54.930414
410.000000	53.062845
400.000000	51.533378
390.000000	49.737964
380.000000	47.983407
370.000000	45.897489
360.000000	43.398995
350.000000	41.231907
340.000000	38.917965
330.000000	37.024133
320.000000	35.722207
310.000000	34.089723
300.000000	30.569916
290.000000	24.817656
280.000000	22.130995
270.000000	22.502848
260.000000	23.376431
250.000000	24.691001
