PE UV       SUBTECH     SPECTRUM    ASCII       PEDS        4.00        
   -1
3C-XXX-C074.Sample.Raw.asc
23/09/06
11:46:36.00
23/09/06
11:46:36.00
Administrator

250.000000
1
Lambda 750
750N8071901
PerkinElmer UV WinLab 6.0.4.0738 / 1.61.00 Lambda 900

0
0
3350/servo 860.8/2
0
0
UV/VIS
1
1
1
CommonBeamDepol,150mm sphere / downward view
0
0
0
0
Program
Program
3350/servo 860.8/2
3350/0.2 860.8/0.2
3350/0.2 860.8/0.2
0
1
 
 
 
0
 
860.8
319.2
860.8
Front
100
on
 
 
0
0
0
 
0
 
 
 
0
 
 
0
0
0
0
0
 
 
 
 
0
0


0
0
#HDR
-1
-1
#GR
nm
%R
1.0
0.0
2500.000000
-10.000000
226
8
70.304709
18.965160
#DATA
2500.000000	18.965160
2490.000000	19.188593
2480.000000	19.670392
2470.000000	20.096860
2460.000000	20.935905
2450.000000	21.899185
2440.000000	21.693066
2430.000000	22.377321
2420.000000	22.264458
2410.000000	22.942472
2400.000000	22.495827
2390.000000	23.649091
2380.000000	22.635823
2370.000000	22.903261
2360.000000	23.415196
2350.000000	23.221281
2340.000000	23.296245
2330.000000	22.985856
2320.000000	22.939939
2310.000000	22.078146
2300.000000	22.288268
2290.000000	22.285564
2280.000000	22.622011
2270.000000	23.515056
2260.000000	24.904044
2250.000000	25.785493
2240.000000	26.133587
2230.000000	25.975038
2220.000000	25.271837
2210.000000	24.816313
2200.000000	24.422780
2190.000000	24.414828
2180.000000	25.076051
2170.000000	26.005526
2160.000000	26.622182
2150.000000	27.096787
2140.000000	27.786104
2130.000000	27.808973
2120.000000	27.849089
2110.000000	27.851995
2100.000000	27.466530
2090.000000	26.823296
2080.000000	25.602643
2070.000000	24.530205
2060.000000	23.874313
2050.000000	24.126129
2040.000000	24.567548
2030.000000	24.491463
2020.000000	23.903176
2010.000000	23.129866
2000.000000	22.205503
1990.000000	21.545459
1980.000000	20.701022
1970.000000	20.157965
1960.000000	19.939942
1950.000000	20.401563
1940.000000	21.493198
1930.000000	23.435749
1920.000000	26.749852
1910.000000	31.335648
1900.000000	36.072614
1890.000000	40.364199
1880.000000	43.091595
1870.000000	44.284897
1860.000000	44.636548
1850.000000	44.200613
1840.000000	43.955600
1830.000000	43.439657
1820.000000	42.983245
1810.000000	42.567094
1800.000000	42.269387
1790.000000	41.923075
1780.000000	41.479353
1770.000000	41.124364
1760.000000	40.715808
1750.000000	40.437320
1740.000000	40.774516
1730.000000	41.878553
1720.000000	42.632357
1710.000000	42.872433
1700.000000	43.790208
1690.000000	45.714746
1680.000000	47.373854
1670.000000	48.047212
1660.000000	48.117573
1650.000000	47.663009
1640.000000	46.970594
1630.000000	46.160315
1620.000000	45.232674
1610.000000	44.351617
1600.000000	43.550699
1590.000000	42.852100
1580.000000	42.220216
1570.000000	41.775146
1560.000000	41.151660
1550.000000	40.128351
1540.000000	39.161697
1530.000000	38.592654
1520.000000	38.208780
1510.000000	37.912967
1500.000000	37.776164
1490.000000	37.816070
1480.000000	37.951240
1470.000000	38.337149
1460.000000	39.108030
1450.000000	40.334377
1440.000000	42.152568
1430.000000	44.825476
1420.000000	48.282404
1410.000000	51.954095
1400.000000	55.006838
1390.000000	56.939838
1380.000000	58.125434
1370.000000	59.135107
1360.000000	60.235171
1350.000000	61.338705
1340.000000	62.163953
1330.000000	62.847273
1320.000000	63.362137
1310.000000	63.642109
1300.000000	63.638358
1290.000000	63.623085
1280.000000	63.634802
1270.000000	63.714214
1260.000000	63.687015
1250.000000	63.403456
1240.000000	63.069354
1230.000000	62.710378
1220.000000	62.103848
1210.000000	61.606579
1200.000000	61.474183
1190.000000	61.965127
1180.000000	63.021698
1170.000000	64.357884
1160.000000	65.482401
1150.000000	66.438287
1140.000000	67.050890
1130.000000	67.320189
1120.000000	67.490911
1110.000000	67.580090
1100.000000	67.606950
1090.000000	67.571316
1080.000000	67.501084
1070.000000	67.391538
1060.000000	67.314750
1050.000000	67.230418
1040.000000	67.240098
1030.000000	67.182962
1020.000000	67.246748
1010.000000	67.406218
1000.000000	67.506455
990.000000	67.736253
980.000000	67.975436
970.000000	68.311823
960.000000	68.643089
950.000000	68.850323
940.000000	68.954535
930.000000	69.028910
920.000000	69.131372
910.000000	69.348220
900.000000	69.631329
890.000000	69.771348
880.000000	69.932811
870.000000	70.304709
860.000000	70.146442
850.000000	69.481386
840.000000	69.540566
830.000000	69.382726
820.000000	69.208505
810.000000	69.476843
800.000000	69.481340
790.000000	69.475032
780.000000	69.371158
770.000000	69.586385
760.000000	69.734529
750.000000	69.791439
740.000000	69.791531
730.000000	69.669834
720.000000	69.745346
710.000000	69.760580
700.000000	69.820385
690.000000	69.824801
680.000000	69.737739
670.000000	69.664780
660.000000	69.757595
650.000000	69.645589
640.000000	69.586248
630.000000	69.566002
620.000000	69.548253
610.000000	69.402058
600.000000	69.385900
590.000000	69.352890
580.000000	69.170449
570.000000	69.176091
560.000000	69.026508
550.000000	68.905947
540.000000	68.824316
530.000000	68.605148
520.000000	68.385892
510.000000	68.060074
500.000000	67.946330
490.000000	67.493987
480.000000	67.315975
470.000000	66.666157
460.000000	65.851311
450.000000	65.014680
440.000000	63.704792
430.000000	61.986164
420.000000	60.026877
410.000000	58.218575
400.000000	56.618100
390.000000	54.808579
380.000000	53.040995
370.000000	51.004467
360.000000	48.360744
350.000000	45.957362
340.000000	43.681786
330.000000	41.919758
320.000000	40.780842
310.000000	39.724491
300.000000	35.255834
290.000000	28.332208
280.000000	24.708700
270.000000	25.090516
260.000000	25.964110
250.000000	27.344312
