PE UV       SUBTECH     SPECTRUM    ASCII       PEDS        4.00        
   -1
3C-XXX-F02.Sample.Raw.asc
23/09/06
13:53:54.00
23/09/06
13:53:54.00
Administrator

250.000000
1
Lambda 750
750N8071901
PerkinElmer UV WinLab 6.0.4.0738 / 1.61.00 Lambda 900

0
0
3350/servo 860.8/2
0
0
UV/VIS
1
1
1
CommonBeamDepol,150mm sphere / downward view
0
0
0
0
Program
Program
3350/servo 860.8/2
3350/0.2 860.8/0.2
3350/0.2 860.8/0.2
0
1
 
 
 
0
 
860.8
319.2
860.8
Front
100
on
 
 
0
0
0
 
0
 
 
 
0
 
 
0
0
0
0
0
 
 
 
 
0
0


0
0
#HDR
-1
-1
#GR
nm
%R
1.0
0.0
2500.000000
-10.000000
226
8
65.231762
12.211723
#DATA
2500.000000	12.211723
2490.000000	12.905461
2480.000000	13.873986
2470.000000	14.297960
2460.000000	14.195763
2450.000000	14.619480
2440.000000	14.418552
2430.000000	15.032103
2420.000000	15.457878
2410.000000	15.313431
2400.000000	16.212217
2390.000000	15.580981
2380.000000	15.465105
2370.000000	16.027448
2360.000000	16.003720
2350.000000	15.808125
2340.000000	15.718693
2330.000000	15.879939
2320.000000	15.827835
2310.000000	15.424459
2300.000000	14.997596
2290.000000	15.342502
2280.000000	15.437293
2270.000000	16.226655
2260.000000	17.572722
2250.000000	18.015920
2240.000000	18.182767
2230.000000	17.942427
2220.000000	17.559477
2210.000000	17.435672
2200.000000	17.045806
2190.000000	16.985961
2180.000000	17.509984
2170.000000	18.470884
2160.000000	18.742189
2150.000000	19.626619
2140.000000	19.489193
2130.000000	19.517670
2120.000000	19.795555
2110.000000	19.698179
2100.000000	19.362676
2090.000000	18.786564
2080.000000	18.191814
2070.000000	17.190076
2060.000000	16.815247
2050.000000	16.968220
2040.000000	17.456796
2030.000000	17.324827
2020.000000	16.856894
2010.000000	16.333911
2000.000000	15.696054
1990.000000	15.105400
1980.000000	14.675335
1970.000000	14.349528
1960.000000	14.114449
1950.000000	14.504453
1940.000000	15.128034
1930.000000	16.654613
1920.000000	19.087062
1910.000000	23.089773
1900.000000	27.332673
1890.000000	31.519542
1880.000000	34.452048
1870.000000	35.655376
1860.000000	35.988843
1850.000000	35.723359
1840.000000	35.260810
1830.000000	34.751275
1820.000000	34.279489
1810.000000	33.890088
1800.000000	33.511261
1790.000000	33.100356
1780.000000	32.672520
1770.000000	32.235408
1760.000000	31.806371
1750.000000	31.438003
1740.000000	31.850602
1730.000000	32.993500
1720.000000	33.746457
1710.000000	34.044764
1700.000000	34.991810
1690.000000	36.998601
1680.000000	38.983809
1670.000000	39.724173
1660.000000	39.782893
1650.000000	39.318733
1640.000000	38.594204
1630.000000	37.726577
1620.000000	36.724176
1610.000000	35.734351
1600.000000	34.912253
1590.000000	34.185556
1580.000000	33.505992
1570.000000	33.074942
1560.000000	32.479044
1550.000000	31.440879
1540.000000	30.471421
1530.000000	29.914006
1520.000000	29.499194
1510.000000	29.186502
1500.000000	29.080285
1490.000000	29.109972
1480.000000	29.281162
1470.000000	29.667728
1460.000000	30.410786
1450.000000	31.573169
1440.000000	33.369020
1430.000000	36.136515
1420.000000	39.812741
1410.000000	43.877709
1400.000000	47.409436
1390.000000	49.762200
1380.000000	51.126073
1370.000000	52.412956
1360.000000	53.742752
1350.000000	55.077009
1340.000000	56.105227
1330.000000	56.946540
1320.000000	57.548793
1310.000000	57.859006
1300.000000	57.866010
1290.000000	57.762032
1280.000000	57.790743
1270.000000	57.886674
1260.000000	57.838534
1250.000000	57.467401
1240.000000	57.056266
1230.000000	56.585110
1220.000000	55.840151
1210.000000	55.194097
1200.000000	54.948122
1190.000000	55.509692
1180.000000	56.829813
1170.000000	58.510921
1160.000000	59.975968
1150.000000	61.165083
1140.000000	62.003794
1130.000000	62.383612
1120.000000	62.545471
1110.000000	62.674059
1100.000000	62.715492
1090.000000	62.674888
1080.000000	62.573680
1070.000000	62.436377
1060.000000	62.306186
1050.000000	62.202515
1040.000000	62.115264
1030.000000	62.086669
1020.000000	62.116836
1010.000000	62.263606
1000.000000	62.421653
990.000000	62.681057
980.000000	62.943137
970.000000	63.322124
960.000000	63.669245
950.000000	63.854003
940.000000	63.950283
930.000000	64.097107
920.000000	64.144878
910.000000	64.375862
900.000000	64.666998
890.000000	64.816644
880.000000	64.993419
870.000000	65.139197
860.000000	65.231762
850.000000	63.586668
840.000000	64.140359
830.000000	64.107901
820.000000	63.824570
810.000000	64.045542
800.000000	63.965958
790.000000	63.942777
780.000000	63.863975
770.000000	63.800368
760.000000	63.776978
750.000000	63.864659
740.000000	63.892159
730.000000	63.762641
720.000000	63.763790
710.000000	63.787129
700.000000	63.564635
690.000000	63.455286
680.000000	63.240677
670.000000	63.325408
660.000000	63.150948
650.000000	63.049460
640.000000	62.856352
630.000000	62.623260
620.000000	62.477177
610.000000	62.270580
600.000000	62.067126
590.000000	61.837393
580.000000	61.544943
570.000000	61.252179
560.000000	60.956705
550.000000	60.578784
540.000000	60.242963
530.000000	59.859457
520.000000	59.391481
510.000000	58.913841
500.000000	58.333021
490.000000	57.723742
480.000000	57.190015
470.000000	56.253091
460.000000	55.257560
450.000000	53.928581
440.000000	52.228382
430.000000	50.064957
420.000000	47.542725
410.000000	45.200770
400.000000	43.008611
390.000000	40.596404
380.000000	38.106795
370.000000	35.450648
360.000000	32.808279
350.000000	30.333582
340.000000	28.145161
330.000000	25.979655
320.000000	24.121571
310.000000	23.042472
300.000000	20.100629
290.000000	16.804099
280.000000	15.256232
270.000000	15.064783
260.000000	15.310772
250.000000	15.211180
