PE UV       SUBTECH     SPECTRUM    ASCII       PEDS        4.00        
   -1
3C-XXX-C037.Sample.Raw.asc
23/09/06
09:32:49.00
23/09/06
09:32:49.00
Administrator

250.000000
1
Lambda 750
750N8071901
PerkinElmer UV WinLab 6.0.4.0738 / 1.61.00 Lambda 900

0
0
3350/servo 860.8/2
0
0
UV/VIS
1
1
1
CommonBeamDepol,150mm sphere / downward view
0
0
0
0
Program
Program
3350/servo 860.8/2
3350/0.2 860.8/0.2
3350/0.2 860.8/0.2
0
1
 
 
 
0
 
860.8
319.2
860.8
Front
100
on
 
 
0
0
0
 
0
 
 
 
0
 
 
0
0
0
0
0
 
 
 
 
0
0


0
0
#HDR
-1
-1
#GR
nm
%R
1.0
0.0
2500.000000
-10.000000
226
8
70.875921
21.098233
#DATA
2500.000000	21.098233
2490.000000	21.456534
2480.000000	21.374398
2470.000000	22.233941
2460.000000	22.178838
2450.000000	23.843288
2440.000000	24.236657
2430.000000	24.508543
2420.000000	24.995423
2410.000000	24.678069
2400.000000	25.177555
2390.000000	25.522225
2380.000000	25.364398
2370.000000	24.928594
2360.000000	25.431116
2350.000000	25.748475
2340.000000	25.754934
2330.000000	25.126037
2320.000000	24.818207
2310.000000	24.396002
2300.000000	24.182889
2290.000000	24.553228
2280.000000	24.629416
2270.000000	25.905931
2260.000000	27.125556
2250.000000	27.991197
2240.000000	28.430027
2230.000000	28.311992
2220.000000	27.446839
2210.000000	26.999114
2200.000000	26.451323
2190.000000	26.730156
2180.000000	27.531590
2170.000000	28.474227
2160.000000	29.301371
2150.000000	29.712095
2140.000000	30.218088
2130.000000	30.348961
2120.000000	30.433911
2110.000000	30.151356
2100.000000	29.938280
2090.000000	29.152855
2080.000000	28.119311
2070.000000	27.003282
2060.000000	26.290618
2050.000000	26.553228
2040.000000	27.010955
2030.000000	26.846336
2020.000000	26.242289
2010.000000	25.429716
2000.000000	24.544790
1990.000000	23.759294
1980.000000	22.978831
1970.000000	22.484375
1960.000000	22.147729
1950.000000	22.623685
1940.000000	23.770395
1930.000000	25.779952
1920.000000	29.190367
1910.000000	33.839113
1900.000000	38.399630
1890.000000	42.585996
1880.000000	45.279846
1870.000000	46.356401
1860.000000	46.608042
1850.000000	46.317725
1840.000000	45.984506
1830.000000	45.458404
1820.000000	45.001939
1810.000000	44.632783
1800.000000	44.334011
1790.000000	44.047476
1780.000000	43.630235
1770.000000	43.262155
1760.000000	42.857421
1750.000000	42.570818
1740.000000	42.907467
1730.000000	43.952379
1720.000000	44.706371
1710.000000	44.920815
1700.000000	45.805779
1690.000000	47.640153
1680.000000	49.228258
1670.000000	49.875883
1660.000000	49.942377
1650.000000	49.494077
1640.000000	48.837724
1630.000000	48.081712
1620.000000	47.221144
1610.000000	46.345050
1600.000000	45.623153
1590.000000	44.952121
1580.000000	44.344900
1570.000000	43.948444
1560.000000	43.343849
1550.000000	42.358179
1540.000000	41.442052
1530.000000	40.886419
1520.000000	40.526601
1510.000000	40.259854
1500.000000	40.151361
1490.000000	40.178397
1480.000000	40.347869
1470.000000	40.745431
1460.000000	41.505097
1450.000000	42.691263
1440.000000	44.435487
1430.000000	47.018717
1420.000000	50.258588
1410.000000	53.719534
1400.000000	56.566629
1390.000000	58.367167
1380.000000	59.442718
1370.000000	60.425001
1360.000000	61.455161
1350.000000	62.471002
1340.000000	63.280773
1330.000000	63.969813
1320.000000	64.461237
1310.000000	64.727021
1300.000000	64.727345
1290.000000	64.725743
1280.000000	64.728306
1270.000000	64.794677
1260.000000	64.743874
1250.000000	64.500420
1240.000000	64.244926
1230.000000	63.852075
1220.000000	63.289577
1210.000000	62.818706
1200.000000	62.674937
1190.000000	63.138538
1180.000000	64.127845
1170.000000	65.400712
1160.000000	66.472328
1150.000000	67.318118
1140.000000	67.926670
1130.000000	68.170841
1120.000000	68.306436
1110.000000	68.398164
1100.000000	68.422443
1090.000000	68.382075
1080.000000	68.297161
1070.000000	68.207316
1060.000000	68.121984
1050.000000	68.065302
1040.000000	68.017926
1030.000000	67.943793
1020.000000	67.986377
1010.000000	68.151440
1000.000000	68.248061
990.000000	68.456762
980.000000	68.718497
970.000000	68.999139
960.000000	69.343827
950.000000	69.495486
940.000000	69.599597
930.000000	69.671547
920.000000	69.852707
910.000000	70.021144
900.000000	70.340264
890.000000	70.339608
880.000000	70.756845
870.000000	70.875921
860.000000	70.842843
850.000000	70.034418
840.000000	70.373713
830.000000	70.238049
820.000000	70.091363
810.000000	70.225142
800.000000	70.147345
790.000000	70.208963
780.000000	70.237134
770.000000	70.380244
760.000000	70.455717
750.000000	70.470065
740.000000	70.534278
730.000000	70.417292
720.000000	70.514993
710.000000	70.467610
700.000000	70.449475
690.000000	70.665569
680.000000	70.433606
670.000000	70.401400
660.000000	70.428640
650.000000	70.381617
640.000000	70.344464
630.000000	70.348990
620.000000	70.274894
610.000000	70.131403
600.000000	70.031403
590.000000	70.060205
580.000000	69.876270
570.000000	69.895276
560.000000	69.833268
550.000000	69.704643
540.000000	69.577809
530.000000	69.382049
520.000000	69.189642
510.000000	68.961395
500.000000	68.730384
490.000000	68.383908
480.000000	68.123425
470.000000	67.534863
460.000000	66.826086
450.000000	66.056152
440.000000	64.723735
430.000000	63.224276
420.000000	61.386701
410.000000	59.582877
400.000000	58.232942
390.000000	56.579557
380.000000	54.972633
370.000000	52.958372
360.000000	50.510566
350.000000	48.409963
340.000000	46.208700
330.000000	44.166738
320.000000	43.285105
310.000000	41.631228
300.000000	36.083138
290.000000	29.148135
280.000000	25.288057
270.000000	25.646063
260.000000	26.509526
250.000000	27.814059
