PE UV       SUBTECH     SPECTRUM    ASCII       PEDS        4.00        
   -1
3C-XXX-F07.Sample.Raw.asc
23/09/06
14:09:13.00
23/09/06
14:09:13.00
Administrator

250.000000
1
Lambda 750
750N8071901
PerkinElmer UV WinLab 6.0.4.0738 / 1.61.00 Lambda 900

0
0
3350/servo 860.8/2
0
0
UV/VIS
1
1
1
CommonBeamDepol,150mm sphere / downward view
0
0
0
0
Program
Program
3350/servo 860.8/2
3350/0.2 860.8/0.2
3350/0.2 860.8/0.2
0
1
 
 
 
0
 
860.8
319.2
860.8
Front
100
on
 
 
0
0
0
 
0
 
 
 
0
 
 
0
0
0
0
0
 
 
 
 
0
0


0
0
#HDR
-1
-1
#GR
nm
%R
1.0
0.0
2500.000000
-10.000000
226
8
63.986083
12.447654
#DATA
2500.000000	12.447654
2490.000000	12.843175
2480.000000	13.578213
2470.000000	14.424193
2460.000000	13.978204
2450.000000	14.559097
2440.000000	14.976146
2430.000000	14.729366
2420.000000	16.211985
2410.000000	15.608094
2400.000000	16.273052
2390.000000	15.699542
2380.000000	16.174657
2370.000000	15.008898
2360.000000	15.968012
2350.000000	16.065128
2340.000000	15.817325
2330.000000	15.881455
2320.000000	15.428026
2310.000000	15.393119
2300.000000	14.649327
2290.000000	15.480203
2280.000000	15.371915
2270.000000	16.352054
2260.000000	17.516059
2250.000000	18.382733
2240.000000	18.279254
2230.000000	18.330461
2220.000000	17.868875
2210.000000	17.584245
2200.000000	17.148868
2190.000000	17.134229
2180.000000	17.733260
2170.000000	18.640631
2160.000000	18.942058
2150.000000	19.762683
2140.000000	19.768389
2130.000000	19.928019
2120.000000	20.043901
2110.000000	19.886501
2100.000000	19.515535
2090.000000	19.098363
2080.000000	18.226078
2070.000000	17.333883
2060.000000	16.860023
2050.000000	16.978814
2040.000000	17.402690
2030.000000	17.418094
2020.000000	16.901455
2010.000000	16.335221
2000.000000	15.702614
1990.000000	15.128212
1980.000000	14.615711
1970.000000	14.221121
1960.000000	14.059191
1950.000000	14.404879
1940.000000	15.159980
1930.000000	16.689246
1920.000000	18.935343
1910.000000	23.264418
1900.000000	27.674112
1890.000000	31.923348
1880.000000	34.894570
1870.000000	36.152231
1860.000000	36.400895
1850.000000	36.193399
1840.000000	35.631385
1830.000000	35.225185
1820.000000	34.743297
1810.000000	34.327620
1800.000000	33.980083
1790.000000	33.571524
1780.000000	33.125346
1770.000000	32.749403
1760.000000	32.307407
1750.000000	31.953770
1740.000000	32.339684
1730.000000	33.464981
1720.000000	34.214017
1710.000000	34.528981
1700.000000	35.454095
1690.000000	37.452786
1680.000000	39.381880
1670.000000	40.077510
1660.000000	40.187134
1650.000000	39.705350
1640.000000	38.979187
1630.000000	38.127115
1620.000000	37.166863
1610.000000	36.207024
1600.000000	35.361989
1590.000000	34.649533
1580.000000	33.978883
1570.000000	33.539178
1560.000000	32.916188
1550.000000	31.873556
1540.000000	30.897044
1530.000000	30.331034
1520.000000	29.932024
1510.000000	29.633035
1500.000000	29.513325
1490.000000	29.522659
1480.000000	29.688243
1470.000000	30.043678
1460.000000	30.800032
1450.000000	31.987783
1440.000000	33.781076
1430.000000	36.551866
1420.000000	40.167096
1410.000000	44.116439
1400.000000	47.505764
1390.000000	49.711788
1380.000000	50.991555
1370.000000	52.214194
1360.000000	53.460153
1350.000000	54.680589
1340.000000	55.616158
1330.000000	56.429857
1320.000000	57.004785
1310.000000	57.330054
1300.000000	57.356277
1290.000000	57.284190
1280.000000	57.307995
1270.000000	57.363489
1260.000000	57.293149
1250.000000	56.934666
1240.000000	56.573937
1230.000000	56.142411
1220.000000	55.436544
1210.000000	54.851368
1200.000000	54.644971
1190.000000	55.209850
1180.000000	56.410226
1170.000000	57.926949
1160.000000	59.275070
1150.000000	60.335475
1140.000000	61.074119
1130.000000	61.408467
1120.000000	61.558509
1110.000000	61.670175
1100.000000	61.678646
1090.000000	61.642107
1080.000000	61.545619
1070.000000	61.397319
1060.000000	61.272966
1050.000000	61.190377
1040.000000	61.100925
1030.000000	61.041701
1020.000000	61.083774
1010.000000	61.216961
1000.000000	61.383151
990.000000	61.577720
980.000000	61.857088
970.000000	62.161422
960.000000	62.446271
950.000000	62.674583
940.000000	62.763970
930.000000	62.816937
920.000000	62.929587
910.000000	63.141838
900.000000	63.363635
890.000000	63.563224
880.000000	63.629735
870.000000	63.986083
860.000000	63.984580
850.000000	62.581109
840.000000	63.221704
830.000000	63.117816
820.000000	63.005788
810.000000	63.048967
800.000000	62.996178
790.000000	63.106175
780.000000	62.894419
770.000000	62.840745
760.000000	62.841360
750.000000	63.058251
740.000000	62.920559
730.000000	62.875741
720.000000	62.972716
710.000000	62.864256
700.000000	62.727045
690.000000	62.684299
680.000000	62.472298
670.000000	62.531414
660.000000	62.493495
650.000000	62.338239
640.000000	62.199590
630.000000	62.046288
620.000000	61.926470
610.000000	61.709259
600.000000	61.575907
590.000000	61.363320
580.000000	61.170857
570.000000	60.925705
560.000000	60.632916
550.000000	60.258119
540.000000	59.909665
530.000000	59.611776
520.000000	59.157230
510.000000	58.749851
500.000000	58.246472
490.000000	57.673596
480.000000	57.328556
470.000000	56.406664
460.000000	55.493049
450.000000	54.233244
440.000000	52.592472
430.000000	50.619698
420.000000	48.256632
410.000000	46.095395
400.000000	43.768769
390.000000	41.144279
380.000000	38.528727
370.000000	35.738816
360.000000	32.754409
350.000000	30.173347
340.000000	27.403088
330.000000	25.334528
320.000000	23.339476
310.000000	22.282554
300.000000	18.896614
290.000000	15.307983
280.000000	13.621799
270.000000	13.346272
260.000000	13.446515
250.000000	13.537830
