PE UV       SUBTECH     SPECTRUM    ASCII       PEDS        4.00        
   -1
3C-XXX-F08.Sample.Raw.asc
23/09/06
14:12:18.00
23/09/06
14:12:18.00
Administrator

250.000000
1
Lambda 750
750N8071901
PerkinElmer UV WinLab 6.0.4.0738 / 1.61.00 Lambda 900

0
0
3350/servo 860.8/2
0
0
UV/VIS
1
1
1
CommonBeamDepol,150mm sphere / downward view
0
0
0
0
Program
Program
3350/servo 860.8/2
3350/0.2 860.8/0.2
3350/0.2 860.8/0.2
0
1
 
 
 
0
 
860.8
319.2
860.8
Front
100
on
 
 
0
0
0
 
0
 
 
 
0
 
 
0
0
0
0
0
 
 
 
 
0
0


0
0
#HDR
-1
-1
#GR
nm
%R
1.0
0.0
2500.000000
-10.000000
226
8
66.807550
14.262410
#DATA
2500.000000	16.419799
2490.000000	15.364169
2480.000000	16.620401
2470.000000	17.020901
2460.000000	17.326204
2450.000000	18.228564
2440.000000	18.281249
2430.000000	18.769335
2420.000000	20.105299
2410.000000	19.716760
2400.000000	19.658257
2390.000000	18.997185
2380.000000	19.585452
2370.000000	19.233934
2360.000000	19.287484
2350.000000	19.624041
2340.000000	19.695507
2330.000000	19.796810
2320.000000	19.524832
2310.000000	18.688686
2300.000000	18.228065
2290.000000	18.907899
2280.000000	19.118715
2270.000000	20.049653
2260.000000	21.652163
2250.000000	22.405057
2240.000000	22.406693
2230.000000	22.204220
2220.000000	21.822536
2210.000000	21.501879
2200.000000	20.937094
2190.000000	21.022556
2180.000000	21.582210
2170.000000	22.555317
2160.000000	23.089526
2150.000000	23.786190
2140.000000	24.192026
2130.000000	24.051264
2120.000000	24.283781
2110.000000	24.268028
2100.000000	23.992421
2090.000000	23.419733
2080.000000	22.320604
2070.000000	21.240068
2060.000000	20.786889
2050.000000	20.876312
2040.000000	21.389809
2030.000000	21.295369
2020.000000	20.766621
2010.000000	20.084683
2000.000000	19.265499
1990.000000	18.505367
1980.000000	17.897926
1970.000000	17.354149
1960.000000	17.220181
1950.000000	17.655913
1940.000000	18.404392
1930.000000	20.471713
1920.000000	23.311174
1910.000000	27.836786
1900.000000	32.533754
1890.000000	36.729882
1880.000000	39.694120
1870.000000	40.977456
1860.000000	41.125068
1850.000000	40.904068
1840.000000	40.455895
1830.000000	40.023912
1820.000000	39.497346
1810.000000	39.085951
1800.000000	38.733365
1790.000000	38.312775
1780.000000	37.938931
1770.000000	37.525379
1760.000000	37.101461
1750.000000	36.730209
1740.000000	37.161599
1730.000000	38.277786
1720.000000	39.031774
1710.000000	39.308066
1700.000000	40.261881
1690.000000	42.223345
1680.000000	44.069408
1670.000000	44.738505
1660.000000	44.793576
1650.000000	44.375092
1640.000000	43.663727
1630.000000	42.834803
1620.000000	41.887077
1610.000000	40.949883
1600.000000	40.143964
1590.000000	39.425517
1580.000000	38.787952
1570.000000	38.360906
1560.000000	37.764668
1550.000000	36.725816
1540.000000	35.739151
1530.000000	35.151435
1520.000000	34.746526
1510.000000	34.463531
1500.000000	34.334056
1490.000000	34.356521
1480.000000	34.559920
1470.000000	34.949056
1460.000000	35.699360
1450.000000	36.893675
1440.000000	38.699414
1430.000000	41.385494
1420.000000	44.913162
1410.000000	48.661967
1400.000000	51.841957
1390.000000	53.838136
1380.000000	55.018775
1370.000000	56.200485
1360.000000	57.340446
1350.000000	58.431280
1340.000000	59.319499
1330.000000	60.081598
1320.000000	60.585426
1310.000000	60.839594
1300.000000	60.836048
1290.000000	60.773352
1280.000000	60.813242
1270.000000	60.859465
1260.000000	60.786115
1250.000000	60.489503
1240.000000	60.184737
1230.000000	59.766966
1220.000000	59.150830
1210.000000	58.592803
1200.000000	58.415476
1190.000000	58.948844
1180.000000	60.005535
1170.000000	61.380144
1160.000000	62.585550
1150.000000	63.541190
1140.000000	64.212565
1130.000000	64.470464
1120.000000	64.602673
1110.000000	64.701889
1100.000000	64.740838
1090.000000	64.691594
1080.000000	64.594725
1070.000000	64.459091
1060.000000	64.365773
1050.000000	64.267593
1040.000000	64.194014
1030.000000	64.116017
1020.000000	64.161023
1010.000000	64.279896
1000.000000	64.399253
990.000000	64.592108
980.000000	64.836545
970.000000	65.113481
960.000000	65.413664
950.000000	65.579095
940.000000	65.590090
930.000000	65.694472
920.000000	65.774678
910.000000	65.968138
900.000000	66.177336
890.000000	66.366452
880.000000	66.445155
870.000000	66.691614
860.000000	66.807550
850.000000	65.587273
840.000000	65.778766
830.000000	65.876079
820.000000	65.635446
810.000000	65.789700
800.000000	65.689787
790.000000	65.695642
780.000000	65.542577
770.000000	65.476151
760.000000	65.476055
750.000000	65.668642
740.000000	65.676841
730.000000	65.469150
720.000000	65.526484
710.000000	65.517310
700.000000	65.438505
690.000000	65.303664
680.000000	65.174142
670.000000	65.150321
660.000000	65.059610
650.000000	64.938824
640.000000	64.758549
630.000000	64.647265
620.000000	64.483317
610.000000	64.342040
600.000000	64.168397
590.000000	63.987850
580.000000	63.786044
570.000000	63.503427
560.000000	63.306968
550.000000	62.917052
540.000000	62.627175
530.000000	62.328258
520.000000	61.915798
510.000000	61.468190
500.000000	60.971830
490.000000	60.564278
480.000000	60.217284
470.000000	59.332538
460.000000	58.548511
450.000000	57.365520
440.000000	56.041508
430.000000	54.125066
420.000000	52.114136
410.000000	50.093698
400.000000	48.108667
390.000000	45.819602
380.000000	43.469943
370.000000	40.814139
360.000000	38.090538
350.000000	35.414800
340.000000	32.515109
330.000000	30.084266
320.000000	27.928640
310.000000	25.866443
300.000000	22.497707
290.000000	17.322770
280.000000	14.766425
270.000000	14.262410
260.000000	14.407296
250.000000	14.454575
