PE UV       SUBTECH     SPECTRUM    ASCII       PEDS        4.00        
   -1
3C-XXX-F036.Sample.Raw.asc
23/09/06
15:43:07.00
23/09/06
15:43:07.00
Administrator

250.000000
1
Lambda 750
750N8071901
PerkinElmer UV WinLab 6.0.4.0738 / 1.61.00 Lambda 900

0
0
3350/servo 860.8/2
0
0
UV/VIS
1
1
1
CommonBeamDepol,150mm sphere / downward view
0
0
0
0
Program
Program
3350/servo 860.8/2
3350/0.2 860.8/0.2
3350/0.2 860.8/0.2
0
1
 
 
 
0
 
860.8
319.2
860.8
Front
100
on
 
 
0
0
0
 
0
 
 
 
0
 
 
0
0
0
0
0
 
 
 
 
0
0


0
0
#HDR
-1
-1
#GR
nm
%R
1.0
0.0
2500.000000
-10.000000
226
8
70.972661
13.164721
#DATA
2500.000000	19.032833
2490.000000	20.099164
2480.000000	20.770153
2470.000000	21.534554
2460.000000	21.750884
2450.000000	22.073589
2440.000000	22.354581
2430.000000	22.949971
2420.000000	24.542953
2410.000000	24.000653
2400.000000	24.700912
2390.000000	23.477993
2380.000000	23.947128
2370.000000	23.657540
2360.000000	23.856658
2350.000000	24.071818
2340.000000	24.392785
2330.000000	23.850395
2320.000000	23.562186
2310.000000	23.339847
2300.000000	22.459631
2290.000000	23.153524
2280.000000	23.418862
2270.000000	24.508364
2260.000000	26.230179
2250.000000	27.189168
2240.000000	27.100890
2230.000000	26.904375
2220.000000	26.390142
2210.000000	25.951715
2200.000000	25.356725
2190.000000	25.729743
2180.000000	26.021094
2170.000000	27.282565
2160.000000	27.909568
2150.000000	29.099923
2140.000000	29.169402
2130.000000	29.190505
2120.000000	29.654877
2110.000000	29.399914
2100.000000	29.049463
2090.000000	28.318675
2080.000000	27.226296
2070.000000	25.919946
2060.000000	25.357502
2050.000000	25.568705
2040.000000	26.061062
2030.000000	26.032614
2020.000000	25.435711
2010.000000	24.552067
2000.000000	23.527072
1990.000000	22.595421
1980.000000	21.780208
1970.000000	21.078052
1960.000000	20.891072
1950.000000	21.244547
1940.000000	22.483381
1930.000000	24.834274
1920.000000	28.265185
1910.000000	33.285012
1900.000000	37.962830
1890.000000	42.353488
1880.000000	45.368697
1870.000000	46.538913
1860.000000	46.761362
1850.000000	46.582697
1840.000000	46.076477
1830.000000	45.654017
1820.000000	45.139177
1810.000000	44.712406
1800.000000	44.353892
1790.000000	43.940154
1780.000000	43.520509
1770.000000	43.077860
1760.000000	42.659114
1750.000000	42.288751
1740.000000	42.641493
1730.000000	43.833701
1720.000000	44.594935
1710.000000	44.874230
1700.000000	45.752376
1690.000000	47.714074
1680.000000	49.554592
1670.000000	50.221630
1660.000000	50.295991
1650.000000	49.896747
1640.000000	49.214379
1630.000000	48.416310
1620.000000	47.492767
1610.000000	46.551945
1600.000000	45.764147
1590.000000	45.056753
1580.000000	44.422609
1570.000000	44.006314
1560.000000	43.399662
1550.000000	42.375639
1540.000000	41.375762
1530.000000	40.771341
1520.000000	40.346626
1510.000000	40.040565
1500.000000	39.915426
1490.000000	40.006086
1480.000000	40.208973
1470.000000	40.609154
1460.000000	41.367220
1450.000000	42.528359
1440.000000	44.269462
1430.000000	46.876326
1420.000000	50.294592
1410.000000	53.896800
1400.000000	56.936913
1390.000000	58.872902
1380.000000	59.975600
1370.000000	61.066250
1360.000000	62.113645
1350.000000	63.152621
1340.000000	63.950823
1330.000000	64.688982
1320.000000	65.189121
1310.000000	65.428931
1300.000000	65.406220
1290.000000	65.321060
1280.000000	65.365314
1270.000000	65.415429
1260.000000	65.365048
1250.000000	65.081377
1240.000000	64.764000
1230.000000	64.391966
1220.000000	63.816732
1210.000000	63.279777
1200.000000	63.086067
1190.000000	63.541635
1180.000000	64.551908
1170.000000	65.853748
1160.000000	66.973715
1150.000000	67.876963
1140.000000	68.511718
1130.000000	68.779447
1120.000000	68.914490
1110.000000	69.000860
1100.000000	69.010660
1090.000000	68.975394
1080.000000	68.884421
1070.000000	68.787597
1060.000000	68.660544
1050.000000	68.585457
1040.000000	68.509336
1030.000000	68.432431
1020.000000	68.465870
1010.000000	68.593944
1000.000000	68.725221
990.000000	68.894140
980.000000	69.100074
970.000000	69.393190
960.000000	69.682285
950.000000	69.833854
940.000000	69.923216
930.000000	69.978829
920.000000	70.048364
910.000000	70.247263
900.000000	70.446745
890.000000	70.489211
880.000000	70.679728
870.000000	70.906598
860.000000	70.972661
850.000000	69.648916
840.000000	70.124978
830.000000	69.922709
820.000000	69.969905
810.000000	69.839561
800.000000	69.914992
790.000000	69.917374
780.000000	69.845679
770.000000	69.781825
760.000000	69.927909
750.000000	70.120619
740.000000	69.845188
730.000000	69.705123
720.000000	69.749906
710.000000	69.804652
700.000000	69.703836
690.000000	69.575236
680.000000	69.328026
670.000000	69.390028
660.000000	69.325392
650.000000	69.175466
640.000000	68.978367
630.000000	68.939287
620.000000	68.756895
610.000000	68.596690
600.000000	68.435813
590.000000	68.273255
580.000000	67.998836
570.000000	67.738263
560.000000	67.496559
550.000000	67.165849
540.000000	66.876859
530.000000	66.538652
520.000000	66.155964
510.000000	65.721180
500.000000	65.195406
490.000000	64.680799
480.000000	64.379985
470.000000	63.442801
460.000000	62.548739
450.000000	61.402838
440.000000	59.923419
430.000000	58.078139
420.000000	55.904171
410.000000	53.805458
400.000000	51.801349
390.000000	49.551006
380.000000	47.075246
370.000000	44.404102
360.000000	41.433798
350.000000	39.083017
340.000000	36.145187
330.000000	33.109392
320.000000	30.422964
310.000000	28.435877
300.000000	21.836339
290.000000	16.146782
280.000000	13.631128
270.000000	13.164721
260.000000	13.214496
250.000000	13.269889
