PE UV       SUBTECH     SPECTRUM    ASCII       PEDS        4.00        
   -1
3C-XXX-C053.Sample.Raw.asc
23/09/06
10:28:39.00
23/09/06
10:28:39.00
Administrator

250.000000
1
Lambda 750
750N8071901
PerkinElmer UV WinLab 6.0.4.0738 / 1.61.00 Lambda 900

0
0
3350/servo 860.8/2
0
0
UV/VIS
1
1
1
CommonBeamDepol,150mm sphere / downward view
0
0
0
0
Program
Program
3350/servo 860.8/2
3350/0.2 860.8/0.2
3350/0.2 860.8/0.2
0
1
 
 
 
0
 
860.8
319.2
860.8
Front
100
on
 
 
0
0
0
 
0
 
 
 
0
 
 
0
0
0
0
0
 
 
 
 
0
0


0
0
#HDR
-1
-1
#GR
nm
%R
1.0
0.0
2500.000000
-10.000000
226
8
75.278658
21.951812
#DATA
2500.000000	22.581542
2490.000000	22.112205
2480.000000	21.951812
2470.000000	23.044998
2460.000000	24.450525
2450.000000	24.758863
2440.000000	25.522798
2430.000000	25.926804
2420.000000	25.793933
2410.000000	26.217419
2400.000000	26.049890
2390.000000	26.138157
2380.000000	26.374685
2370.000000	26.245506
2360.000000	26.762228
2350.000000	27.041690
2340.000000	26.758572
2330.000000	26.281208
2320.000000	26.405789
2310.000000	25.603436
2300.000000	25.566948
2290.000000	25.780339
2280.000000	26.056097
2270.000000	27.141532
2260.000000	28.502571
2250.000000	29.547703
2240.000000	29.959355
2230.000000	29.329538
2220.000000	28.980649
2210.000000	28.326299
2200.000000	27.898695
2190.000000	28.179808
2180.000000	28.607156
2170.000000	29.736155
2160.000000	30.738490
2150.000000	31.093497
2140.000000	31.672546
2130.000000	31.788803
2120.000000	31.836079
2110.000000	31.835251
2100.000000	31.429397
2090.000000	30.632887
2080.000000	29.449426
2070.000000	28.278615
2060.000000	27.626146
2050.000000	27.832744
2040.000000	28.374973
2030.000000	28.270472
2020.000000	27.557512
2010.000000	26.777760
2000.000000	25.779737
1990.000000	24.926652
1980.000000	24.040850
1970.000000	23.447699
1960.000000	23.161311
1950.000000	23.605803
1940.000000	25.058418
1930.000000	27.174742
1920.000000	30.776609
1910.000000	35.666648
1900.000000	40.443071
1890.000000	44.862163
1880.000000	47.888950
1870.000000	48.933301
1860.000000	49.279323
1850.000000	48.992176
1840.000000	48.652290
1830.000000	48.089079
1820.000000	47.602376
1810.000000	47.199634
1800.000000	46.865874
1790.000000	46.533013
1780.000000	46.083525
1770.000000	45.703461
1760.000000	45.301515
1750.000000	45.040221
1740.000000	45.382856
1730.000000	46.498181
1720.000000	47.264034
1710.000000	47.556127
1700.000000	48.456921
1690.000000	50.395789
1680.000000	52.099478
1670.000000	52.758757
1660.000000	52.829035
1650.000000	52.378662
1640.000000	51.672040
1630.000000	50.861265
1620.000000	49.940353
1610.000000	49.019538
1600.000000	48.239515
1590.000000	47.543223
1580.000000	46.883226
1570.000000	46.452209
1560.000000	45.847226
1550.000000	44.783918
1540.000000	43.809281
1530.000000	43.227111
1520.000000	42.828851
1510.000000	42.521670
1500.000000	42.388170
1490.000000	42.451698
1480.000000	42.631808
1470.000000	43.064125
1460.000000	43.858915
1450.000000	45.087194
1440.000000	46.935657
1430.000000	49.634443
1420.000000	53.137720
1410.000000	56.826854
1400.000000	59.890342
1390.000000	61.815293
1380.000000	62.948179
1370.000000	64.014924
1360.000000	65.107419
1350.000000	66.179498
1340.000000	67.010822
1330.000000	67.697524
1320.000000	68.189477
1310.000000	68.448596
1300.000000	68.435615
1290.000000	68.443773
1280.000000	68.472743
1270.000000	68.562757
1260.000000	68.512056
1250.000000	68.213001
1240.000000	67.951366
1230.000000	67.606316
1220.000000	67.025345
1210.000000	66.522832
1200.000000	66.372122
1190.000000	66.853850
1180.000000	67.928508
1170.000000	69.260163
1160.000000	70.373303
1150.000000	71.295109
1140.000000	71.919774
1130.000000	72.179497
1120.000000	72.317724
1110.000000	72.404807
1100.000000	72.456876
1090.000000	72.455843
1080.000000	72.375722
1070.000000	72.275368
1060.000000	72.169967
1050.000000	72.118725
1040.000000	72.089987
1030.000000	72.070806
1020.000000	72.132140
1010.000000	72.283835
1000.000000	72.386588
990.000000	72.596609
980.000000	72.884005
970.000000	73.169994
960.000000	73.530025
950.000000	73.696484
940.000000	73.837824
930.000000	73.896044
920.000000	74.081557
910.000000	74.222021
900.000000	74.496872
890.000000	74.625268
880.000000	74.799627
870.000000	75.256182
860.000000	75.266759
850.000000	74.384244
840.000000	74.467879
830.000000	74.374575
820.000000	74.453833
810.000000	74.466126
800.000000	74.692441
790.000000	74.616058
780.000000	74.546331
770.000000	74.717767
760.000000	74.822398
750.000000	74.989494
740.000000	74.978956
730.000000	74.995727
720.000000	75.058588
710.000000	75.122052
700.000000	75.133466
690.000000	75.278658
680.000000	75.194472
670.000000	75.123700
660.000000	75.212009
650.000000	75.215004
640.000000	75.192500
630.000000	75.269170
620.000000	75.161933
610.000000	75.063477
600.000000	75.087939
590.000000	75.065611
580.000000	74.984142
570.000000	74.967913
560.000000	74.918748
550.000000	74.817559
540.000000	74.701164
530.000000	74.542553
520.000000	74.356866
510.000000	74.052200
500.000000	74.009211
490.000000	73.677964
480.000000	73.497464
470.000000	72.894402
460.000000	72.174876
450.000000	71.395355
440.000000	70.337772
430.000000	68.804213
420.000000	67.001474
410.000000	65.398269
400.000000	63.859718
390.000000	62.176305
380.000000	60.742612
370.000000	58.956413
360.000000	56.624233
350.000000	54.143508
340.000000	52.237784
330.000000	50.410717
320.000000	49.166528
310.000000	47.596359
300.000000	43.872914
290.000000	35.444464
280.000000	30.531560
270.000000	30.504951
260.000000	31.478375
250.000000	32.630684
