PE UV       SUBTECH     SPECTRUM    ASCII       PEDS        4.00        
   -1
3C-XXX-C018.Sample.Raw.asc
23/09/05
15:55:28.00
23/09/05
15:55:28.00
Administrator

250.000000
1
Lambda 750
750N8071901
PerkinElmer UV WinLab 6.0.4.0738 / 1.61.00 Lambda 900

0
0
3350/servo 860.8/2
0
0
UV/VIS
1
1
1
CommonBeamDepol,150mm sphere / downward view
0
0
0
0
Program
Program
3350/servo 860.8/2
3350/0.2 860.8/0.2
3350/0.2 860.8/0.2
0
1
 
 
 
0
 
860.8
319.2
860.8
Front
100
on
 
 
0
0
0
 
0
 
 
 
0
 
 
0
0
0
0
0
 
 
 
 
0
0


0
0
#HDR
-1
-1
#GR
nm
%R
1.0
0.0
2500.000000
-10.000000
226
8
66.254897
15.055485
#DATA
2500.000000	15.055485
2490.000000	16.799521
2480.000000	16.311811
2470.000000	17.017974
2460.000000	16.880440
2450.000000	17.770553
2440.000000	18.422013
2430.000000	18.434129
2420.000000	19.150724
2410.000000	19.347430
2400.000000	19.631978
2390.000000	19.159735
2380.000000	19.083782
2370.000000	19.679632
2360.000000	19.131564
2350.000000	19.571563
2340.000000	19.706876
2330.000000	19.476775
2320.000000	18.933789
2310.000000	18.702928
2300.000000	18.412675
2290.000000	18.618524
2280.000000	19.155124
2270.000000	20.172040
2260.000000	21.514798
2250.000000	22.080347
2240.000000	22.142972
2230.000000	21.792391
2220.000000	21.402521
2210.000000	21.217532
2200.000000	20.650540
2190.000000	20.677687
2180.000000	21.060428
2170.000000	21.822281
2160.000000	22.915020
2150.000000	23.521664
2140.000000	23.890764
2130.000000	23.822881
2120.000000	23.944430
2110.000000	23.855339
2100.000000	23.440046
2090.000000	22.819779
2080.000000	21.693911
2070.000000	20.618444
2060.000000	20.083463
2050.000000	20.244676
2040.000000	20.759588
2030.000000	20.647680
2020.000000	20.121539
2010.000000	19.369086
2000.000000	18.551877
1990.000000	17.818567
1980.000000	17.145289
1970.000000	16.649542
1960.000000	16.449962
1950.000000	16.819986
1940.000000	17.876928
1930.000000	19.664328
1920.000000	22.801759
1910.000000	27.287662
1900.000000	31.841373
1890.000000	36.108395
1880.000000	38.912755
1870.000000	40.119968
1860.000000	40.366033
1850.000000	40.219707
1840.000000	39.706270
1830.000000	39.287015
1820.000000	38.776347
1810.000000	38.385100
1800.000000	38.044129
1790.000000	37.678751
1780.000000	37.281573
1770.000000	36.879300
1760.000000	36.472872
1750.000000	36.099990
1740.000000	36.507701
1730.000000	37.625019
1720.000000	38.375092
1710.000000	38.608499
1700.000000	39.466158
1690.000000	41.405234
1680.000000	43.155351
1670.000000	43.831495
1660.000000	43.876610
1650.000000	43.445909
1640.000000	42.781382
1630.000000	41.920474
1620.000000	41.037339
1610.000000	40.039305
1600.000000	39.295534
1590.000000	38.548829
1580.000000	37.902218
1570.000000	37.488584
1560.000000	36.901647
1550.000000	35.831362
1540.000000	34.889733
1530.000000	34.289424
1520.000000	33.886176
1510.000000	33.558829
1500.000000	33.392656
1490.000000	33.393337
1480.000000	33.570889
1470.000000	33.970497
1460.000000	34.702459
1450.000000	35.904037
1440.000000	37.688751
1430.000000	40.343072
1420.000000	43.860189
1410.000000	47.622108
1400.000000	50.819817
1390.000000	52.810379
1380.000000	53.966248
1370.000000	55.114216
1360.000000	56.229258
1350.000000	57.311142
1340.000000	58.179708
1330.000000	58.914708
1320.000000	59.526428
1310.000000	59.846534
1300.000000	59.855573
1290.000000	59.789008
1280.000000	59.831570
1270.000000	59.904480
1260.000000	59.855768
1250.000000	59.531962
1240.000000	59.265951
1230.000000	58.852698
1220.000000	58.252040
1210.000000	57.695615
1200.000000	57.509708
1190.000000	57.983864
1180.000000	59.046677
1170.000000	60.443782
1160.000000	61.657525
1150.000000	62.588409
1140.000000	63.254433
1130.000000	63.539738
1120.000000	63.654665
1110.000000	63.742623
1100.000000	63.762889
1090.000000	63.721798
1080.000000	63.639477
1070.000000	63.514747
1060.000000	63.379485
1050.000000	63.303894
1040.000000	63.240104
1030.000000	63.178926
1020.000000	63.200256
1010.000000	63.335593
1000.000000	63.469511
990.000000	63.665509
980.000000	63.910554
970.000000	64.229121
960.000000	64.528875
950.000000	64.690888
940.000000	64.840496
930.000000	64.927931
920.000000	65.031232
910.000000	65.260755
900.000000	65.649129
890.000000	65.779518
880.000000	66.036553
870.000000	66.113418
860.000000	66.254897
850.000000	65.577160
840.000000	65.756218
830.000000	65.589489
820.000000	65.363614
810.000000	65.306079
800.000000	65.452639
790.000000	65.433526
780.000000	65.409986
770.000000	65.591622
760.000000	65.575363
750.000000	65.629191
740.000000	65.662168
730.000000	65.816323
720.000000	65.759768
710.000000	65.870563
700.000000	65.882723
690.000000	65.865245
680.000000	65.738275
670.000000	65.883321
660.000000	65.860291
650.000000	65.807859
640.000000	65.853086
630.000000	65.770982
620.000000	65.702170
610.000000	65.609421
600.000000	65.594108
590.000000	65.592249
580.000000	65.476201
570.000000	65.376245
560.000000	65.265681
550.000000	65.128005
540.000000	65.021450
530.000000	64.807825
520.000000	64.622263
510.000000	64.381882
500.000000	64.226510
490.000000	63.833404
480.000000	63.666184
470.000000	63.092851
460.000000	62.291655
450.000000	61.617482
440.000000	60.286835
430.000000	58.584082
420.000000	56.644391
410.000000	54.771592
400.000000	52.939357
390.000000	51.112034
380.000000	48.978763
370.000000	47.126618
360.000000	44.335037
350.000000	41.952295
340.000000	39.213890
330.000000	37.132358
320.000000	35.315079
310.000000	34.286020
300.000000	31.420438
290.000000	26.077266
280.000000	23.229654
270.000000	23.790004
260.000000	24.667227
250.000000	26.062038
