PE UV       SUBTECH     SPECTRUM    ASCII       PEDS        4.00        
   -1
3C-XXX-C017.Sample.Raw.asc
23/09/05
15:52:32.00
23/09/05
15:52:32.00
Administrator

250.000000
1
Lambda 750
750N8071901
PerkinElmer UV WinLab 6.0.4.0738 / 1.61.00 Lambda 900

0
0
3350/servo 860.8/2
0
0
UV/VIS
1
1
1
CommonBeamDepol,150mm sphere / downward view
0
0
0
0
Program
Program
3350/servo 860.8/2
3350/0.2 860.8/0.2
3350/0.2 860.8/0.2
0
1
 
 
 
0
 
860.8
319.2
860.8
Front
100
on
 
 
0
0
0
 
0
 
 
 
0
 
 
0
0
0
0
0
 
 
 
 
0
0


0
0
#HDR
-1
-1
#GR
nm
%R
1.0
0.0
2500.000000
-10.000000
226
8
69.064029
17.409581
#DATA
2500.000000	17.409581
2490.000000	18.117346
2480.000000	17.727403
2470.000000	17.924577
2460.000000	19.076722
2450.000000	20.145065
2440.000000	20.844254
2430.000000	20.821840
2420.000000	20.762854
2410.000000	20.923436
2400.000000	21.127974
2390.000000	20.994084
2380.000000	20.603017
2370.000000	21.966704
2360.000000	21.526087
2350.000000	21.602192
2340.000000	21.643569
2330.000000	21.473330
2320.000000	20.932268
2310.000000	20.640261
2300.000000	20.490220
2290.000000	20.633189
2280.000000	21.357254
2270.000000	22.137652
2260.000000	23.454826
2250.000000	24.342690
2240.000000	24.399461
2230.000000	24.214155
2220.000000	23.664367
2210.000000	23.148576
2200.000000	22.897698
2190.000000	22.646888
2180.000000	23.437871
2170.000000	24.011542
2160.000000	25.198493
2150.000000	25.507788
2140.000000	26.111123
2130.000000	26.212589
2120.000000	26.086268
2110.000000	26.019000
2100.000000	25.605167
2090.000000	25.098375
2080.000000	23.977948
2070.000000	22.810675
2060.000000	22.190452
2050.000000	22.448676
2040.000000	22.953132
2030.000000	22.826107
2020.000000	22.283185
2010.000000	21.465264
2000.000000	20.625260
1990.000000	19.789143
1980.000000	19.109758
1970.000000	18.616156
1960.000000	18.447997
1950.000000	18.742788
1940.000000	19.894341
1930.000000	21.847417
1920.000000	25.168839
1910.000000	29.574658
1900.000000	34.382714
1890.000000	38.747747
1880.000000	41.492425
1870.000000	42.762081
1860.000000	43.013083
1850.000000	42.783397
1840.000000	42.315475
1830.000000	41.870213
1820.000000	41.322147
1810.000000	40.912255
1800.000000	40.617922
1790.000000	40.239353
1780.000000	39.834839
1770.000000	39.479815
1760.000000	38.985385
1750.000000	38.698138
1740.000000	39.049646
1730.000000	40.191384
1720.000000	40.930865
1710.000000	41.196053
1700.000000	42.083360
1690.000000	44.026735
1680.000000	45.779041
1670.000000	46.475468
1660.000000	46.494670
1650.000000	46.074296
1640.000000	45.358605
1630.000000	44.515543
1620.000000	43.595024
1610.000000	42.629628
1600.000000	41.876330
1590.000000	41.128132
1580.000000	40.462664
1570.000000	40.036489
1560.000000	39.444263
1550.000000	38.360774
1540.000000	37.418873
1530.000000	36.837369
1520.000000	36.416375
1510.000000	36.102896
1500.000000	35.956529
1490.000000	35.974199
1480.000000	36.102638
1470.000000	36.560315
1460.000000	37.302005
1450.000000	38.528460
1440.000000	40.347681
1430.000000	43.022144
1420.000000	46.556989
1410.000000	50.342934
1400.000000	53.529883
1390.000000	55.523319
1380.000000	56.699477
1370.000000	57.845807
1360.000000	58.985500
1350.000000	60.095614
1340.000000	60.975783
1330.000000	61.766613
1320.000000	62.361035
1310.000000	62.674939
1300.000000	62.692852
1290.000000	62.656282
1280.000000	62.677882
1270.000000	62.718752
1260.000000	62.673167
1250.000000	62.392592
1240.000000	62.098649
1230.000000	61.643498
1220.000000	61.020991
1210.000000	60.427724
1200.000000	60.280042
1190.000000	60.782729
1180.000000	61.889634
1170.000000	63.286191
1160.000000	64.528127
1150.000000	65.485097
1140.000000	66.186150
1130.000000	66.446589
1120.000000	66.588109
1110.000000	66.671988
1100.000000	66.703723
1090.000000	66.668001
1080.000000	66.568603
1070.000000	66.410906
1060.000000	66.310976
1050.000000	66.201989
1040.000000	66.118848
1030.000000	66.030250
1020.000000	66.045576
1010.000000	66.209544
1000.000000	66.341618
990.000000	66.544489
980.000000	66.769020
970.000000	67.091629
960.000000	67.379889
950.000000	67.553038
940.000000	67.657058
930.000000	67.816461
920.000000	67.862714
910.000000	68.081560
900.000000	68.470731
890.000000	68.540700
880.000000	68.791615
870.000000	68.954408
860.000000	69.064029
850.000000	67.978573
840.000000	68.590497
830.000000	68.500450
820.000000	68.292170
810.000000	68.448460
800.000000	68.417163
790.000000	68.596406
780.000000	68.400572
770.000000	68.591842
760.000000	68.623695
750.000000	68.652662
740.000000	68.632456
730.000000	68.783718
720.000000	68.707676
710.000000	68.900623
700.000000	68.947162
690.000000	68.865674
680.000000	68.769497
670.000000	68.791071
660.000000	68.878188
650.000000	68.879669
640.000000	68.798852
630.000000	68.813787
620.000000	68.677415
610.000000	68.567028
600.000000	68.597101
590.000000	68.499089
580.000000	68.364238
570.000000	68.299517
560.000000	68.136959
550.000000	68.006580
540.000000	67.867912
530.000000	67.736630
520.000000	67.460808
510.000000	67.184626
500.000000	67.076760
490.000000	66.610103
480.000000	66.450745
470.000000	65.899597
460.000000	64.969344
450.000000	64.288996
440.000000	63.015969
430.000000	61.207048
420.000000	59.373389
410.000000	57.463814
400.000000	55.558261
390.000000	53.809792
380.000000	51.809416
370.000000	49.949620
360.000000	47.463074
350.000000	44.993783
340.000000	42.126627
330.000000	40.461108
320.000000	38.711473
310.000000	37.666359
300.000000	34.265527
290.000000	28.134362
280.000000	24.688986
270.000000	25.248015
260.000000	26.176374
250.000000	27.441660
