PE UV       SUBTECH     SPECTRUM    ASCII       PEDS        4.00        
   -1
3C-XXX-C067.Sample.Raw.asc
23/09/06
11:17:20.00
23/09/06
11:17:20.00
Administrator

250.000000
1
Lambda 750
750N8071901
PerkinElmer UV WinLab 6.0.4.0738 / 1.61.00 Lambda 900

0
0
3350/servo 860.8/2
0
0
UV/VIS
1
1
1
CommonBeamDepol,150mm sphere / downward view
0
0
0
0
Program
Program
3350/servo 860.8/2
3350/0.2 860.8/0.2
3350/0.2 860.8/0.2
0
1
 
 
 
0
 
860.8
319.2
860.8
Front
100
on
 
 
0
0
0
 
0
 
 
 
0
 
 
0
0
0
0
0
 
 
 
 
0
0


0
0
#HDR
-1
-1
#GR
nm
%R
1.0
0.0
2500.000000
-10.000000
226
8
71.185301
21.009977
#DATA
2500.000000	21.009977
2490.000000	21.118274
2480.000000	21.321961
2470.000000	22.414008
2460.000000	22.857564
2450.000000	24.143511
2440.000000	24.521717
2430.000000	24.759954
2420.000000	24.445258
2410.000000	24.849566
2400.000000	25.005334
2390.000000	25.054733
2380.000000	25.425203
2370.000000	24.990766
2360.000000	25.774596
2350.000000	25.841674
2340.000000	25.787591
2330.000000	24.943416
2320.000000	25.158753
2310.000000	24.441240
2300.000000	24.271140
2290.000000	24.703964
2280.000000	24.817282
2270.000000	25.769435
2260.000000	27.308539
2250.000000	28.171598
2240.000000	28.529345
2230.000000	28.100190
2220.000000	27.737049
2210.000000	27.054006
2200.000000	26.578286
2190.000000	26.856545
2180.000000	27.688125
2170.000000	28.360350
2160.000000	29.286874
2150.000000	29.716065
2140.000000	30.192093
2130.000000	30.355165
2120.000000	30.373460
2110.000000	30.551572
2100.000000	30.014797
2090.000000	29.216027
2080.000000	28.206930
2070.000000	27.024507
2060.000000	26.438603
2050.000000	26.710305
2040.000000	27.072716
2030.000000	26.960604
2020.000000	26.289439
2010.000000	25.526005
2000.000000	24.634646
1990.000000	23.823248
1980.000000	23.038342
1970.000000	22.513870
1960.000000	22.263304
1950.000000	22.710433
1940.000000	23.840918
1930.000000	25.994305
1920.000000	29.475637
1910.000000	34.080479
1900.000000	38.605643
1890.000000	42.837007
1880.000000	45.523846
1870.000000	46.597075
1860.000000	46.918135
1850.000000	46.599444
1840.000000	46.257004
1830.000000	45.793558
1820.000000	45.330115
1810.000000	44.910687
1800.000000	44.644859
1790.000000	44.343562
1780.000000	43.925795
1770.000000	43.533877
1760.000000	43.145990
1750.000000	42.849425
1740.000000	43.229226
1730.000000	44.279438
1720.000000	45.030371
1710.000000	45.278467
1700.000000	46.124688
1690.000000	47.969450
1680.000000	49.551420
1670.000000	50.187220
1660.000000	50.298135
1650.000000	49.836125
1640.000000	49.195049
1630.000000	48.426442
1620.000000	47.539703
1610.000000	46.683794
1600.000000	45.961018
1590.000000	45.289643
1580.000000	44.673486
1570.000000	44.297899
1560.000000	43.716662
1550.000000	42.694651
1540.000000	41.774378
1530.000000	41.222331
1520.000000	40.840970
1510.000000	40.563302
1500.000000	40.457056
1490.000000	40.513107
1480.000000	40.667698
1470.000000	41.057461
1460.000000	41.813939
1450.000000	42.986637
1440.000000	44.730916
1430.000000	47.276213
1420.000000	50.573210
1410.000000	54.038171
1400.000000	56.860311
1390.000000	58.646781
1380.000000	59.737374
1370.000000	60.693686
1360.000000	61.713992
1350.000000	62.692059
1340.000000	63.469910
1330.000000	64.051317
1320.000000	64.478876
1310.000000	64.716640
1300.000000	64.709484
1290.000000	64.708402
1280.000000	64.709607
1270.000000	64.790722
1260.000000	64.753199
1250.000000	64.524146
1240.000000	64.257712
1230.000000	63.921146
1220.000000	63.381292
1210.000000	62.910681
1200.000000	62.779061
1190.000000	63.235115
1180.000000	64.234624
1170.000000	65.437401
1160.000000	66.473134
1150.000000	67.310174
1140.000000	67.904768
1130.000000	68.167428
1120.000000	68.322971
1110.000000	68.404975
1100.000000	68.460971
1090.000000	68.430801
1080.000000	68.365237
1070.000000	68.305285
1060.000000	68.230422
1050.000000	68.232239
1040.000000	68.232074
1030.000000	68.186652
1020.000000	68.267259
1010.000000	68.408467
1000.000000	68.522316
990.000000	68.743010
980.000000	69.012326
970.000000	69.277896
960.000000	69.603949
950.000000	69.795647
940.000000	69.904039
930.000000	70.002298
920.000000	70.199441
910.000000	70.364261
900.000000	70.623002
890.000000	70.695608
880.000000	70.939233
870.000000	71.185301
860.000000	71.060207
850.000000	70.271960
840.000000	70.451658
830.000000	70.199021
820.000000	70.084406
810.000000	70.072428
800.000000	70.250822
790.000000	70.241433
780.000000	70.201101
770.000000	70.367982
760.000000	70.404738
750.000000	70.429050
740.000000	70.566178
730.000000	70.427825
720.000000	70.715496
710.000000	70.626009
700.000000	70.671079
690.000000	70.831645
680.000000	70.767776
670.000000	70.675851
660.000000	70.682854
650.000000	70.647468
640.000000	70.696846
630.000000	70.697961
620.000000	70.677479
610.000000	70.545873
600.000000	70.577474
590.000000	70.561268
580.000000	70.364638
570.000000	70.433975
560.000000	70.306544
550.000000	70.288053
540.000000	70.173717
530.000000	70.013418
520.000000	69.824945
510.000000	69.549989
500.000000	69.498966
490.000000	69.171730
480.000000	69.025109
470.000000	68.505916
460.000000	67.814436
450.000000	67.229847
440.000000	66.135216
430.000000	64.602440
420.000000	62.914074
410.000000	61.312052
400.000000	60.004176
390.000000	58.403805
380.000000	56.971563
370.000000	55.104931
360.000000	52.665034
350.000000	50.681488
340.000000	48.369881
330.000000	46.161024
320.000000	45.760628
310.000000	43.787450
300.000000	39.170723
290.000000	31.424405
280.000000	26.969597
270.000000	27.185221
260.000000	28.051107
250.000000	29.008617
