PE UV       SUBTECH     SPECTRUM    ASCII       PEDS        4.00        
   -1
3C-XXX-F030.Sample.Raw.asc
23/09/06
15:25:30.00
23/09/06
15:25:30.00
Administrator

250.000000
1
Lambda 750
750N8071901
PerkinElmer UV WinLab 6.0.4.0738 / 1.61.00 Lambda 900

0
0
3350/servo 860.8/2
0
0
UV/VIS
1
1
1
CommonBeamDepol,150mm sphere / downward view
0
0
0
0
Program
Program
3350/servo 860.8/2
3350/0.2 860.8/0.2
3350/0.2 860.8/0.2
0
1
 
 
 
0
 
860.8
319.2
860.8
Front
100
on
 
 
0
0
0
 
0
 
 
 
0
 
 
0
0
0
0
0
 
 
 
 
0
0


0
0
#HDR
-1
-1
#GR
nm
%R
1.0
0.0
2500.000000
-10.000000
226
8
71.870563
13.088832
#DATA
2500.000000	18.828519
2490.000000	19.569145
2480.000000	19.038905
2470.000000	20.838327
2460.000000	21.376977
2450.000000	21.667379
2440.000000	21.872519
2430.000000	22.721847
2420.000000	23.286378
2410.000000	22.813941
2400.000000	22.965503
2390.000000	22.900532
2380.000000	22.650555
2370.000000	23.242827
2360.000000	23.188425
2350.000000	23.379450
2340.000000	23.173298
2330.000000	23.094425
2320.000000	22.609246
2310.000000	22.345825
2300.000000	21.806701
2290.000000	22.495303
2280.000000	22.765685
2270.000000	23.761140
2260.000000	25.519672
2250.000000	26.512674
2240.000000	26.492680
2230.000000	26.349462
2220.000000	25.747905
2210.000000	25.396632
2200.000000	24.770587
2190.000000	24.844076
2180.000000	25.565834
2170.000000	26.479096
2160.000000	27.268366
2150.000000	28.214149
2140.000000	28.443897
2130.000000	28.616462
2120.000000	28.786782
2110.000000	28.784634
2100.000000	28.471022
2090.000000	27.679871
2080.000000	26.513188
2070.000000	25.283303
2060.000000	24.648966
2050.000000	24.719935
2040.000000	25.392949
2030.000000	25.287892
2020.000000	24.698629
2010.000000	23.800683
2000.000000	22.780035
1990.000000	21.836396
1980.000000	21.122737
1970.000000	20.433591
1960.000000	20.165005
1950.000000	20.675014
1940.000000	21.907332
1930.000000	24.174425
1920.000000	27.542308
1910.000000	32.584509
1900.000000	37.520540
1890.000000	42.078783
1880.000000	45.149156
1870.000000	46.361292
1860.000000	46.616174
1850.000000	46.454467
1840.000000	45.930118
1830.000000	45.484584
1820.000000	44.959931
1810.000000	44.544736
1800.000000	44.152565
1790.000000	43.778388
1780.000000	43.316095
1770.000000	42.904775
1760.000000	42.482284
1750.000000	42.053694
1740.000000	42.459238
1730.000000	43.641849
1720.000000	44.455810
1710.000000	44.718553
1700.000000	45.665116
1690.000000	47.652755
1680.000000	49.555299
1670.000000	50.242723
1660.000000	50.337407
1650.000000	49.944480
1640.000000	49.227205
1630.000000	48.408238
1620.000000	47.446482
1610.000000	46.473065
1600.000000	45.683606
1590.000000	44.935886
1580.000000	44.279064
1570.000000	43.844731
1560.000000	43.240784
1550.000000	42.184269
1540.000000	41.131152
1530.000000	40.510849
1520.000000	40.082175
1510.000000	39.762010
1500.000000	39.640094
1490.000000	39.720650
1480.000000	39.926566
1470.000000	40.311455
1460.000000	41.097193
1450.000000	42.316930
1440.000000	44.120181
1430.000000	46.832700
1420.000000	50.343388
1410.000000	54.063437
1400.000000	57.181656
1390.000000	59.160009
1380.000000	60.295418
1370.000000	61.413683
1360.000000	62.465916
1350.000000	63.535340
1340.000000	64.355267
1330.000000	65.039630
1320.000000	65.485798
1310.000000	65.695365
1300.000000	65.666075
1290.000000	65.597206
1280.000000	65.649060
1270.000000	65.706310
1260.000000	65.668662
1250.000000	65.379833
1240.000000	65.048789
1230.000000	64.732212
1220.000000	64.117096
1210.000000	63.555393
1200.000000	63.375162
1190.000000	63.861447
1180.000000	64.889568
1170.000000	66.196969
1160.000000	67.360143
1150.000000	68.274056
1140.000000	68.948320
1130.000000	69.243170
1120.000000	69.344920
1110.000000	69.441628
1100.000000	69.492430
1090.000000	69.459428
1080.000000	69.385335
1070.000000	69.292761
1060.000000	69.194087
1050.000000	69.130327
1040.000000	69.089083
1030.000000	69.054355
1020.000000	69.092386
1010.000000	69.220808
1000.000000	69.341753
990.000000	69.509844
980.000000	69.743214
970.000000	70.056681
960.000000	70.326553
950.000000	70.501463
940.000000	70.542734
930.000000	70.658198
920.000000	70.725423
910.000000	70.948253
900.000000	71.222900
890.000000	71.313744
880.000000	71.406196
870.000000	71.590881
860.000000	71.870563
850.000000	70.104028
840.000000	70.518107
830.000000	70.531296
820.000000	70.537617
810.000000	70.373450
800.000000	70.341263
790.000000	70.634436
780.000000	70.503864
770.000000	70.568346
760.000000	70.484614
750.000000	70.568264
740.000000	70.527988
730.000000	70.524371
720.000000	70.593356
710.000000	70.645838
700.000000	70.382202
690.000000	70.460017
680.000000	70.174539
670.000000	70.240480
660.000000	70.208636
650.000000	70.078803
640.000000	69.998197
630.000000	69.907138
620.000000	69.730379
610.000000	69.589334
600.000000	69.451658
590.000000	69.303938
580.000000	69.117123
570.000000	68.922654
560.000000	68.638545
550.000000	68.337842
540.000000	68.033359
530.000000	67.709751
520.000000	67.325287
510.000000	66.868376
500.000000	66.316692
490.000000	65.857950
480.000000	65.482652
470.000000	64.545539
460.000000	63.678759
450.000000	62.367331
440.000000	60.789617
430.000000	58.750861
420.000000	56.377880
410.000000	54.066039
400.000000	51.758424
390.000000	49.147291
380.000000	46.522993
370.000000	43.658101
360.000000	40.703761
350.000000	37.572756
340.000000	34.472892
330.000000	31.629859
320.000000	28.388692
310.000000	26.598677
300.000000	21.603786
290.000000	15.805736
280.000000	13.504560
270.000000	13.088832
260.000000	13.254086
250.000000	13.404159
