PE UV       SUBTECH     SPECTRUM    ASCII       PEDS        4.00        
   -1
3C-XXX-C043.Sample.Raw.asc
23/09/06
09:53:35.00
23/09/06
09:53:35.00
Administrator

250.000000
1
Lambda 750
750N8071901
PerkinElmer UV WinLab 6.0.4.0738 / 1.61.00 Lambda 900

0
0
3350/servo 860.8/2
0
0
UV/VIS
1
1
1
CommonBeamDepol,150mm sphere / downward view
0
0
0
0
Program
Program
3350/servo 860.8/2
3350/0.2 860.8/0.2
3350/0.2 860.8/0.2
0
1
 
 
 
0
 
860.8
319.2
860.8
Front
100
on
 
 
0
0
0
 
0
 
 
 
0
 
 
0
0
0
0
0
 
 
 
 
0
0


0
0
#HDR
-1
-1
#GR
nm
%R
1.0
0.0
2500.000000
-10.000000
226
8
71.011195
20.649385
#DATA
2500.000000	20.649385
2490.000000	21.940046
2480.000000	21.885560
2470.000000	22.211219
2460.000000	22.825018
2450.000000	24.166020
2440.000000	23.906980
2430.000000	24.843315
2420.000000	24.500492
2410.000000	25.501214
2400.000000	24.676613
2390.000000	25.440802
2380.000000	25.403129
2370.000000	25.210423
2360.000000	25.358713
2350.000000	25.697835
2340.000000	26.073287
2330.000000	25.334601
2320.000000	24.748728
2310.000000	24.530695
2300.000000	24.268683
2290.000000	24.331667
2280.000000	25.153361
2270.000000	25.799812
2260.000000	27.150968
2250.000000	28.207189
2240.000000	28.275238
2230.000000	28.246485
2220.000000	27.642993
2210.000000	27.019139
2200.000000	26.622136
2190.000000	26.824566
2180.000000	27.574902
2170.000000	28.354845
2160.000000	29.195432
2150.000000	29.559206
2140.000000	30.319424
2130.000000	30.252138
2120.000000	30.375699
2110.000000	30.328191
2100.000000	29.985507
2090.000000	29.210856
2080.000000	28.149973
2070.000000	27.111947
2060.000000	26.424558
2050.000000	26.673860
2040.000000	27.085210
2030.000000	27.000695
2020.000000	26.372358
2010.000000	25.643137
2000.000000	24.677841
1990.000000	23.814184
1980.000000	23.066772
1970.000000	22.527647
1960.000000	22.277419
1950.000000	22.672391
1940.000000	23.903525
1930.000000	26.071999
1920.000000	29.357442
1910.000000	34.008990
1900.000000	38.414083
1890.000000	42.659267
1880.000000	45.396999
1870.000000	46.492364
1860.000000	46.790873
1850.000000	46.470937
1840.000000	46.161802
1830.000000	45.644511
1820.000000	45.198459
1810.000000	44.796113
1800.000000	44.489690
1790.000000	44.183896
1780.000000	43.800806
1770.000000	43.405683
1760.000000	42.992039
1750.000000	42.722758
1740.000000	43.069831
1730.000000	44.133294
1720.000000	44.863158
1710.000000	45.100356
1700.000000	45.970901
1690.000000	47.777420
1680.000000	49.385963
1670.000000	50.037566
1660.000000	50.131556
1650.000000	49.698856
1640.000000	49.014754
1630.000000	48.279865
1620.000000	47.417353
1610.000000	46.549479
1600.000000	45.784032
1590.000000	45.159144
1580.000000	44.552181
1570.000000	44.133126
1560.000000	43.560864
1550.000000	42.587624
1540.000000	41.664995
1530.000000	41.113210
1520.000000	40.719557
1510.000000	40.439867
1500.000000	40.328342
1490.000000	40.387718
1480.000000	40.544718
1470.000000	40.949447
1460.000000	41.709126
1450.000000	42.870317
1440.000000	44.607905
1430.000000	47.157987
1420.000000	50.426129
1410.000000	53.863471
1400.000000	56.703396
1390.000000	58.484621
1380.000000	59.531409
1370.000000	60.543649
1360.000000	61.547999
1350.000000	62.529074
1340.000000	63.306160
1330.000000	63.945039
1320.000000	64.402135
1310.000000	64.657001
1300.000000	64.676315
1290.000000	64.690654
1280.000000	64.692737
1270.000000	64.732313
1260.000000	64.696641
1250.000000	64.455909
1240.000000	64.207783
1230.000000	63.859367
1220.000000	63.294324
1210.000000	62.828095
1200.000000	62.708095
1190.000000	63.170022
1180.000000	64.155902
1170.000000	65.372086
1160.000000	66.415004
1150.000000	67.256171
1140.000000	67.831226
1130.000000	68.098573
1120.000000	68.240697
1110.000000	68.331260
1100.000000	68.357696
1090.000000	68.337544
1080.000000	68.266562
1070.000000	68.167532
1060.000000	68.108081
1050.000000	68.033716
1040.000000	68.019903
1030.000000	67.991438
1020.000000	68.049507
1010.000000	68.201095
1000.000000	68.319614
990.000000	68.511215
980.000000	68.786491
970.000000	69.089756
960.000000	69.380101
950.000000	69.551730
940.000000	69.672533
930.000000	69.770466
920.000000	69.919706
910.000000	70.018197
900.000000	70.315657
890.000000	70.498522
880.000000	70.719466
870.000000	70.980636
860.000000	71.005216
850.000000	70.205199
840.000000	70.608625
830.000000	70.490395
820.000000	70.262351
810.000000	70.392948
800.000000	70.513239
790.000000	70.619461
780.000000	70.543283
770.000000	70.611499
760.000000	70.675343
750.000000	70.758637
740.000000	70.870892
730.000000	70.764135
720.000000	70.875101
710.000000	70.924028
700.000000	71.004044
690.000000	71.011195
680.000000	70.915058
670.000000	70.902856
660.000000	70.925794
650.000000	70.806922
640.000000	70.816946
630.000000	70.898858
620.000000	70.803506
610.000000	70.680022
600.000000	70.655200
590.000000	70.601797
580.000000	70.477258
570.000000	70.479263
560.000000	70.440623
550.000000	70.305692
540.000000	70.204528
530.000000	70.078406
520.000000	69.918527
510.000000	69.679663
500.000000	69.516922
490.000000	69.165914
480.000000	68.985311
470.000000	68.511846
460.000000	67.779449
450.000000	67.032234
440.000000	65.882617
430.000000	64.407350
420.000000	62.688130
410.000000	61.027540
400.000000	59.622319
390.000000	57.993827
380.000000	56.454414
370.000000	54.538055
360.000000	51.774181
350.000000	49.556263
340.000000	46.947802
330.000000	44.851682
320.000000	44.031929
310.000000	42.903111
300.000000	38.601479
290.000000	30.750785
280.000000	26.463632
270.000000	26.686419
260.000000	27.589740
250.000000	28.685776
