PE UV       SUBTECH     SPECTRUM    ASCII       PEDS        4.00        
   -1
3C-XXX-C011.Sample.Raw.asc
23/09/05
15:35:39.00
23/09/05
15:35:39.00
Administrator

250.000000
1
Lambda 750
750N8071901
PerkinElmer UV WinLab 6.0.4.0738 / 1.61.00 Lambda 900

0
0
3350/servo 860.8/2
0
0
UV/VIS
1
1
1
CommonBeamDepol,150mm sphere / downward view
0
0
0
0
Program
Program
3350/servo 860.8/2
3350/0.2 860.8/0.2
3350/0.2 860.8/0.2
0
1
 
 
 
0
 
860.8
319.2
860.8
Front
100
on
 
 
0
0
0
 
0
 
 
 
0
 
 
0
0
0
0
0
 
 
 
 
0
0


0
0
#HDR
-1
-1
#GR
nm
%R
1.0
0.0
2500.000000
-10.000000
226
8
66.298329
15.229955
#DATA
2500.000000	15.229955
2490.000000	15.901222
2480.000000	15.979353
2470.000000	16.537619
2460.000000	16.104743
2450.000000	16.768498
2440.000000	17.065537
2430.000000	18.705138
2420.000000	18.147333
2410.000000	19.002317
2400.000000	18.440688
2390.000000	18.324586
2380.000000	18.494467
2370.000000	19.148688
2360.000000	18.984360
2350.000000	19.186309
2340.000000	19.034223
2330.000000	18.579683
2320.000000	18.557012
2310.000000	18.078401
2300.000000	17.942053
2290.000000	18.283803
2280.000000	18.598586
2270.000000	19.605471
2260.000000	20.895760
2250.000000	21.855106
2240.000000	21.783321
2230.000000	21.440126
2220.000000	20.866234
2210.000000	20.441772
2200.000000	20.058667
2190.000000	20.066238
2180.000000	20.652107
2170.000000	21.519634
2160.000000	22.472790
2150.000000	22.961828
2140.000000	23.286890
2130.000000	23.549725
2120.000000	23.547446
2110.000000	23.244901
2100.000000	23.024119
2090.000000	22.207169
2080.000000	21.346551
2070.000000	20.274921
2060.000000	19.700040
2050.000000	19.904877
2040.000000	20.346200
2030.000000	20.185604
2020.000000	19.663907
2010.000000	18.937304
2000.000000	18.138323
1990.000000	17.350472
1980.000000	16.648533
1970.000000	16.085050
1960.000000	15.885294
1950.000000	16.498216
1940.000000	17.491568
1930.000000	19.341232
1920.000000	22.509753
1910.000000	26.801278
1900.000000	31.327903
1890.000000	35.721111
1880.000000	38.565651
1870.000000	39.805709
1860.000000	40.034670
1850.000000	39.828850
1840.000000	39.390280
1830.000000	38.917609
1820.000000	38.430428
1810.000000	37.984688
1800.000000	37.651028
1790.000000	37.267405
1780.000000	36.886377
1770.000000	36.479678
1760.000000	36.071247
1750.000000	35.702601
1740.000000	36.104993
1730.000000	37.237129
1720.000000	37.997623
1710.000000	38.220448
1700.000000	39.121319
1690.000000	41.045903
1680.000000	42.829342
1670.000000	43.511718
1660.000000	43.550800
1650.000000	43.104806
1640.000000	42.445889
1630.000000	41.572865
1620.000000	40.669784
1610.000000	39.694752
1600.000000	38.911038
1590.000000	38.179291
1580.000000	37.515266
1570.000000	37.103852
1560.000000	36.473756
1550.000000	35.417179
1540.000000	34.497691
1530.000000	33.890518
1520.000000	33.469760
1510.000000	33.143925
1500.000000	32.980625
1490.000000	33.015050
1480.000000	33.149169
1470.000000	33.577900
1460.000000	34.316303
1450.000000	35.536483
1440.000000	37.360559
1430.000000	40.036529
1420.000000	43.605488
1410.000000	47.419122
1400.000000	50.634635
1390.000000	52.642162
1380.000000	53.841484
1370.000000	54.968787
1360.000000	56.107120
1350.000000	57.218468
1340.000000	58.090705
1330.000000	58.798217
1320.000000	59.330833
1310.000000	59.617446
1300.000000	59.593815
1290.000000	59.538568
1280.000000	59.579903
1270.000000	59.643269
1260.000000	59.605597
1250.000000	59.332872
1240.000000	59.042279
1230.000000	58.604255
1220.000000	57.967087
1210.000000	57.401603
1200.000000	57.242713
1190.000000	57.759448
1180.000000	58.859864
1170.000000	60.262855
1160.000000	61.480945
1150.000000	62.436254
1140.000000	63.114012
1130.000000	63.404313
1120.000000	63.540245
1110.000000	63.620336
1100.000000	63.672971
1090.000000	63.616644
1080.000000	63.564282
1070.000000	63.456561
1060.000000	63.366555
1050.000000	63.304191
1040.000000	63.260102
1030.000000	63.204617
1020.000000	63.237055
1010.000000	63.386326
1000.000000	63.536786
990.000000	63.737894
980.000000	63.989858
970.000000	64.312004
960.000000	64.614578
950.000000	64.811955
940.000000	64.953949
930.000000	65.038969
920.000000	65.178438
910.000000	65.402419
900.000000	65.701446
890.000000	65.917009
880.000000	66.077461
870.000000	66.163969
860.000000	66.298329
850.000000	65.515553
840.000000	65.555396
830.000000	65.553721
820.000000	65.606862
810.000000	65.533042
800.000000	65.624498
790.000000	65.601641
780.000000	65.596140
770.000000	65.699934
760.000000	65.794264
750.000000	65.810230
740.000000	65.875064
730.000000	65.889101
720.000000	65.941445
710.000000	66.004440
700.000000	65.962203
690.000000	65.953615
680.000000	65.938416
670.000000	65.880970
660.000000	65.955812
650.000000	65.903005
640.000000	65.824298
630.000000	65.800004
620.000000	65.751355
610.000000	65.688912
600.000000	65.608490
590.000000	65.481056
580.000000	65.395087
570.000000	65.295805
560.000000	65.138194
550.000000	64.988208
540.000000	64.818692
530.000000	64.654671
520.000000	64.425247
510.000000	64.216122
500.000000	63.949613
490.000000	63.620379
480.000000	63.340281
470.000000	62.724435
460.000000	61.982258
450.000000	61.042567
440.000000	59.847883
430.000000	57.982344
420.000000	56.041326
410.000000	54.114805
400.000000	52.214202
390.000000	50.387624
380.000000	48.270351
370.000000	46.180002
360.000000	43.574124
350.000000	41.205270
340.000000	38.697820
330.000000	36.538705
320.000000	35.039687
310.000000	32.985958
300.000000	29.446215
290.000000	24.660347
280.000000	22.387436
270.000000	23.092680
260.000000	24.014165
250.000000	25.453496
