PE UV       SUBTECH     SPECTRUM    ASCII       PEDS        4.00        
   -1
3C-XXX-C049.Sample.Raw.asc
23/09/06
10:14:41.00
23/09/06
10:14:41.00
Administrator

250.000000
1
Lambda 750
750N8071901
PerkinElmer UV WinLab 6.0.4.0738 / 1.61.00 Lambda 900

0
0
3350/servo 860.8/2
0
0
UV/VIS
1
1
1
CommonBeamDepol,150mm sphere / downward view
0
0
0
0
Program
Program
3350/servo 860.8/2
3350/0.2 860.8/0.2
3350/0.2 860.8/0.2
0
1
 
 
 
0
 
860.8
319.2
860.8
Front
100
on
 
 
0
0
0
 
0
 
 
 
0
 
 
0
0
0
0
0
 
 
 
 
0
0


0
0
#HDR
-1
-1
#GR
nm
%R
1.0
0.0
2500.000000
-10.000000
226
8
70.221105
20.544494
#DATA
2500.000000	20.544494
2490.000000	20.917323
2480.000000	20.846195
2470.000000	21.608280
2460.000000	21.679522
2450.000000	23.272041
2440.000000	22.878639
2430.000000	23.687601
2420.000000	24.322172
2410.000000	24.127483
2400.000000	24.327271
2390.000000	24.712083
2380.000000	24.488801
2370.000000	24.216788
2360.000000	24.909957
2350.000000	25.112150
2340.000000	24.760525
2330.000000	24.367567
2320.000000	24.270042
2310.000000	23.681795
2300.000000	23.219710
2290.000000	23.513083
2280.000000	23.869287
2270.000000	25.053416
2260.000000	26.503333
2250.000000	27.324764
2240.000000	27.522708
2230.000000	27.344161
2220.000000	26.513197
2210.000000	26.147259
2200.000000	25.825791
2190.000000	25.739822
2180.000000	26.724661
2170.000000	27.378578
2160.000000	28.137058
2150.000000	28.695104
2140.000000	29.200556
2130.000000	29.282988
2120.000000	29.289319
2110.000000	29.327042
2100.000000	28.989470
2090.000000	28.308296
2080.000000	27.076317
2070.000000	25.967417
2060.000000	25.358538
2050.000000	25.697096
2040.000000	25.970268
2030.000000	25.985708
2020.000000	25.362390
2010.000000	24.642018
2000.000000	23.768594
1990.000000	22.973214
1980.000000	22.229242
1970.000000	21.721492
1960.000000	21.490077
1950.000000	21.909501
1940.000000	23.088398
1930.000000	24.912453
1920.000000	28.246035
1910.000000	32.748871
1900.000000	37.407935
1890.000000	41.489681
1880.000000	44.135461
1870.000000	45.306545
1860.000000	45.636390
1850.000000	45.193899
1840.000000	44.936473
1830.000000	44.398925
1820.000000	43.971732
1810.000000	43.593489
1800.000000	43.290049
1790.000000	43.029321
1780.000000	42.586374
1770.000000	42.265433
1760.000000	41.824463
1750.000000	41.573440
1740.000000	41.900522
1730.000000	42.921091
1720.000000	43.646163
1710.000000	43.909645
1700.000000	44.795134
1690.000000	46.643388
1680.000000	48.223071
1670.000000	48.868983
1660.000000	48.935642
1650.000000	48.504904
1640.000000	47.816766
1630.000000	47.069844
1620.000000	46.194870
1610.000000	45.340741
1600.000000	44.578872
1590.000000	43.928333
1580.000000	43.289399
1570.000000	42.888543
1560.000000	42.272649
1550.000000	41.260491
1540.000000	40.330188
1530.000000	39.838376
1520.000000	39.433790
1510.000000	39.176112
1500.000000	39.028069
1490.000000	39.071591
1480.000000	39.196627
1470.000000	39.584150
1460.000000	40.342485
1450.000000	41.549017
1440.000000	43.297891
1430.000000	45.879960
1420.000000	49.191358
1410.000000	52.697309
1400.000000	55.620660
1390.000000	57.438408
1380.000000	58.603350
1370.000000	59.529653
1360.000000	60.604293
1350.000000	61.672971
1340.000000	62.476889
1330.000000	63.149119
1320.000000	63.620844
1310.000000	63.874154
1300.000000	63.869934
1290.000000	63.852899
1280.000000	63.855231
1270.000000	63.927569
1260.000000	63.916591
1250.000000	63.649535
1240.000000	63.354418
1230.000000	62.971166
1220.000000	62.376468
1210.000000	61.889570
1200.000000	61.753193
1190.000000	62.209406
1180.000000	63.271691
1170.000000	64.566530
1160.000000	65.629288
1150.000000	66.557052
1140.000000	67.188029
1130.000000	67.431702
1120.000000	67.598438
1110.000000	67.685754
1100.000000	67.738346
1090.000000	67.682845
1080.000000	67.596968
1070.000000	67.518251
1060.000000	67.441461
1050.000000	67.379334
1040.000000	67.362440
1030.000000	67.299262
1020.000000	67.333219
1010.000000	67.496876
1000.000000	67.606237
990.000000	67.789533
980.000000	68.082647
970.000000	68.394857
960.000000	68.705258
950.000000	68.890719
940.000000	68.965408
930.000000	69.034464
920.000000	69.222613
910.000000	69.384538
900.000000	69.647575
890.000000	69.795571
880.000000	70.101300
870.000000	70.221105
860.000000	70.162791
850.000000	68.908416
840.000000	69.448972
830.000000	69.185433
820.000000	69.303320
810.000000	69.116223
800.000000	69.259847
790.000000	69.271492
780.000000	69.343524
770.000000	69.396276
760.000000	69.498001
750.000000	69.420746
740.000000	69.622993
730.000000	69.412982
720.000000	69.435781
710.000000	69.505972
700.000000	69.487700
690.000000	69.588177
680.000000	69.552256
670.000000	69.369701
660.000000	69.445794
650.000000	69.265815
640.000000	69.267897
630.000000	69.200494
620.000000	69.146708
610.000000	68.955116
600.000000	68.876512
590.000000	68.854485
580.000000	68.692622
570.000000	68.671358
560.000000	68.504571
550.000000	68.377932
540.000000	68.264561
530.000000	68.070451
520.000000	67.861931
510.000000	67.570979
500.000000	67.344703
490.000000	66.954982
480.000000	66.584104
470.000000	65.997649
460.000000	65.191423
450.000000	64.381665
440.000000	63.014899
430.000000	61.327445
420.000000	59.440408
410.000000	57.736601
400.000000	56.188146
390.000000	54.600696
380.000000	53.003589
370.000000	50.871837
360.000000	48.597571
350.000000	46.415064
340.000000	44.535095
330.000000	42.375729
320.000000	41.934198
310.000000	39.952016
300.000000	35.384024
290.000000	28.949118
280.000000	25.220069
270.000000	25.604083
260.000000	26.482526
250.000000	27.752721
