PE UV       SUBTECH     SPECTRUM    ASCII       PEDS        4.00        
   -1
3C-XXX-C040.Sample.Raw.asc
23/09/06
09:43:53.00
23/09/06
09:43:53.00
Administrator

250.000000
1
Lambda 750
750N8071901
PerkinElmer UV WinLab 6.0.4.0738 / 1.61.00 Lambda 900

0
0
3350/servo 860.8/2
0
0
UV/VIS
1
1
1
CommonBeamDepol,150mm sphere / downward view
0
0
0
0
Program
Program
3350/servo 860.8/2
3350/0.2 860.8/0.2
3350/0.2 860.8/0.2
0
1
 
 
 
0
 
860.8
319.2
860.8
Front
100
on
 
 
0
0
0
 
0
 
 
 
0
 
 
0
0
0
0
0
 
 
 
 
0
0


0
0
#HDR
-1
-1
#GR
nm
%R
1.0
0.0
2500.000000
-10.000000
226
8
75.711502
21.788349
#DATA
2500.000000	22.216865
2490.000000	22.658862
2480.000000	21.788349
2470.000000	23.101401
2460.000000	23.402264
2450.000000	24.728344
2440.000000	25.907200
2430.000000	25.620942
2420.000000	25.839133
2410.000000	25.891646
2400.000000	25.832853
2390.000000	26.455063
2380.000000	26.317866
2370.000000	26.138397
2360.000000	26.644458
2350.000000	26.902353
2340.000000	26.679060
2330.000000	25.978984
2320.000000	26.106418
2310.000000	25.568206
2300.000000	25.236674
2290.000000	25.496319
2280.000000	25.878934
2270.000000	27.086587
2260.000000	28.394802
2250.000000	29.362407
2240.000000	29.763575
2230.000000	29.326787
2220.000000	28.761999
2210.000000	28.185509
2200.000000	27.885744
2190.000000	27.886089
2180.000000	28.757983
2170.000000	29.488113
2160.000000	30.509784
2150.000000	31.085455
2140.000000	31.507950
2130.000000	31.570747
2120.000000	31.871495
2110.000000	31.742260
2100.000000	31.469935
2090.000000	30.521449
2080.000000	29.320891
2070.000000	28.235454
2060.000000	27.512664
2050.000000	27.830402
2040.000000	28.232456
2030.000000	28.154270
2020.000000	27.547554
2010.000000	26.768812
2000.000000	25.736439
1990.000000	24.830620
1980.000000	24.000599
1970.000000	23.390751
1960.000000	23.144128
1950.000000	23.613801
1940.000000	24.997970
1930.000000	27.152514
1920.000000	30.783489
1910.000000	35.706126
1900.000000	40.495287
1890.000000	44.908910
1880.000000	47.904053
1870.000000	49.019749
1860.000000	49.303863
1850.000000	48.942766
1840.000000	48.634509
1830.000000	48.141673
1820.000000	47.636280
1810.000000	47.193336
1800.000000	46.880221
1790.000000	46.539029
1780.000000	46.098140
1770.000000	45.702030
1760.000000	45.252721
1750.000000	44.965734
1740.000000	45.342828
1730.000000	46.503294
1720.000000	47.280796
1710.000000	47.524672
1700.000000	48.475404
1690.000000	50.413228
1680.000000	52.150482
1670.000000	52.793214
1660.000000	52.912171
1650.000000	52.463535
1640.000000	51.746628
1630.000000	50.933126
1620.000000	50.003515
1610.000000	49.094543
1600.000000	48.285801
1590.000000	47.590362
1580.000000	46.924580
1570.000000	46.500804
1560.000000	45.873346
1550.000000	44.845688
1540.000000	43.841872
1530.000000	43.265384
1520.000000	42.847475
1510.000000	42.546499
1500.000000	42.436234
1490.000000	42.516481
1480.000000	42.679085
1470.000000	43.111974
1460.000000	43.920175
1450.000000	45.160503
1440.000000	47.023391
1430.000000	49.757447
1420.000000	53.243069
1410.000000	56.923118
1400.000000	60.017238
1390.000000	61.955099
1380.000000	63.102045
1370.000000	64.168111
1360.000000	65.256975
1350.000000	66.323059
1340.000000	67.184788
1330.000000	67.886923
1320.000000	68.374991
1310.000000	68.650007
1300.000000	68.625958
1290.000000	68.644720
1280.000000	68.657094
1270.000000	68.731291
1260.000000	68.704028
1250.000000	68.405646
1240.000000	68.121146
1230.000000	67.781221
1220.000000	67.190189
1210.000000	66.669022
1200.000000	66.513953
1190.000000	67.009346
1180.000000	68.073740
1170.000000	69.432422
1160.000000	70.554545
1150.000000	71.488292
1140.000000	72.116792
1130.000000	72.403929
1120.000000	72.547210
1110.000000	72.631460
1100.000000	72.688344
1090.000000	72.674308
1080.000000	72.612741
1070.000000	72.508703
1060.000000	72.416437
1050.000000	72.337348
1040.000000	72.306704
1030.000000	72.276081
1020.000000	72.334430
1010.000000	72.491600
1000.000000	72.592426
990.000000	72.818725
980.000000	73.097255
970.000000	73.396053
960.000000	73.724777
950.000000	73.894690
940.000000	74.059997
930.000000	74.095510
920.000000	74.284463
910.000000	74.463030
900.000000	74.780085
890.000000	74.928107
880.000000	75.066259
870.000000	75.362484
860.000000	75.359835
850.000000	74.762435
840.000000	74.938241
830.000000	74.891261
820.000000	74.699210
810.000000	74.947756
800.000000	74.982230
790.000000	74.773457
780.000000	74.892397
770.000000	75.024956
760.000000	75.243471
750.000000	75.303482
740.000000	75.417818
730.000000	75.407060
720.000000	75.513476
710.000000	75.398227
700.000000	75.601576
690.000000	75.664610
680.000000	75.482388
670.000000	75.493510
660.000000	75.528602
650.000000	75.642567
640.000000	75.610400
630.000000	75.711502
620.000000	75.623937
610.000000	75.537021
600.000000	75.509270
590.000000	75.459323
580.000000	75.363023
570.000000	75.419842
560.000000	75.324699
550.000000	75.226680
540.000000	75.109533
530.000000	74.974759
520.000000	74.815511
510.000000	74.613771
500.000000	74.458688
490.000000	73.998946
480.000000	73.876984
470.000000	73.316416
460.000000	72.643958
450.000000	71.827113
440.000000	70.565591
430.000000	69.053377
420.000000	67.224325
410.000000	65.529425
400.000000	64.071622
390.000000	62.342592
380.000000	60.707977
370.000000	58.947724
360.000000	56.257126
350.000000	54.168163
340.000000	51.652507
330.000000	49.627775
320.000000	48.718006
310.000000	47.486129
300.000000	41.961612
290.000000	33.863267
280.000000	28.964811
270.000000	29.148367
260.000000	29.987178
250.000000	31.044457
