PE UV       SUBTECH     SPECTRUM    ASCII       PEDS        4.00        
   -1
3C-XXX-C035.Sample.Raw.asc
23/09/06
09:26:34.00
23/09/06
09:26:34.00
Administrator

250.000000
1
Lambda 750
750N8071901
PerkinElmer UV WinLab 6.0.4.0738 / 1.61.00 Lambda 900

0
0
3350/servo 860.8/2
0
0
UV/VIS
1
1
1
CommonBeamDepol,150mm sphere / downward view
0
0
0
0
Program
Program
3350/servo 860.8/2
3350/0.2 860.8/0.2
3350/0.2 860.8/0.2
0
1
 
 
 
0
 
860.8
319.2
860.8
Front
100
on
 
 
0
0
0
 
0
 
 
 
0
 
 
0
0
0
0
0
 
 
 
 
0
0


0
0
#HDR
-1
-1
#GR
nm
%R
1.0
0.0
2500.000000
-10.000000
226
8
63.255771
17.496892
#DATA
2500.000000	17.496892
2490.000000	18.593287
2480.000000	17.897814
2470.000000	18.632494
2460.000000	19.485158
2450.000000	19.753819
2440.000000	20.557624
2430.000000	20.690282
2420.000000	20.899647
2410.000000	21.687747
2400.000000	21.447800
2390.000000	21.706181
2380.000000	21.415527
2370.000000	21.003299
2360.000000	21.567840
2350.000000	21.385860
2340.000000	21.927703
2330.000000	21.281188
2320.000000	20.666257
2310.000000	20.700483
2300.000000	20.244378
2290.000000	20.513786
2280.000000	20.866284
2270.000000	21.952639
2260.000000	23.117077
2250.000000	23.892151
2240.000000	24.357698
2230.000000	23.994450
2220.000000	23.391728
2210.000000	22.937353
2200.000000	22.508044
2190.000000	22.593343
2180.000000	23.197123
2170.000000	23.818918
2160.000000	24.688925
2150.000000	25.205414
2140.000000	25.533745
2130.000000	25.724218
2120.000000	25.838039
2110.000000	25.775812
2100.000000	25.388311
2090.000000	24.794082
2080.000000	23.812710
2070.000000	22.787310
2060.000000	22.148773
2050.000000	22.314713
2040.000000	22.639457
2030.000000	22.488250
2020.000000	21.957827
2010.000000	21.267129
2000.000000	20.460054
1990.000000	19.716262
1980.000000	18.954122
1970.000000	18.552595
1960.000000	18.211637
1950.000000	18.625998
1940.000000	19.730326
1930.000000	21.683463
1920.000000	24.694422
1910.000000	28.925458
1900.000000	33.091220
1890.000000	37.042833
1880.000000	39.636499
1870.000000	40.643429
1860.000000	41.002438
1850.000000	40.700932
1840.000000	40.361909
1830.000000	39.911241
1820.000000	39.431168
1810.000000	39.013970
1800.000000	38.722052
1790.000000	38.410104
1780.000000	37.999881
1770.000000	37.657303
1760.000000	37.281923
1750.000000	37.047583
1740.000000	37.346440
1730.000000	38.283565
1720.000000	39.014690
1710.000000	39.214002
1700.000000	40.037232
1690.000000	41.748184
1680.000000	43.293431
1670.000000	43.886777
1660.000000	43.947570
1650.000000	43.541065
1640.000000	42.904210
1630.000000	42.155756
1620.000000	41.295159
1610.000000	40.466762
1600.000000	39.744879
1590.000000	39.123035
1580.000000	38.514580
1570.000000	38.121743
1560.000000	37.562901
1550.000000	36.609511
1540.000000	35.732204
1530.000000	35.188141
1520.000000	34.820640
1510.000000	34.516631
1500.000000	34.381339
1490.000000	34.428629
1480.000000	34.557018
1470.000000	34.900339
1460.000000	35.588241
1450.000000	36.682728
1440.000000	38.297957
1430.000000	40.703504
1420.000000	43.853778
1410.000000	47.199399
1400.000000	50.011499
1390.000000	51.776439
1380.000000	52.839064
1370.000000	53.818484
1360.000000	54.800006
1350.000000	55.765034
1340.000000	56.541013
1330.000000	57.106555
1320.000000	57.479999
1310.000000	57.672955
1300.000000	57.633827
1290.000000	57.623644
1280.000000	57.616772
1270.000000	57.655818
1260.000000	57.608684
1250.000000	57.334416
1240.000000	57.061802
1230.000000	56.707684
1220.000000	56.155406
1210.000000	55.641551
1200.000000	55.475368
1190.000000	55.896514
1180.000000	56.895402
1170.000000	58.089930
1160.000000	59.107816
1150.000000	59.965104
1140.000000	60.560853
1130.000000	60.789787
1120.000000	60.937844
1110.000000	60.991625
1100.000000	61.027267
1090.000000	60.975507
1080.000000	60.902526
1070.000000	60.809115
1060.000000	60.736232
1050.000000	60.702641
1040.000000	60.677326
1030.000000	60.603003
1020.000000	60.643270
1010.000000	60.788800
1000.000000	60.850328
990.000000	61.060546
980.000000	61.298039
970.000000	61.547661
960.000000	61.850629
950.000000	61.993974
940.000000	62.102573
930.000000	62.196325
920.000000	62.238125
910.000000	62.392616
900.000000	62.711091
890.000000	62.934879
880.000000	63.018872
870.000000	63.255771
860.000000	63.162182
850.000000	61.355244
840.000000	61.895692
830.000000	61.485730
820.000000	61.385333
810.000000	61.420419
800.000000	61.449075
790.000000	61.384162
780.000000	61.300128
770.000000	61.363585
760.000000	61.299727
750.000000	61.401753
740.000000	61.478966
730.000000	61.290543
720.000000	61.329776
710.000000	61.335808
700.000000	61.348052
690.000000	61.402995
680.000000	61.185465
670.000000	61.116576
660.000000	61.120626
650.000000	61.045605
640.000000	60.973340
630.000000	60.941041
620.000000	60.882774
610.000000	60.761628
600.000000	60.564119
590.000000	60.516477
580.000000	60.368911
570.000000	60.286989
560.000000	60.099778
550.000000	59.930265
540.000000	59.792124
530.000000	59.595737
520.000000	59.413053
510.000000	59.186472
500.000000	58.860796
490.000000	58.571702
480.000000	58.314056
470.000000	57.767228
460.000000	57.050322
450.000000	56.415673
440.000000	55.231872
430.000000	53.766337
420.000000	52.158848
410.000000	50.572611
400.000000	49.143798
390.000000	47.436046
380.000000	45.814668
370.000000	43.982634
360.000000	41.503371
350.000000	39.620437
340.000000	37.461118
330.000000	35.275257
320.000000	34.865123
310.000000	33.062868
300.000000	29.430168
290.000000	23.956913
280.000000	21.383992
270.000000	21.874800
260.000000	22.740865
250.000000	24.080436
