PE UV       SUBTECH     SPECTRUM    ASCII       PEDS        4.00        
   -1
3C-XXX-C041.Sample.Raw.asc
23/09/06
09:46:59.00
23/09/06
09:46:59.00
Administrator

250.000000
1
Lambda 750
750N8071901
PerkinElmer UV WinLab 6.0.4.0738 / 1.61.00 Lambda 900

0
0
3350/servo 860.8/2
0
0
UV/VIS
1
1
1
CommonBeamDepol,150mm sphere / downward view
0
0
0
0
Program
Program
3350/servo 860.8/2
3350/0.2 860.8/0.2
3350/0.2 860.8/0.2
0
1
 
 
 
0
 
860.8
319.2
860.8
Front
100
on
 
 
0
0
0
 
0
 
 
 
0
 
 
0
0
0
0
0
 
 
 
 
0
0


0
0
#HDR
-1
-1
#GR
nm
%R
1.0
0.0
2500.000000
-10.000000
226
8
74.617152
22.569705
#DATA
2500.000000	22.669498
2490.000000	22.569705
2480.000000	22.849093
2470.000000	23.250301
2460.000000	23.899963
2450.000000	24.798203
2440.000000	25.230999
2430.000000	25.759980
2420.000000	26.385782
2410.000000	25.961565
2400.000000	26.297962
2390.000000	26.356272
2380.000000	26.699151
2370.000000	25.991891
2360.000000	26.831661
2350.000000	27.121281
2340.000000	27.089907
2330.000000	26.619997
2320.000000	26.161797
2310.000000	25.663889
2300.000000	25.505418
2290.000000	25.682264
2280.000000	26.028269
2270.000000	27.112377
2260.000000	28.644835
2250.000000	29.355268
2240.000000	29.904598
2230.000000	29.618868
2220.000000	28.715276
2210.000000	28.052547
2200.000000	27.914808
2190.000000	28.114017
2180.000000	29.006340
2170.000000	29.659082
2160.000000	30.483933
2150.000000	31.050745
2140.000000	31.635179
2130.000000	31.714049
2120.000000	31.829566
2110.000000	31.845617
2100.000000	31.505812
2090.000000	30.602366
2080.000000	29.563644
2070.000000	28.354883
2060.000000	27.694846
2050.000000	28.061996
2040.000000	28.429318
2030.000000	28.337527
2020.000000	27.622547
2010.000000	26.700281
2000.000000	25.813967
1990.000000	24.947528
1980.000000	24.095164
1970.000000	23.479746
1960.000000	23.104648
1950.000000	23.622415
1940.000000	25.047418
1930.000000	27.294422
1920.000000	30.940193
1910.000000	35.750104
1900.000000	40.214258
1890.000000	44.672736
1880.000000	47.629335
1870.000000	48.675175
1860.000000	48.976937
1850.000000	48.758443
1840.000000	48.391679
1830.000000	47.919522
1820.000000	47.380276
1810.000000	46.946920
1800.000000	46.556450
1790.000000	46.269655
1780.000000	45.796652
1770.000000	45.425299
1760.000000	45.026448
1750.000000	44.742992
1740.000000	45.085257
1730.000000	46.190144
1720.000000	46.968141
1710.000000	47.208892
1700.000000	48.130966
1690.000000	50.016419
1680.000000	51.723885
1670.000000	52.441507
1660.000000	52.496490
1650.000000	52.066947
1640.000000	51.391241
1630.000000	50.593391
1620.000000	49.667332
1610.000000	48.746933
1600.000000	47.970977
1590.000000	47.266207
1580.000000	46.593135
1570.000000	46.218218
1560.000000	45.636027
1550.000000	44.601055
1540.000000	43.647141
1530.000000	43.058137
1520.000000	42.622664
1510.000000	42.316115
1500.000000	42.192961
1490.000000	42.283121
1480.000000	42.465730
1470.000000	42.873446
1460.000000	43.661195
1450.000000	44.870722
1440.000000	46.637686
1430.000000	49.274782
1420.000000	52.742178
1410.000000	56.401666
1400.000000	59.475260
1390.000000	61.369659
1380.000000	62.522261
1370.000000	63.621699
1360.000000	64.703394
1350.000000	65.722310
1340.000000	66.588045
1330.000000	67.273525
1320.000000	67.729238
1310.000000	68.008830
1300.000000	68.004307
1290.000000	67.993529
1280.000000	68.040017
1270.000000	68.102585
1260.000000	68.040945
1250.000000	67.777420
1240.000000	67.509410
1230.000000	67.166469
1220.000000	66.567679
1210.000000	66.049127
1200.000000	65.892246
1190.000000	66.390195
1180.000000	67.438917
1170.000000	68.750743
1160.000000	69.878440
1150.000000	70.783743
1140.000000	71.416027
1130.000000	71.692292
1120.000000	71.848030
1110.000000	71.935876
1100.000000	71.971223
1090.000000	71.942528
1080.000000	71.867198
1070.000000	71.765034
1060.000000	71.677424
1050.000000	71.626330
1040.000000	71.620681
1030.000000	71.542180
1020.000000	71.599036
1010.000000	71.765651
1000.000000	71.850428
990.000000	72.091666
980.000000	72.359170
970.000000	72.639899
960.000000	72.967203
950.000000	73.168254
940.000000	73.280996
930.000000	73.300137
920.000000	73.488684
910.000000	73.686667
900.000000	73.972154
890.000000	74.134956
880.000000	74.272091
870.000000	74.617152
860.000000	74.495488
850.000000	73.530067
840.000000	73.942919
830.000000	74.015080
820.000000	73.819384
810.000000	73.705860
800.000000	73.891188
790.000000	73.866387
780.000000	73.854020
770.000000	73.942528
760.000000	74.192479
750.000000	74.182594
740.000000	74.190571
730.000000	74.201518
720.000000	74.357384
710.000000	74.353671
700.000000	74.282586
690.000000	74.427317
680.000000	74.318084
670.000000	74.317506
660.000000	74.373179
650.000000	74.349719
640.000000	74.315032
630.000000	74.363716
620.000000	74.258268
610.000000	74.128222
600.000000	74.104992
590.000000	74.127174
580.000000	73.982528
570.000000	73.978332
560.000000	73.897824
550.000000	73.770682
540.000000	73.664073
530.000000	73.449682
520.000000	73.287937
510.000000	73.089480
500.000000	72.809586
490.000000	72.502333
480.000000	72.256344
470.000000	71.715403
460.000000	70.892000
450.000000	70.121847
440.000000	68.945212
430.000000	67.359155
420.000000	65.510840
410.000000	63.835826
400.000000	62.325364
390.000000	60.655591
380.000000	59.168505
370.000000	57.203851
360.000000	54.710127
350.000000	52.493982
340.000000	50.390546
330.000000	47.951409
320.000000	46.800304
310.000000	44.916273
300.000000	40.110783
290.000000	32.320407
280.000000	27.834849
270.000000	27.906044
260.000000	28.779534
250.000000	29.799448
