PE UV       SUBTECH     SPECTRUM    ASCII       PEDS        4.00        
   -1
3C-XXX-C036.Sample.Raw.asc
23/09/06
09:29:29.00
23/09/06
09:29:29.00
Administrator

250.000000
1
Lambda 750
750N8071901
PerkinElmer UV WinLab 6.0.4.0738 / 1.61.00 Lambda 900

0
0
3350/servo 860.8/2
0
0
UV/VIS
1
1
1
CommonBeamDepol,150mm sphere / downward view
0
0
0
0
Program
Program
3350/servo 860.8/2
3350/0.2 860.8/0.2
3350/0.2 860.8/0.2
0
1
 
 
 
0
 
860.8
319.2
860.8
Front
100
on
 
 
0
0
0
 
0
 
 
 
0
 
 
0
0
0
0
0
 
 
 
 
0
0


0
0
#HDR
-1
-1
#GR
nm
%R
1.0
0.0
2500.000000
-10.000000
226
8
71.385231
21.889291
#DATA
2500.000000	21.990947
2490.000000	22.044195
2480.000000	21.889291
2470.000000	23.442734
2460.000000	23.565401
2450.000000	24.707356
2440.000000	25.174844
2430.000000	25.919653
2420.000000	26.007627
2410.000000	25.986212
2400.000000	25.402555
2390.000000	26.089426
2380.000000	26.128296
2370.000000	25.764437
2360.000000	26.522796
2350.000000	26.573039
2340.000000	26.666281
2330.000000	26.097055
2320.000000	25.860281
2310.000000	25.336297
2300.000000	25.042359
2290.000000	25.338134
2280.000000	25.572212
2270.000000	26.663337
2260.000000	28.050574
2250.000000	29.017310
2240.000000	29.574321
2230.000000	28.954529
2220.000000	28.457130
2210.000000	27.893764
2200.000000	27.458559
2190.000000	27.741980
2180.000000	28.530315
2170.000000	29.172376
2160.000000	30.242453
2150.000000	30.461173
2140.000000	31.362646
2130.000000	31.209083
2120.000000	31.289378
2110.000000	31.233301
2100.000000	30.991578
2090.000000	30.221407
2080.000000	29.108597
2070.000000	27.875846
2060.000000	27.296182
2050.000000	27.510651
2040.000000	27.868088
2030.000000	27.815941
2020.000000	27.149827
2010.000000	26.378675
2000.000000	25.401673
1990.000000	24.596394
1980.000000	23.802502
1970.000000	23.210313
1960.000000	23.012802
1950.000000	23.382679
1940.000000	24.571644
1930.000000	26.680484
1920.000000	30.203089
1910.000000	34.826671
1900.000000	39.345012
1890.000000	43.525202
1880.000000	46.192068
1870.000000	47.257814
1860.000000	47.540349
1850.000000	47.206803
1840.000000	46.903198
1830.000000	46.392999
1820.000000	45.941600
1810.000000	45.557503
1800.000000	45.232775
1790.000000	44.937673
1780.000000	44.521207
1770.000000	44.150107
1760.000000	43.779288
1750.000000	43.503328
1740.000000	43.827087
1730.000000	44.893466
1720.000000	45.587918
1710.000000	45.825057
1700.000000	46.711959
1690.000000	48.513827
1680.000000	50.105833
1670.000000	50.717125
1660.000000	50.779671
1650.000000	50.340670
1640.000000	49.706242
1630.000000	48.957706
1620.000000	48.091552
1610.000000	47.254788
1600.000000	46.508799
1590.000000	45.881633
1580.000000	45.255609
1570.000000	44.857456
1560.000000	44.275984
1550.000000	43.296142
1540.000000	42.396052
1530.000000	41.857712
1520.000000	41.469402
1510.000000	41.190753
1500.000000	41.077306
1490.000000	41.149628
1480.000000	41.327734
1470.000000	41.722956
1460.000000	42.460728
1450.000000	43.627104
1440.000000	45.350139
1430.000000	47.839594
1420.000000	51.084077
1410.000000	54.457757
1400.000000	57.296661
1390.000000	59.048725
1380.000000	60.114842
1370.000000	61.092804
1360.000000	62.107567
1350.000000	63.100787
1340.000000	63.895216
1330.000000	64.527595
1320.000000	65.021228
1310.000000	65.269274
1300.000000	65.267246
1290.000000	65.264526
1280.000000	65.267436
1270.000000	65.293180
1260.000000	65.278841
1250.000000	65.013972
1240.000000	64.760963
1230.000000	64.396945
1220.000000	63.822897
1210.000000	63.338348
1200.000000	63.210111
1190.000000	63.675587
1180.000000	64.652659
1170.000000	65.884630
1160.000000	66.927598
1150.000000	67.789460
1140.000000	68.375160
1130.000000	68.629541
1120.000000	68.773625
1110.000000	68.851471
1100.000000	68.883478
1090.000000	68.871127
1080.000000	68.775186
1070.000000	68.680154
1060.000000	68.592183
1050.000000	68.525715
1040.000000	68.477943
1030.000000	68.427241
1020.000000	68.487277
1010.000000	68.636586
1000.000000	68.739622
990.000000	68.932669
980.000000	69.187433
970.000000	69.481300
960.000000	69.784832
950.000000	69.950270
940.000000	70.047793
930.000000	70.153406
920.000000	70.227405
910.000000	70.440699
900.000000	70.698342
890.000000	70.881289
880.000000	71.102274
870.000000	71.340831
860.000000	71.385231
850.000000	70.411616
840.000000	70.602967
830.000000	70.695565
820.000000	70.297851
810.000000	70.421526
800.000000	70.545009
790.000000	70.347205
780.000000	70.569201
770.000000	70.610045
760.000000	70.811834
750.000000	70.677524
740.000000	70.784872
730.000000	70.607344
720.000000	70.763442
710.000000	70.793331
700.000000	70.806410
690.000000	70.897514
680.000000	70.666561
670.000000	70.704824
660.000000	70.614181
650.000000	70.534016
640.000000	70.497841
630.000000	70.475614
620.000000	70.352005
610.000000	70.306166
600.000000	70.174153
590.000000	70.094375
580.000000	69.957839
570.000000	69.941706
560.000000	69.849456
550.000000	69.741065
540.000000	69.592213
530.000000	69.408483
520.000000	69.247892
510.000000	68.978583
500.000000	68.720165
490.000000	68.310312
480.000000	68.113380
470.000000	67.510184
460.000000	66.678680
450.000000	65.849239
440.000000	64.529532
430.000000	63.041041
420.000000	61.222053
410.000000	59.514827
400.000000	58.033916
390.000000	56.628903
380.000000	55.106225
370.000000	53.223334
360.000000	50.850102
350.000000	48.905721
340.000000	46.576600
330.000000	44.548222
320.000000	44.307367
310.000000	42.820058
300.000000	36.467918
290.000000	29.669678
280.000000	25.704740
270.000000	26.074899
260.000000	26.927852
250.000000	28.271163
