PE UV       SUBTECH     SPECTRUM    ASCII       PEDS        4.00        
   -1
3C-XXX-C044.Sample.Raw.asc
23/09/06
09:57:18.00
23/09/06
09:57:18.00
Administrator

250.000000
1
Lambda 750
750N8071901
PerkinElmer UV WinLab 6.0.4.0738 / 1.61.00 Lambda 900

0
0
3350/servo 860.8/2
0
0
UV/VIS
1
1
1
CommonBeamDepol,150mm sphere / downward view
0
0
0
0
Program
Program
3350/servo 860.8/2
3350/0.2 860.8/0.2
3350/0.2 860.8/0.2
0
1
 
 
 
0
 
860.8
319.2
860.8
Front
100
on
 
 
0
0
0
 
0
 
 
 
0
 
 
0
0
0
0
0
 
 
 
 
0
0


0
0
#HDR
-1
-1
#GR
nm
%R
1.0
0.0
2500.000000
-10.000000
226
8
70.829589
20.560398
#DATA
2500.000000	20.801391
2490.000000	20.560398
2480.000000	21.106868
2470.000000	22.454727
2460.000000	22.720707
2450.000000	23.164869
2440.000000	23.948330
2430.000000	23.884153
2420.000000	24.098341
2410.000000	24.675181
2400.000000	24.328088
2390.000000	24.862363
2380.000000	24.581184
2370.000000	24.233716
2360.000000	25.160756
2350.000000	25.246781
2340.000000	25.235468
2330.000000	24.427113
2320.000000	24.374975
2310.000000	24.053093
2300.000000	23.914145
2290.000000	23.918752
2280.000000	24.351031
2270.000000	25.382169
2260.000000	26.699174
2250.000000	27.772146
2240.000000	27.941596
2230.000000	27.800774
2220.000000	26.874357
2210.000000	26.454760
2200.000000	26.137436
2190.000000	26.500905
2180.000000	26.917781
2170.000000	27.817368
2160.000000	28.818310
2150.000000	29.121200
2140.000000	29.534317
2130.000000	29.619429
2120.000000	29.835511
2110.000000	29.819435
2100.000000	29.556405
2090.000000	28.738941
2080.000000	27.653502
2070.000000	26.483420
2060.000000	25.834349
2050.000000	26.097676
2040.000000	26.464353
2030.000000	26.457944
2020.000000	25.881956
2010.000000	25.004398
2000.000000	24.125467
1990.000000	23.354390
1980.000000	22.561340
1970.000000	21.979597
1960.000000	21.734728
1950.000000	22.175590
1940.000000	23.386424
1930.000000	25.361535
1920.000000	28.886098
1910.000000	33.463971
1900.000000	37.875639
1890.000000	42.089971
1880.000000	44.867565
1870.000000	45.902955
1860.000000	46.209930
1850.000000	45.935661
1840.000000	45.593030
1830.000000	45.096140
1820.000000	44.645747
1810.000000	44.232383
1800.000000	43.905030
1790.000000	43.599675
1780.000000	43.155520
1770.000000	42.817157
1760.000000	42.396180
1750.000000	42.144466
1740.000000	42.485381
1730.000000	43.544834
1720.000000	44.289156
1710.000000	44.535792
1700.000000	45.415389
1690.000000	47.249361
1680.000000	48.879085
1670.000000	49.521322
1660.000000	49.591835
1650.000000	49.158463
1640.000000	48.484787
1630.000000	47.716595
1620.000000	46.818438
1610.000000	45.961670
1600.000000	45.205665
1590.000000	44.541137
1580.000000	43.921964
1570.000000	43.518134
1560.000000	42.956650
1550.000000	41.945973
1540.000000	41.016331
1530.000000	40.446579
1520.000000	40.070262
1510.000000	39.756550
1500.000000	39.643939
1490.000000	39.703120
1480.000000	39.867769
1470.000000	40.264813
1460.000000	41.013594
1450.000000	42.184705
1440.000000	43.924331
1430.000000	46.472414
1420.000000	49.788131
1410.000000	53.310644
1400.000000	56.232446
1390.000000	58.034009
1380.000000	59.139548
1370.000000	60.163223
1360.000000	61.218448
1350.000000	62.213625
1340.000000	63.006372
1330.000000	63.687080
1320.000000	64.186512
1310.000000	64.477166
1300.000000	64.505772
1290.000000	64.494501
1280.000000	64.483894
1270.000000	64.541369
1260.000000	64.512980
1250.000000	64.258498
1240.000000	63.978027
1230.000000	63.620150
1220.000000	63.041502
1210.000000	62.546517
1200.000000	62.417055
1190.000000	62.912177
1180.000000	63.906817
1170.000000	65.164347
1160.000000	66.240714
1150.000000	67.098588
1140.000000	67.715587
1130.000000	67.962469
1120.000000	68.109219
1110.000000	68.193646
1100.000000	68.211089
1090.000000	68.163510
1080.000000	68.084262
1070.000000	67.976666
1060.000000	67.913845
1050.000000	67.857571
1040.000000	67.830461
1030.000000	67.754695
1020.000000	67.792853
1010.000000	67.962258
1000.000000	68.039380
990.000000	68.245986
980.000000	68.530512
970.000000	68.814889
960.000000	69.100872
950.000000	69.306460
940.000000	69.411486
930.000000	69.503586
920.000000	69.677480
910.000000	69.778044
900.000000	70.116810
890.000000	70.322454
880.000000	70.451988
870.000000	70.829589
860.000000	70.810703
850.000000	70.126079
840.000000	70.254820
830.000000	70.238049
820.000000	70.213918
810.000000	70.244968
800.000000	70.223001
790.000000	70.270124
780.000000	70.419288
770.000000	70.480158
760.000000	70.396059
750.000000	70.444190
740.000000	70.594206
730.000000	70.499245
720.000000	70.590297
710.000000	70.608626
700.000000	70.675742
690.000000	70.710105
680.000000	70.619464
670.000000	70.561176
660.000000	70.587125
650.000000	70.520469
640.000000	70.516224
630.000000	70.541477
620.000000	70.499320
610.000000	70.365525
600.000000	70.331027
590.000000	70.207705
580.000000	70.077865
570.000000	70.127139
560.000000	70.039148
550.000000	69.880553
540.000000	69.733010
530.000000	69.570333
520.000000	69.372508
510.000000	69.156383
500.000000	68.911570
490.000000	68.642162
480.000000	68.364225
470.000000	67.815599
460.000000	67.084191
450.000000	66.361442
440.000000	65.059894
430.000000	63.583516
420.000000	61.791313
410.000000	60.047403
400.000000	58.728556
390.000000	56.839729
380.000000	55.346592
370.000000	53.442654
360.000000	50.783144
350.000000	48.230013
340.000000	46.179710
330.000000	44.556856
320.000000	43.333825
310.000000	41.704062
300.000000	38.097223
290.000000	30.854116
280.000000	26.655382
270.000000	26.901939
260.000000	27.823474
250.000000	28.973266
