PE UV       SUBTECH     SPECTRUM    ASCII       PEDS        4.00        
   -1
3C-XXX-C024.Sample.Raw.asc
23/09/06
08:53:18.00
23/09/06
08:53:18.00
Administrator

250.000000
1
Lambda 750
750N8071901
PerkinElmer UV WinLab 6.0.4.0738 / 1.61.00 Lambda 900

0
0
3350/servo 860.8/2
0
0
UV/VIS
1
1
1
CommonBeamDepol,150mm sphere / downward view
0
0
0
0
Program
Program
3350/servo 860.8/2
3350/0.2 860.8/0.2
3350/0.2 860.8/0.2
0
1
 
 
 
0
 
860.8
319.2
860.8
Front
100
on
 
 
0
0
0
 
0
 
 
 
0
 
 
0
0
0
0
0
 
 
 
 
0
0


0
0
#HDR
-1
-1
#GR
nm
%R
1.0
0.0
2500.000000
-10.000000
226
8
65.617404
14.068325
#DATA
2500.000000	14.600400
2490.000000	14.068325
2480.000000	14.196355
2470.000000	14.650100
2460.000000	14.859509
2450.000000	16.330398
2440.000000	16.482344
2430.000000	16.398519
2420.000000	17.228778
2410.000000	17.469410
2400.000000	16.627857
2390.000000	16.827861
2380.000000	17.442743
2370.000000	17.074927
2360.000000	17.608710
2350.000000	17.493123
2340.000000	17.570559
2330.000000	17.233494
2320.000000	16.833807
2310.000000	16.873641
2300.000000	16.554033
2290.000000	16.807656
2280.000000	16.945765
2270.000000	17.951334
2260.000000	19.063287
2250.000000	19.689596
2240.000000	20.099379
2230.000000	19.930072
2220.000000	19.451134
2210.000000	18.653582
2200.000000	18.376512
2190.000000	18.680892
2180.000000	19.345305
2170.000000	19.872156
2160.000000	20.665580
2150.000000	20.974280
2140.000000	21.606992
2130.000000	21.664244
2120.000000	21.852983
2110.000000	21.655662
2100.000000	21.394027
2090.000000	20.663966
2080.000000	19.650379
2070.000000	18.549403
2060.000000	18.025043
2050.000000	18.311557
2040.000000	18.589053
2030.000000	18.509907
2020.000000	17.970696
2010.000000	17.309931
2000.000000	16.444287
1990.000000	15.789731
1980.000000	15.064331
1970.000000	14.513143
1960.000000	14.417201
1950.000000	14.738644
1940.000000	15.907173
1930.000000	17.714474
1920.000000	20.888756
1910.000000	25.306592
1900.000000	29.809051
1890.000000	34.237411
1880.000000	37.299460
1870.000000	38.399130
1860.000000	38.723792
1850.000000	38.510213
1840.000000	38.139247
1830.000000	37.576631
1820.000000	37.093942
1810.000000	36.590338
1800.000000	36.174010
1790.000000	35.840146
1780.000000	35.371933
1770.000000	34.934666
1760.000000	34.530233
1750.000000	34.191835
1740.000000	34.519091
1730.000000	35.729480
1720.000000	36.543700
1710.000000	36.748121
1700.000000	37.723992
1690.000000	39.749452
1680.000000	41.539097
1670.000000	42.242828
1660.000000	42.338633
1650.000000	41.849411
1640.000000	41.114626
1630.000000	40.222637
1620.000000	39.209196
1610.000000	38.247295
1600.000000	37.406741
1590.000000	36.682022
1580.000000	35.979623
1570.000000	35.567341
1560.000000	34.942088
1550.000000	33.835578
1540.000000	32.830481
1530.000000	32.238839
1520.000000	31.784422
1510.000000	31.447961
1500.000000	31.276832
1490.000000	31.350535
1480.000000	31.507282
1470.000000	31.908616
1460.000000	32.696110
1450.000000	33.935705
1440.000000	35.792398
1430.000000	38.569224
1420.000000	42.261939
1410.000000	46.240229
1400.000000	49.600182
1390.000000	51.726247
1380.000000	52.932519
1370.000000	54.202974
1360.000000	55.379968
1350.000000	56.533017
1340.000000	57.471326
1330.000000	58.207152
1320.000000	58.723962
1310.000000	59.030316
1300.000000	59.033792
1290.000000	59.020786
1280.000000	59.022879
1270.000000	59.087037
1260.000000	59.012389
1250.000000	58.648968
1240.000000	58.310542
1230.000000	57.925845
1220.000000	57.255784
1210.000000	56.642571
1200.000000	56.438964
1190.000000	56.977194
1180.000000	58.151827
1170.000000	59.637540
1160.000000	60.894541
1150.000000	61.947013
1140.000000	62.657622
1130.000000	62.925703
1120.000000	63.084988
1110.000000	63.177230
1100.000000	63.167723
1090.000000	63.123421
1080.000000	63.026328
1070.000000	62.891727
1060.000000	62.794383
1050.000000	62.704302
1040.000000	62.647344
1030.000000	62.547940
1020.000000	62.610427
1010.000000	62.748559
1000.000000	62.857644
990.000000	63.041995
980.000000	63.339430
970.000000	63.658514
960.000000	63.952359
950.000000	64.162748
940.000000	64.259164
930.000000	64.334237
920.000000	64.459967
910.000000	64.615127
900.000000	64.929197
890.000000	65.120264
880.000000	65.334131
870.000000	65.617404
860.000000	65.511851
850.000000	64.744527
840.000000	64.891268
830.000000	64.471978
820.000000	64.894290
810.000000	64.621162
800.000000	64.753701
790.000000	64.762943
780.000000	64.782093
770.000000	64.826046
760.000000	64.963676
750.000000	64.915447
740.000000	64.965615
730.000000	64.956044
720.000000	65.033150
710.000000	64.862684
700.000000	64.939507
690.000000	65.054150
680.000000	64.765360
670.000000	64.759450
660.000000	64.727059
650.000000	64.629606
640.000000	64.549860
630.000000	64.517309
620.000000	64.352864
610.000000	64.218065
600.000000	64.102063
590.000000	64.048214
580.000000	63.840661
570.000000	63.741817
560.000000	63.541362
550.000000	63.411560
540.000000	63.174975
530.000000	62.913859
520.000000	62.624521
510.000000	62.259022
500.000000	61.960527
490.000000	61.532610
480.000000	61.164335
470.000000	60.382816
460.000000	59.466660
450.000000	58.402640
440.000000	56.774263
430.000000	54.765887
420.000000	52.558722
410.000000	50.408399
400.000000	48.371304
390.000000	45.981258
380.000000	43.741323
370.000000	41.270198
360.000000	38.257076
350.000000	35.784297
340.000000	33.455692
330.000000	31.062184
320.000000	29.686932
310.000000	28.491590
300.000000	24.971023
290.000000	20.772641
280.000000	19.502272
270.000000	20.033298
260.000000	21.193522
250.000000	22.409694
