PE UV       SUBTECH     SPECTRUM    ASCII       PEDS        4.00        
   -1
3C-XXX-C010.Sample.Raw.asc
23/09/05
15:30:30.00
23/09/05
15:30:30.00
Administrator

250.000000
1
Lambda 750
750N8071901
PerkinElmer UV WinLab 6.0.4.0738 / 1.61.00 Lambda 900

0
0
3350/servo 860.8/2
0
0
UV/VIS
1
1
1
CommonBeamDepol,150mm sphere / downward view
0
0
0
0
Program
Program
3350/servo 860.8/2
3350/0.2 860.8/0.2
3350/0.2 860.8/0.2
0
1
 
 
 
0
 
860.8
319.2
860.8
Front
100
on
 
 
0
0
0
 
0
 
 
 
0
 
 
0
0
0
0
0
 
 
 
 
0
0


0
0
#HDR
-1
-1
#GR
nm
%R
1.0
0.0
2500.000000
-10.000000
226
8
66.755582
16.663687
#DATA
2500.000000	16.663687
2490.000000	18.259146
2480.000000	17.897294
2470.000000	18.740357
2460.000000	18.668498
2450.000000	19.211632
2440.000000	20.193555
2430.000000	20.868070
2420.000000	20.372756
2410.000000	21.003337
2400.000000	21.108937
2390.000000	21.001172
2380.000000	20.424780
2370.000000	21.188512
2360.000000	21.461499
2350.000000	21.171802
2340.000000	21.369389
2330.000000	20.879080
2320.000000	20.747569
2310.000000	20.436137
2300.000000	20.120571
2290.000000	20.463988
2280.000000	20.901802
2270.000000	22.044702
2260.000000	23.101556
2250.000000	23.902349
2240.000000	23.862344
2230.000000	23.693378
2220.000000	23.120825
2210.000000	22.768645
2200.000000	22.331953
2190.000000	22.434874
2180.000000	23.131885
2170.000000	23.503246
2160.000000	24.787480
2150.000000	25.292043
2140.000000	25.821121
2130.000000	25.760556
2120.000000	25.652915
2110.000000	25.618963
2100.000000	25.326694
2090.000000	24.785755
2080.000000	23.537428
2070.000000	22.570820
2060.000000	21.903395
2050.000000	22.193877
2040.000000	22.681407
2030.000000	22.450028
2020.000000	21.893959
2010.000000	21.149460
2000.000000	20.329354
1990.000000	19.504366
1980.000000	18.840507
1970.000000	18.254906
1960.000000	18.078116
1950.000000	18.553493
1940.000000	19.580604
1930.000000	21.488801
1920.000000	24.722815
1910.000000	29.054988
1900.000000	33.496432
1890.000000	37.620899
1880.000000	40.403074
1870.000000	41.631359
1860.000000	41.872250
1850.000000	41.661846
1840.000000	41.236979
1830.000000	40.825394
1820.000000	40.293955
1810.000000	39.883133
1800.000000	39.601461
1790.000000	39.173916
1780.000000	38.836767
1770.000000	38.478609
1760.000000	38.044537
1750.000000	37.760476
1740.000000	38.110644
1730.000000	39.164080
1720.000000	39.927045
1710.000000	40.165103
1700.000000	41.008586
1690.000000	42.840309
1680.000000	44.535757
1670.000000	45.181967
1660.000000	45.224215
1650.000000	44.814209
1640.000000	44.189798
1630.000000	43.327855
1620.000000	42.466949
1610.000000	41.512358
1600.000000	40.782264
1590.000000	40.077260
1580.000000	39.431510
1570.000000	39.060137
1560.000000	38.479541
1550.000000	37.449185
1540.000000	36.538081
1530.000000	35.976062
1520.000000	35.564175
1510.000000	35.237510
1500.000000	35.080147
1490.000000	35.112210
1480.000000	35.272367
1470.000000	35.675492
1460.000000	36.395980
1450.000000	37.578403
1440.000000	39.299057
1430.000000	41.867949
1420.000000	45.241880
1410.000000	48.869298
1400.000000	51.926225
1390.000000	53.846240
1380.000000	54.961515
1370.000000	56.057618
1360.000000	57.113999
1350.000000	58.151289
1340.000000	58.991678
1330.000000	59.675446
1320.000000	60.170186
1310.000000	60.442916
1300.000000	60.458393
1290.000000	60.415313
1280.000000	60.440504
1270.000000	60.463086
1260.000000	60.437064
1250.000000	60.130552
1240.000000	59.877082
1230.000000	59.495871
1220.000000	58.888654
1210.000000	58.371156
1200.000000	58.201405
1190.000000	58.666848
1180.000000	59.705732
1170.000000	61.039600
1160.000000	62.190494
1150.000000	63.078932
1140.000000	63.740418
1130.000000	64.004122
1120.000000	64.143690
1110.000000	64.209382
1100.000000	64.249569
1090.000000	64.204644
1080.000000	64.128497
1070.000000	63.990897
1060.000000	63.921525
1050.000000	63.857003
1040.000000	63.821021
1030.000000	63.747887
1020.000000	63.776029
1010.000000	63.930105
1000.000000	64.065166
990.000000	64.268790
980.000000	64.477989
970.000000	64.785144
960.000000	65.074638
950.000000	65.235543
940.000000	65.380096
930.000000	65.485042
920.000000	65.617856
910.000000	65.821793
900.000000	66.127767
890.000000	66.299960
880.000000	66.512272
870.000000	66.562376
860.000000	66.755582
850.000000	65.331454
840.000000	66.058530
830.000000	65.718847
820.000000	65.755389
810.000000	65.642673
800.000000	65.634824
790.000000	65.783374
780.000000	65.714873
770.000000	65.839037
760.000000	65.784019
750.000000	65.861193
740.000000	65.911439
730.000000	65.894386
720.000000	65.886617
710.000000	66.013589
700.000000	66.116296
690.000000	66.087013
680.000000	65.986105
670.000000	65.938726
660.000000	66.010031
650.000000	66.027064
640.000000	65.979507
630.000000	65.958674
620.000000	65.897297
610.000000	65.809194
600.000000	65.801648
590.000000	65.699341
580.000000	65.648353
570.000000	65.525948
560.000000	65.375570
550.000000	65.270292
540.000000	65.095903
530.000000	65.001544
520.000000	64.762564
510.000000	64.517102
500.000000	64.322684
490.000000	64.055536
480.000000	63.805224
470.000000	63.325206
460.000000	62.552083
450.000000	61.759738
440.000000	60.664269
430.000000	59.032132
420.000000	57.225334
410.000000	55.544629
400.000000	53.841848
390.000000	52.103514
380.000000	50.301145
370.000000	48.354306
360.000000	46.198634
350.000000	43.678288
340.000000	41.004334
330.000000	39.542474
320.000000	38.254439
310.000000	36.502221
300.000000	32.417597
290.000000	26.598071
280.000000	23.663443
270.000000	24.245204
260.000000	25.198474
250.000000	26.532182
