PE UV       SUBTECH     SPECTRUM    ASCII       PEDS        4.00        
   -1
3C-XXX-F019.Sample.Raw.asc
23/09/06
14:47:58.00
23/09/06
14:47:58.00
Administrator

250.000000
1
Lambda 750
750N8071901
PerkinElmer UV WinLab 6.0.4.0738 / 1.61.00 Lambda 900

0
0
3350/servo 860.8/2
0
0
UV/VIS
1
1
1
CommonBeamDepol,150mm sphere / downward view
0
0
0
0
Program
Program
3350/servo 860.8/2
3350/0.2 860.8/0.2
3350/0.2 860.8/0.2
0
1
 
 
 
0
 
860.8
319.2
860.8
Front
100
on
 
 
0
0
0
 
0
 
 
 
0
 
 
0
0
0
0
0
 
 
 
 
0
0


0
0
#HDR
-1
-1
#GR
nm
%R
1.0
0.0
2500.000000
-10.000000
226
8
64.897485
13.541672
#DATA
2500.000000	15.684169
2490.000000	15.444589
2480.000000	15.939572
2470.000000	16.500701
2460.000000	16.284145
2450.000000	16.781876
2440.000000	17.231326
2430.000000	18.001278
2420.000000	18.464777
2410.000000	18.525458
2400.000000	19.065015
2390.000000	18.761791
2380.000000	19.029922
2370.000000	18.250932
2360.000000	18.795851
2350.000000	18.634843
2340.000000	18.688861
2330.000000	18.508343
2320.000000	18.311274
2310.000000	17.894497
2300.000000	17.415199
2290.000000	18.003854
2280.000000	18.441362
2270.000000	19.257926
2260.000000	20.493493
2250.000000	21.397684
2240.000000	21.381827
2230.000000	21.229882
2220.000000	20.720042
2210.000000	20.276503
2200.000000	19.702172
2190.000000	20.117078
2180.000000	20.629263
2170.000000	21.153390
2160.000000	21.983616
2150.000000	22.910013
2140.000000	23.095069
2130.000000	22.968817
2120.000000	23.244152
2110.000000	22.929868
2100.000000	22.792255
2090.000000	22.314540
2080.000000	21.304758
2070.000000	20.258227
2060.000000	19.738236
2050.000000	19.863499
2040.000000	20.418823
2030.000000	20.222953
2020.000000	19.797960
2010.000000	19.020046
2000.000000	18.331829
1990.000000	17.560220
1980.000000	16.946372
1970.000000	16.305459
1960.000000	16.095037
1950.000000	16.589931
1940.000000	17.451216
1930.000000	19.355430
1920.000000	22.112585
1910.000000	26.632001
1900.000000	30.992592
1890.000000	35.207131
1880.000000	38.211358
1870.000000	39.532554
1860.000000	39.722224
1850.000000	39.540649
1840.000000	39.086560
1830.000000	38.640594
1820.000000	38.149579
1810.000000	37.706268
1800.000000	37.327805
1790.000000	36.936508
1780.000000	36.491750
1770.000000	36.099930
1760.000000	35.674976
1750.000000	35.295374
1740.000000	35.654377
1730.000000	36.777391
1720.000000	37.542079
1710.000000	37.827111
1700.000000	38.689484
1690.000000	40.573287
1680.000000	42.470866
1670.000000	43.186387
1660.000000	43.289014
1650.000000	42.883234
1640.000000	42.194689
1630.000000	41.359772
1620.000000	40.427823
1610.000000	39.479516
1600.000000	38.678286
1590.000000	37.963510
1580.000000	37.330766
1570.000000	36.889377
1560.000000	36.306982
1550.000000	35.305517
1540.000000	34.301829
1530.000000	33.702715
1520.000000	33.295267
1510.000000	32.977201
1500.000000	32.834432
1490.000000	32.884811
1480.000000	33.062920
1470.000000	33.420783
1460.000000	34.147909
1450.000000	35.259149
1440.000000	36.992080
1430.000000	39.575623
1420.000000	43.011395
1410.000000	46.728670
1400.000000	49.912470
1390.000000	52.001213
1380.000000	53.222667
1370.000000	54.304010
1360.000000	55.411377
1350.000000	56.552384
1340.000000	57.401387
1330.000000	58.120863
1320.000000	58.605379
1310.000000	58.888087
1300.000000	58.885075
1290.000000	58.791865
1280.000000	58.804435
1270.000000	58.859147
1260.000000	58.821928
1250.000000	58.534173
1240.000000	58.183301
1230.000000	57.773471
1220.000000	57.155314
1210.000000	56.603246
1200.000000	56.392604
1190.000000	56.842858
1180.000000	57.884007
1170.000000	59.245512
1160.000000	60.467351
1150.000000	61.427430
1140.000000	62.106629
1130.000000	62.393409
1120.000000	62.529844
1110.000000	62.639371
1100.000000	62.668725
1090.000000	62.635094
1080.000000	62.546267
1070.000000	62.441573
1060.000000	62.340933
1050.000000	62.274358
1040.000000	62.214437
1030.000000	62.181586
1020.000000	62.224783
1010.000000	62.347582
1000.000000	62.480196
990.000000	62.684427
980.000000	62.892431
970.000000	63.222184
960.000000	63.494411
950.000000	63.684699
940.000000	63.711468
930.000000	63.805410
920.000000	63.910844
910.000000	64.132010
900.000000	64.378406
890.000000	64.500627
880.000000	64.591559
870.000000	64.739711
860.000000	64.897485
850.000000	63.577038
840.000000	63.664758
830.000000	63.593239
820.000000	63.514853
810.000000	63.596201
800.000000	63.407837
790.000000	63.630223
780.000000	63.414375
770.000000	63.395900
760.000000	63.277302
750.000000	63.465774
740.000000	63.338106
730.000000	63.228384
720.000000	63.256559
710.000000	63.262401
700.000000	63.065544
690.000000	63.031252
680.000000	62.854020
670.000000	62.814074
660.000000	62.650171
650.000000	62.560122
640.000000	62.414155
630.000000	62.216636
620.000000	62.092926
610.000000	61.948678
600.000000	61.762871
590.000000	61.544640
580.000000	61.368940
570.000000	61.125781
560.000000	60.875643
550.000000	60.475216
540.000000	60.190269
530.000000	59.908441
520.000000	59.509158
510.000000	59.129859
500.000000	58.628804
490.000000	58.129194
480.000000	57.678558
470.000000	56.861289
460.000000	56.104758
450.000000	54.925059
440.000000	53.422927
430.000000	51.645917
420.000000	49.573305
410.000000	47.572143
400.000000	45.455153
390.000000	43.164337
380.000000	40.812433
370.000000	38.111749
360.000000	35.566311
350.000000	32.791405
340.000000	30.187554
330.000000	27.653920
320.000000	25.370949
310.000000	23.773015
300.000000	19.793383
290.000000	15.697076
280.000000	13.802359
270.000000	13.541672
260.000000	13.622317
250.000000	13.701295
