PE UV       SUBTECH     SPECTRUM    ASCII       PEDS        4.00        
   -1
3C-XXX-C042.Sample.Raw.asc
23/09/06
09:49:54.00
23/09/06
09:49:54.00
Administrator

250.000000
1
Lambda 750
750N8071901
PerkinElmer UV WinLab 6.0.4.0738 / 1.61.00 Lambda 900

0
0
3350/servo 860.8/2
0
0
UV/VIS
1
1
1
CommonBeamDepol,150mm sphere / downward view
0
0
0
0
Program
Program
3350/servo 860.8/2
3350/0.2 860.8/0.2
3350/0.2 860.8/0.2
0
1
 
 
 
0
 
860.8
319.2
860.8
Front
100
on
 
 
0
0
0
 
0
 
 
 
0
 
 
0
0
0
0
0
 
 
 
 
0
0


0
0
#HDR
-1
-1
#GR
nm
%R
1.0
0.0
2500.000000
-10.000000
226
8
73.425993
20.758262
#DATA
2500.000000	21.503351
2490.000000	21.111423
2480.000000	20.758262
2470.000000	22.018785
2460.000000	22.766394
2450.000000	23.880499
2440.000000	23.807637
2430.000000	24.478508
2420.000000	24.974012
2410.000000	25.098717
2400.000000	24.273879
2390.000000	25.519160
2380.000000	24.899416
2370.000000	24.684725
2360.000000	25.627434
2350.000000	25.975486
2340.000000	25.722683
2330.000000	24.776218
2320.000000	24.996194
2310.000000	24.514969
2300.000000	24.379969
2290.000000	24.687737
2280.000000	24.763256
2270.000000	25.831210
2260.000000	27.312723
2250.000000	28.117753
2240.000000	28.559425
2230.000000	28.166715
2220.000000	27.606857
2210.000000	27.205978
2200.000000	26.683833
2190.000000	27.043939
2180.000000	27.642672
2170.000000	28.484626
2160.000000	29.179516
2150.000000	29.848189
2140.000000	30.496713
2130.000000	30.526844
2120.000000	30.591856
2110.000000	30.495575
2100.000000	30.199856
2090.000000	29.413554
2080.000000	28.192513
2070.000000	27.130125
2060.000000	26.469747
2050.000000	26.805283
2040.000000	27.171554
2030.000000	27.120764
2020.000000	26.459545
2010.000000	25.679741
2000.000000	24.739782
1990.000000	23.863371
1980.000000	23.041195
1970.000000	22.466515
1960.000000	22.243258
1950.000000	22.706844
1940.000000	24.009207
1930.000000	26.153398
1920.000000	29.646513
1910.000000	34.412666
1900.000000	38.963317
1890.000000	43.256509
1880.000000	46.223907
1870.000000	47.262684
1860.000000	47.571682
1850.000000	47.309486
1840.000000	46.948614
1830.000000	46.473412
1820.000000	45.976012
1810.000000	45.523578
1800.000000	45.170809
1790.000000	44.865996
1780.000000	44.405518
1770.000000	44.037248
1760.000000	43.636998
1750.000000	43.368169
1740.000000	43.742220
1730.000000	44.825661
1720.000000	45.595686
1710.000000	45.848546
1700.000000	46.795592
1690.000000	48.678017
1680.000000	50.397984
1670.000000	51.038962
1660.000000	51.138291
1650.000000	50.662087
1640.000000	49.985307
1630.000000	49.187356
1620.000000	48.282463
1610.000000	47.364747
1600.000000	46.593418
1590.000000	45.899284
1580.000000	45.271845
1570.000000	44.864705
1560.000000	44.266597
1550.000000	43.232130
1540.000000	42.283919
1530.000000	41.696475
1520.000000	41.297817
1510.000000	40.997511
1500.000000	40.869979
1490.000000	40.964549
1480.000000	41.133737
1470.000000	41.559051
1460.000000	42.347469
1450.000000	43.559285
1440.000000	45.346784
1430.000000	48.010987
1420.000000	51.451729
1410.000000	55.110005
1400.000000	58.151962
1390.000000	60.036008
1380.000000	61.155513
1370.000000	62.261103
1360.000000	63.330195
1350.000000	64.360559
1340.000000	65.209973
1330.000000	65.879476
1320.000000	66.379237
1310.000000	66.646176
1300.000000	66.631490
1290.000000	66.646878
1280.000000	66.669377
1270.000000	66.739509
1260.000000	66.706061
1250.000000	66.403351
1240.000000	66.144269
1230.000000	65.792139
1220.000000	65.227611
1210.000000	64.735636
1200.000000	64.581404
1190.000000	65.064426
1180.000000	66.144847
1170.000000	67.455222
1160.000000	68.551418
1150.000000	69.472694
1140.000000	70.132246
1130.000000	70.373303
1120.000000	70.515912
1110.000000	70.596990
1100.000000	70.668676
1090.000000	70.632333
1080.000000	70.565487
1070.000000	70.443994
1060.000000	70.369705
1050.000000	70.313705
1040.000000	70.297257
1030.000000	70.258148
1020.000000	70.324235
1010.000000	70.461440
1000.000000	70.575308
990.000000	70.784974
980.000000	71.077228
970.000000	71.395263
960.000000	71.742827
950.000000	71.895324
940.000000	71.994912
930.000000	72.097502
920.000000	72.291676
910.000000	72.421632
900.000000	72.757027
890.000000	72.868646
880.000000	73.184900
870.000000	73.286970
860.000000	73.352376
850.000000	72.181770
840.000000	72.648030
830.000000	72.598313
820.000000	72.597850
810.000000	72.614625
800.000000	72.708606
790.000000	72.822154
780.000000	72.653088
770.000000	72.821951
760.000000	73.023633
750.000000	72.954994
740.000000	73.074515
730.000000	73.038015
720.000000	73.198879
710.000000	73.145511
700.000000	73.314375
690.000000	73.425993
680.000000	73.267074
670.000000	73.292370
660.000000	73.283330
650.000000	73.284434
640.000000	73.281170
630.000000	73.259822
620.000000	73.232455
610.000000	73.145443
600.000000	73.143847
590.000000	73.092113
580.000000	72.997436
570.000000	72.992938
560.000000	72.919371
550.000000	72.818673
540.000000	72.727715
530.000000	72.578496
520.000000	72.384971
510.000000	72.122463
500.000000	71.913497
490.000000	71.700880
480.000000	71.485631
470.000000	70.984052
460.000000	70.145409
450.000000	69.494010
440.000000	68.292585
430.000000	66.809836
420.000000	65.067073
410.000000	63.433825
400.000000	61.904581
390.000000	60.307910
380.000000	58.671246
370.000000	56.871575
360.000000	54.465726
350.000000	52.321909
340.000000	50.111371
330.000000	48.621477
320.000000	47.298294
310.000000	46.325672
300.000000	42.562142
290.000000	34.813111
280.000000	30.160815
270.000000	30.357635
260.000000	31.333774
250.000000	32.582574
