PE UV       SUBTECH     SPECTRUM    ASCII       PEDS        4.00        
   -1
3C-XXX-F022.Sample.Raw.asc
23/09/06
14:59:48.00
23/09/06
14:59:48.00
Administrator

250.000000
1
Lambda 750
750N8071901
PerkinElmer UV WinLab 6.0.4.0738 / 1.61.00 Lambda 900

0
0
3350/servo 860.8/2
0
0
UV/VIS
1
1
1
CommonBeamDepol,150mm sphere / downward view
0
0
0
0
Program
Program
3350/servo 860.8/2
3350/0.2 860.8/0.2
3350/0.2 860.8/0.2
0
1
 
 
 
0
 
860.8
319.2
860.8
Front
100
on
 
 
0
0
0
 
0
 
 
 
0
 
 
0
0
0
0
0
 
 
 
 
0
0


0
0
#HDR
-1
-1
#GR
nm
%R
1.0
0.0
2500.000000
-10.000000
226
8
71.399885
14.119333
#DATA
2500.000000	18.938978
2490.000000	18.884790
2480.000000	19.730079
2470.000000	21.091192
2460.000000	20.744044
2450.000000	21.100680
2440.000000	22.148825
2430.000000	22.336035
2420.000000	23.114022
2410.000000	22.983354
2400.000000	23.495191
2390.000000	23.106057
2380.000000	23.378174
2370.000000	23.036842
2360.000000	23.025332
2350.000000	23.640935
2340.000000	23.382396
2330.000000	23.619640
2320.000000	22.638921
2310.000000	22.312268
2300.000000	21.882968
2290.000000	22.727195
2280.000000	23.200163
2270.000000	23.947667
2260.000000	25.778084
2250.000000	26.513683
2240.000000	26.653930
2230.000000	26.497303
2220.000000	25.751138
2210.000000	25.356918
2200.000000	24.913256
2190.000000	24.893397
2180.000000	25.504877
2170.000000	26.438478
2160.000000	27.288708
2150.000000	28.395466
2140.000000	28.692038
2130.000000	28.666502
2120.000000	28.778686
2110.000000	28.808275
2100.000000	28.295462
2090.000000	27.667987
2080.000000	26.494846
2070.000000	25.401797
2060.000000	24.687880
2050.000000	24.866021
2040.000000	25.549121
2030.000000	25.403038
2020.000000	24.784930
2010.000000	23.984926
2000.000000	23.024606
1990.000000	21.943487
1980.000000	21.247532
1970.000000	20.524790
1960.000000	20.226144
1950.000000	20.641214
1940.000000	21.944687
1930.000000	24.363579
1920.000000	27.742564
1910.000000	32.773741
1900.000000	37.460796
1890.000000	41.872201
1880.000000	45.002964
1870.000000	46.095666
1860.000000	46.385180
1850.000000	46.241490
1840.000000	45.686689
1830.000000	45.259142
1820.000000	44.735421
1810.000000	44.314604
1800.000000	43.881444
1790.000000	43.493810
1780.000000	43.047050
1770.000000	42.613029
1760.000000	42.230855
1750.000000	41.845768
1740.000000	42.252898
1730.000000	43.435115
1720.000000	44.208321
1710.000000	44.515465
1700.000000	45.437917
1690.000000	47.414651
1680.000000	49.303880
1670.000000	49.981228
1660.000000	50.042632
1650.000000	49.636339
1640.000000	48.961595
1630.000000	48.116965
1620.000000	47.173508
1610.000000	46.209797
1600.000000	45.414229
1590.000000	44.700111
1580.000000	44.052525
1570.000000	43.609177
1560.000000	43.031807
1550.000000	41.987753
1540.000000	40.971102
1530.000000	40.334267
1520.000000	39.900101
1510.000000	39.564121
1500.000000	39.467382
1490.000000	39.557731
1480.000000	39.769438
1470.000000	40.160391
1460.000000	40.930086
1450.000000	42.097961
1440.000000	43.877612
1430.000000	46.526615
1420.000000	49.999195
1410.000000	53.743251
1400.000000	56.839579
1390.000000	58.825000
1380.000000	59.946353
1370.000000	61.110821
1360.000000	62.177403
1350.000000	63.215524
1340.000000	64.058728
1330.000000	64.820150
1320.000000	65.298323
1310.000000	65.553160
1300.000000	65.538817
1290.000000	65.485378
1280.000000	65.535100
1270.000000	65.555913
1260.000000	65.509350
1250.000000	65.222746
1240.000000	64.924375
1230.000000	64.559890
1220.000000	63.939509
1210.000000	63.417884
1200.000000	63.238988
1190.000000	63.734142
1180.000000	64.740150
1170.000000	66.049036
1160.000000	67.214338
1150.000000	68.102399
1140.000000	68.774055
1130.000000	69.037730
1120.000000	69.153639
1110.000000	69.254549
1100.000000	69.282969
1090.000000	69.218593
1080.000000	69.142346
1070.000000	69.048905
1060.000000	68.938523
1050.000000	68.860625
1040.000000	68.796433
1030.000000	68.747818
1020.000000	68.772430
1010.000000	68.875897
1000.000000	68.997840
990.000000	69.183022
980.000000	69.398548
970.000000	69.696265
960.000000	69.992919
950.000000	70.162950
940.000000	70.231224
930.000000	70.335450
920.000000	70.382954
910.000000	70.574018
900.000000	70.800016
890.000000	70.834024
880.000000	71.071159
870.000000	71.267243
860.000000	71.399885
850.000000	70.238768
840.000000	70.785104
830.000000	70.580542
820.000000	70.714172
810.000000	70.559578
800.000000	70.577062
790.000000	70.590669
780.000000	70.411977
770.000000	70.470231
760.000000	70.570337
750.000000	70.754393
740.000000	70.593760
730.000000	70.413395
720.000000	70.465640
710.000000	70.520165
700.000000	70.393412
690.000000	70.384854
680.000000	70.215846
670.000000	70.187688
660.000000	70.244248
650.000000	70.084959
640.000000	69.902691
630.000000	69.795353
620.000000	69.659963
610.000000	69.489230
600.000000	69.350609
590.000000	69.196567
580.000000	69.000157
570.000000	68.745476
560.000000	68.504579
550.000000	68.199781
540.000000	67.904020
530.000000	67.593921
520.000000	67.189852
510.000000	66.703283
500.000000	66.213035
490.000000	65.688184
480.000000	65.384450
470.000000	64.409515
460.000000	63.541927
450.000000	62.326674
440.000000	60.883340
430.000000	58.872612
420.000000	56.580199
410.000000	54.390858
400.000000	52.234908
390.000000	49.810911
380.000000	47.347880
370.000000	44.515283
360.000000	41.442157
350.000000	38.857137
340.000000	35.617291
330.000000	32.963724
320.000000	30.098744
310.000000	28.335293
300.000000	23.579642
290.000000	17.341404
280.000000	14.562898
270.000000	14.159586
260.000000	14.169690
250.000000	14.119333
