PE UV       SUBTECH     SPECTRUM    ASCII       PEDS        4.00        
   -1
3C-XXX-C032.Sample.Raw.asc
23/09/06
09:17:23.00
23/09/06
09:17:23.00
Administrator

250.000000
1
Lambda 750
750N8071901
PerkinElmer UV WinLab 6.0.4.0738 / 1.61.00 Lambda 900

0
0
3350/servo 860.8/2
0
0
UV/VIS
1
1
1
CommonBeamDepol,150mm sphere / downward view
0
0
0
0
Program
Program
3350/servo 860.8/2
3350/0.2 860.8/0.2
3350/0.2 860.8/0.2
0
1
 
 
 
0
 
860.8
319.2
860.8
Front
100
on
 
 
0
0
0
 
0
 
 
 
0
 
 
0
0
0
0
0
 
 
 
 
0
0


0
0
#HDR
-1
-1
#GR
nm
%R
1.0
0.0
2500.000000
-10.000000
226
8
68.498934
16.492599
#DATA
2500.000000	16.896237
2490.000000	16.878257
2480.000000	16.492599
2470.000000	17.024757
2460.000000	17.309494
2450.000000	18.568944
2440.000000	18.914647
2430.000000	19.145039
2420.000000	19.635168
2410.000000	19.893781
2400.000000	19.590835
2390.000000	20.466756
2380.000000	20.110104
2370.000000	19.445493
2360.000000	20.484251
2350.000000	20.730813
2340.000000	20.729240
2330.000000	19.807758
2320.000000	19.734633
2310.000000	19.378168
2300.000000	19.349690
2290.000000	19.366177
2280.000000	19.686693
2270.000000	20.710412
2260.000000	22.093679
2250.000000	22.867364
2240.000000	23.213506
2230.000000	22.871970
2220.000000	22.297051
2210.000000	21.970427
2200.000000	21.404643
2190.000000	21.229648
2180.000000	21.853124
2170.000000	22.946334
2160.000000	23.910046
2150.000000	24.178244
2140.000000	24.841344
2130.000000	24.756899
2120.000000	24.875003
2110.000000	24.846413
2100.000000	24.727934
2090.000000	23.801986
2080.000000	22.641385
2070.000000	21.547116
2060.000000	20.970899
2050.000000	21.208256
2040.000000	21.533554
2030.000000	21.503992
2020.000000	20.913716
2010.000000	20.154469
2000.000000	19.277166
1990.000000	18.449714
1980.000000	17.760547
1970.000000	17.223290
1960.000000	16.928551
1950.000000	17.289916
1940.000000	18.486303
1930.000000	20.547070
1920.000000	23.778125
1910.000000	28.613726
1900.000000	33.053356
1890.000000	37.507253
1880.000000	40.572907
1870.000000	41.682326
1860.000000	42.055922
1850.000000	41.831977
1840.000000	41.427621
1830.000000	40.941581
1820.000000	40.367277
1810.000000	39.906390
1800.000000	39.490677
1790.000000	39.138800
1780.000000	38.729481
1770.000000	38.307780
1760.000000	37.883101
1750.000000	37.562029
1740.000000	37.941229
1730.000000	39.062145
1720.000000	39.869562
1710.000000	40.130806
1700.000000	41.086987
1690.000000	43.055686
1680.000000	44.833038
1670.000000	45.531337
1660.000000	45.614078
1650.000000	45.106685
1640.000000	44.397588
1630.000000	43.532231
1620.000000	42.561957
1610.000000	41.579399
1600.000000	40.723300
1590.000000	39.998776
1580.000000	39.323998
1570.000000	38.892014
1560.000000	38.265471
1550.000000	37.203255
1540.000000	36.197033
1530.000000	35.586756
1520.000000	35.135925
1510.000000	34.799218
1500.000000	34.642840
1490.000000	34.704872
1480.000000	34.853209
1470.000000	35.258181
1460.000000	36.054710
1450.000000	37.275509
1440.000000	39.092851
1430.000000	41.842871
1420.000000	45.513406
1410.000000	49.448192
1400.000000	52.760874
1390.000000	54.818759
1380.000000	56.047234
1370.000000	57.253597
1360.000000	58.423855
1350.000000	59.542023
1340.000000	60.456053
1330.000000	61.216602
1320.000000	61.692199
1310.000000	61.950929
1300.000000	61.938947
1290.000000	61.926460
1280.000000	61.951457
1270.000000	62.019242
1260.000000	61.950146
1250.000000	61.593502
1240.000000	61.284279
1230.000000	60.940459
1220.000000	60.283185
1210.000000	59.686822
1200.000000	59.489978
1190.000000	59.990140
1180.000000	61.144781
1170.000000	62.599208
1160.000000	63.812037
1150.000000	64.822329
1140.000000	65.523373
1130.000000	65.834683
1120.000000	65.954760
1110.000000	66.028973
1100.000000	66.074536
1090.000000	66.040558
1080.000000	65.932951
1070.000000	65.799367
1060.000000	65.682310
1050.000000	65.602434
1040.000000	65.548660
1030.000000	65.473978
1020.000000	65.521670
1010.000000	65.667695
1000.000000	65.752712
990.000000	65.984448
980.000000	66.253042
970.000000	66.566650
960.000000	66.862679
950.000000	67.080185
940.000000	67.143279
930.000000	67.258137
920.000000	67.336910
910.000000	67.573976
900.000000	67.809304
890.000000	67.913685
880.000000	68.228862
870.000000	68.404155
860.000000	68.498934
850.000000	67.521054
840.000000	67.820932
830.000000	67.946444
820.000000	67.743109
810.000000	67.683659
800.000000	67.805962
790.000000	67.765675
780.000000	67.765911
770.000000	67.904294
760.000000	67.912376
750.000000	68.036702
740.000000	67.958268
730.000000	67.997524
720.000000	67.965301
710.000000	67.973392
700.000000	67.918566
690.000000	68.079268
680.000000	67.846576
670.000000	67.857829
660.000000	67.881901
650.000000	67.810691
640.000000	67.766172
630.000000	67.745267
620.000000	67.652363
610.000000	67.513846
600.000000	67.429675
590.000000	67.344558
580.000000	67.136454
570.000000	67.099218
560.000000	66.976090
550.000000	66.772530
540.000000	66.608955
530.000000	66.408241
520.000000	66.173263
510.000000	65.896293
500.000000	65.609736
490.000000	65.168847
480.000000	64.978484
470.000000	64.281758
460.000000	63.473593
450.000000	62.632102
440.000000	61.141632
430.000000	59.386371
420.000000	57.443647
410.000000	55.440630
400.000000	53.541784
390.000000	51.534252
380.000000	49.416995
370.000000	47.115833
360.000000	44.254096
350.000000	41.674672
340.000000	39.613117
330.000000	37.079582
320.000000	35.644640
310.000000	34.760016
300.000000	30.787975
290.000000	25.525261
280.000000	23.111686
270.000000	23.805332
260.000000	24.692525
250.000000	25.850325
