PE UV       SUBTECH     SPECTRUM    ASCII       PEDS        4.00        
   -1
3C-XXX-F06.Sample.Raw.asc
23/09/06
14:06:20.00
23/09/06
14:06:20.00
Administrator

250.000000
1
Lambda 750
750N8071901
PerkinElmer UV WinLab 6.0.4.0738 / 1.61.00 Lambda 900

0
0
3350/servo 860.8/2
0
0
UV/VIS
1
1
1
CommonBeamDepol,150mm sphere / downward view
0
0
0
0
Program
Program
3350/servo 860.8/2
3350/0.2 860.8/0.2
3350/0.2 860.8/0.2
0
1
 
 
 
0
 
860.8
319.2
860.8
Front
100
on
 
 
0
0
0
 
0
 
 
 
0
 
 
0
0
0
0
0
 
 
 
 
0
0


0
0
#HDR
-1
-1
#GR
nm
%R
1.0
0.0
2500.000000
-10.000000
226
8
67.061140
13.965293
#DATA
2500.000000	15.264505
2490.000000	15.567189
2480.000000	16.894380
2470.000000	17.146136
2460.000000	16.844162
2450.000000	17.697097
2440.000000	17.722435
2430.000000	18.357021
2420.000000	19.325947
2410.000000	19.027171
2400.000000	19.456917
2390.000000	18.590300
2380.000000	19.794886
2370.000000	18.838417
2360.000000	19.261905
2350.000000	19.334647
2340.000000	19.564201
2330.000000	19.716521
2320.000000	19.304185
2310.000000	18.673873
2300.000000	18.131413
2290.000000	18.613113
2280.000000	19.003069
2270.000000	19.895160
2260.000000	21.120216
2250.000000	22.154021
2240.000000	22.147132
2230.000000	21.871779
2220.000000	21.394310
2210.000000	21.114419
2200.000000	20.693080
2190.000000	20.829312
2180.000000	21.470623
2170.000000	22.096697
2160.000000	22.678757
2150.000000	23.628207
2140.000000	23.664184
2130.000000	23.822335
2120.000000	24.010541
2110.000000	23.976654
2100.000000	23.631311
2090.000000	22.989801
2080.000000	22.108970
2070.000000	20.921292
2060.000000	20.375312
2050.000000	20.468927
2040.000000	21.085828
2030.000000	20.936317
2020.000000	20.440777
2010.000000	19.752381
2000.000000	18.947850
1990.000000	18.310766
1980.000000	17.747606
1970.000000	17.123219
1960.000000	16.926956
1950.000000	17.319025
1940.000000	18.254154
1930.000000	20.067737
1920.000000	22.935998
1910.000000	27.587178
1900.000000	32.333565
1890.000000	36.578442
1880.000000	39.523141
1870.000000	40.796316
1860.000000	40.903318
1850.000000	40.705684
1840.000000	40.299980
1830.000000	39.794649
1820.000000	39.312165
1810.000000	38.924920
1800.000000	38.548253
1790.000000	38.168569
1780.000000	37.733506
1770.000000	37.323463
1760.000000	36.892544
1750.000000	36.484321
1740.000000	36.928847
1730.000000	38.131391
1720.000000	38.829917
1710.000000	39.102350
1700.000000	40.086552
1690.000000	42.098282
1680.000000	43.954448
1670.000000	44.645150
1660.000000	44.683706
1650.000000	44.235635
1640.000000	43.509209
1630.000000	42.667928
1620.000000	41.687011
1610.000000	40.763276
1600.000000	39.928987
1590.000000	39.222357
1580.000000	38.572331
1570.000000	38.141419
1560.000000	37.523774
1550.000000	36.432758
1540.000000	35.485773
1530.000000	34.902930
1520.000000	34.485196
1510.000000	34.170172
1500.000000	34.060839
1490.000000	34.078642
1480.000000	34.244455
1470.000000	34.660824
1460.000000	35.438287
1450.000000	36.672494
1440.000000	38.500372
1430.000000	41.260246
1420.000000	44.846959
1410.000000	48.654415
1400.000000	51.866894
1390.000000	53.906824
1380.000000	55.081176
1370.000000	56.305387
1360.000000	57.447811
1350.000000	58.577987
1340.000000	59.455679
1330.000000	60.222257
1320.000000	60.738669
1310.000000	60.988930
1300.000000	60.969250
1290.000000	60.903315
1280.000000	60.938146
1270.000000	60.988534
1260.000000	60.918008
1250.000000	60.609747
1240.000000	60.311956
1230.000000	59.893708
1220.000000	59.231850
1210.000000	58.652546
1200.000000	58.483962
1190.000000	59.039306
1180.000000	60.151071
1170.000000	61.555535
1160.000000	62.798543
1150.000000	63.749857
1140.000000	64.428538
1130.000000	64.733498
1120.000000	64.851713
1110.000000	64.918616
1100.000000	64.972794
1090.000000	64.916964
1080.000000	64.815803
1070.000000	64.674217
1060.000000	64.570929
1050.000000	64.464867
1040.000000	64.391777
1030.000000	64.337459
1020.000000	64.349346
1010.000000	64.496373
1000.000000	64.600674
990.000000	64.789992
980.000000	65.020643
970.000000	65.330879
960.000000	65.632110
950.000000	65.776838
940.000000	65.811962
930.000000	65.912679
920.000000	65.953745
910.000000	66.220307
900.000000	66.387754
890.000000	66.542655
880.000000	66.698878
870.000000	66.894150
860.000000	67.061140
850.000000	65.679691
840.000000	65.899871
830.000000	65.822357
820.000000	65.787367
810.000000	65.914107
800.000000	65.796376
790.000000	65.802627
780.000000	65.702250
770.000000	65.708941
760.000000	65.620684
750.000000	65.818247
740.000000	65.681893
730.000000	65.663515
720.000000	65.678799
710.000000	65.648356
700.000000	65.573394
690.000000	65.435084
680.000000	65.306469
670.000000	65.310073
660.000000	65.217479
650.000000	65.085092
640.000000	65.022524
630.000000	64.845605
620.000000	64.628206
610.000000	64.514108
600.000000	64.370403
590.000000	64.192344
580.000000	64.016741
570.000000	63.761763
560.000000	63.526890
550.000000	63.172884
540.000000	62.895066
530.000000	62.549697
520.000000	62.156030
510.000000	61.720886
500.000000	61.242179
490.000000	60.800511
480.000000	60.375538
470.000000	59.526936
460.000000	58.615430
450.000000	57.523362
440.000000	56.044209
430.000000	54.204469
420.000000	51.930445
410.000000	49.879101
400.000000	47.779078
390.000000	45.376666
380.000000	42.948308
370.000000	40.226056
360.000000	37.430245
350.000000	34.694703
340.000000	31.782256
330.000000	29.580880
320.000000	27.236191
310.000000	25.448880
300.000000	22.000987
290.000000	16.817949
280.000000	14.515833
270.000000	13.965293
260.000000	13.979987
250.000000	14.243827
