PE UV       SUBTECH     SPECTRUM    ASCII       PEDS        4.00        
   -1
3C-XXX-F014.Sample.Raw.asc
23/09/06
14:32:13.00
23/09/06
14:32:13.00
Administrator

250.000000
1
Lambda 750
750N8071901
PerkinElmer UV WinLab 6.0.4.0738 / 1.61.00 Lambda 900

0
0
3350/servo 860.8/2
0
0
UV/VIS
1
1
1
CommonBeamDepol,150mm sphere / downward view
0
0
0
0
Program
Program
3350/servo 860.8/2
3350/0.2 860.8/0.2
3350/0.2 860.8/0.2
0
1
 
 
 
0
 
860.8
319.2
860.8
Front
100
on
 
 
0
0
0
 
0
 
 
 
0
 
 
0
0
0
0
0
 
 
 
 
0
0


0
0
#HDR
-1
-1
#GR
nm
%R
1.0
0.0
2500.000000
-10.000000
226
8
63.109457
13.104538
#DATA
2500.000000	13.333910
2490.000000	13.104538
2480.000000	13.813526
2470.000000	14.453830
2460.000000	14.735046
2450.000000	15.144759
2440.000000	15.367427
2430.000000	15.605572
2420.000000	16.899888
2410.000000	16.329403
2400.000000	16.604824
2390.000000	16.620492
2380.000000	16.792663
2370.000000	16.646014
2360.000000	16.598694
2350.000000	16.451700
2340.000000	16.571475
2330.000000	16.752602
2320.000000	16.369056
2310.000000	16.072125
2300.000000	15.471929
2290.000000	16.080981
2280.000000	16.436198
2270.000000	16.906668
2260.000000	18.280607
2250.000000	19.011483
2240.000000	18.938241
2230.000000	18.926385
2220.000000	18.337821
2210.000000	18.196782
2200.000000	17.661246
2190.000000	17.482007
2180.000000	18.260818
2170.000000	19.076415
2160.000000	19.587206
2150.000000	20.284611
2140.000000	20.419138
2130.000000	20.412922
2120.000000	20.644321
2110.000000	20.678688
2100.000000	20.348941
2090.000000	19.830122
2080.000000	18.998343
2070.000000	18.148521
2060.000000	17.617075
2050.000000	17.666667
2040.000000	18.183952
2030.000000	18.089111
2020.000000	17.607182
2010.000000	17.072092
2000.000000	16.419774
1990.000000	15.703940
1980.000000	15.201252
1970.000000	14.726963
1960.000000	14.601535
1950.000000	14.948934
1940.000000	15.677751
1930.000000	17.422434
1920.000000	19.869670
1910.000000	24.021346
1900.000000	28.041948
1890.000000	32.202581
1880.000000	35.216395
1870.000000	36.431133
1860.000000	36.595918
1850.000000	36.525648
1840.000000	36.033947
1830.000000	35.614730
1820.000000	35.072619
1810.000000	34.634898
1800.000000	34.258758
1790.000000	33.878001
1780.000000	33.430500
1770.000000	33.039227
1760.000000	32.641634
1750.000000	32.286007
1740.000000	32.634571
1730.000000	33.767591
1720.000000	34.544779
1710.000000	34.791206
1700.000000	35.684125
1690.000000	37.610478
1680.000000	39.474635
1670.000000	40.198317
1660.000000	40.290928
1650.000000	39.861392
1640.000000	39.194302
1630.000000	38.348067
1620.000000	37.431366
1610.000000	36.456372
1600.000000	35.645496
1590.000000	34.958717
1580.000000	34.326020
1570.000000	33.917418
1560.000000	33.346060
1550.000000	32.348200
1540.000000	31.394831
1530.000000	30.800341
1520.000000	30.401108
1510.000000	30.075741
1500.000000	29.956636
1490.000000	29.993884
1480.000000	30.187747
1470.000000	30.547328
1460.000000	31.266443
1450.000000	32.354038
1440.000000	34.053200
1430.000000	36.621325
1420.000000	40.124537
1410.000000	43.950808
1400.000000	47.258910
1390.000000	49.415443
1380.000000	50.623159
1370.000000	51.850800
1360.000000	53.026481
1350.000000	54.136861
1340.000000	55.058948
1330.000000	55.852236
1320.000000	56.489405
1310.000000	56.844186
1300.000000	56.900348
1290.000000	56.833450
1280.000000	56.875249
1270.000000	56.885563
1260.000000	56.847134
1250.000000	56.510060
1240.000000	56.166738
1230.000000	55.784674
1220.000000	55.106184
1210.000000	54.521684
1200.000000	54.313009
1190.000000	54.843609
1180.000000	55.916079
1170.000000	57.349941
1160.000000	58.655075
1150.000000	59.644383
1140.000000	60.378448
1130.000000	60.697148
1120.000000	60.782904
1110.000000	60.902487
1100.000000	60.959001
1090.000000	60.898524
1080.000000	60.810363
1070.000000	60.655556
1060.000000	60.515964
1050.000000	60.404797
1040.000000	60.321662
1030.000000	60.250656
1020.000000	60.265439
1010.000000	60.383499
1000.000000	60.548194
990.000000	60.771065
980.000000	60.986155
970.000000	61.295180
960.000000	61.590238
950.000000	61.795154
940.000000	61.867869
930.000000	61.956057
920.000000	62.076651
910.000000	62.245412
900.000000	62.586457
890.000000	62.632117
880.000000	62.796019
870.000000	63.065736
860.000000	63.109457
850.000000	62.219652
840.000000	62.352180
830.000000	62.280470
820.000000	62.138967
810.000000	62.268635
800.000000	62.230952
790.000000	62.420237
780.000000	62.272918
770.000000	62.229105
760.000000	62.249078
750.000000	62.266057
740.000000	62.130394
730.000000	62.144767
720.000000	62.211687
710.000000	62.266584
700.000000	62.090057
690.000000	62.000712
680.000000	61.846575
670.000000	61.831365
660.000000	61.802081
650.000000	61.644657
640.000000	61.568315
630.000000	61.438194
620.000000	61.304056
610.000000	61.065549
600.000000	60.942942
590.000000	60.721497
580.000000	60.536138
570.000000	60.234718
560.000000	59.960318
550.000000	59.641596
540.000000	59.339706
530.000000	58.995335
520.000000	58.564702
510.000000	58.130199
500.000000	57.627917
490.000000	57.100474
480.000000	56.715710
470.000000	55.858204
460.000000	55.055984
450.000000	53.804620
440.000000	52.274389
430.000000	50.346051
420.000000	48.098164
410.000000	45.938745
400.000000	43.783634
390.000000	41.437216
380.000000	38.916676
370.000000	36.283056
360.000000	33.754052
350.000000	31.275806
340.000000	28.624020
330.000000	26.641296
320.000000	24.427598
310.000000	23.374600
300.000000	20.216139
290.000000	16.400441
280.000000	14.695049
270.000000	14.346538
260.000000	14.414656
250.000000	14.457235
