PE UV       SUBTECH     SPECTRUM    ASCII       PEDS        4.00        
   -1
3C-XXX-C046.Sample.Raw.asc
23/09/06
10:04:00.00
23/09/06
10:04:00.00
Administrator

250.000000
1
Lambda 750
750N8071901
PerkinElmer UV WinLab 6.0.4.0738 / 1.61.00 Lambda 900

0
0
3350/servo 860.8/2
0
0
UV/VIS
1
1
1
CommonBeamDepol,150mm sphere / downward view
0
0
0
0
Program
Program
3350/servo 860.8/2
3350/0.2 860.8/0.2
3350/0.2 860.8/0.2
0
1
 
 
 
0
 
860.8
319.2
860.8
Front
100
on
 
 
0
0
0
 
0
 
 
 
0
 
 
0
0
0
0
0
 
 
 
 
0
0


0
0
#HDR
-1
-1
#GR
nm
%R
1.0
0.0
2500.000000
-10.000000
226
8
74.377541
21.914928
#DATA
2500.000000	22.294064
2490.000000	21.914928
2480.000000	22.669899
2470.000000	22.891372
2460.000000	24.054104
2450.000000	24.474051
2440.000000	25.415696
2430.000000	25.623803
2420.000000	26.470494
2410.000000	26.027668
2400.000000	25.816315
2390.000000	26.136931
2380.000000	26.447856
2370.000000	26.212163
2360.000000	26.563247
2350.000000	26.913811
2340.000000	26.628959
2330.000000	26.578938
2320.000000	25.773535
2310.000000	25.478955
2300.000000	25.365774
2290.000000	25.551021
2280.000000	25.917771
2270.000000	27.181186
2260.000000	28.346122
2250.000000	29.271340
2240.000000	29.850656
2230.000000	29.409817
2220.000000	28.652979
2210.000000	28.454687
2200.000000	27.697289
2190.000000	27.978564
2180.000000	28.552837
2170.000000	29.493516
2160.000000	30.517691
2150.000000	31.120675
2140.000000	31.678841
2130.000000	31.762156
2120.000000	31.680780
2110.000000	31.682299
2100.000000	31.259742
2090.000000	30.722017
2080.000000	29.420896
2070.000000	28.312129
2060.000000	27.646909
2050.000000	27.892704
2040.000000	28.329668
2030.000000	28.256939
2020.000000	27.490954
2010.000000	26.686148
2000.000000	25.689678
1990.000000	24.846608
1980.000000	24.016598
1970.000000	23.393098
1960.000000	23.069260
1950.000000	23.589602
1940.000000	24.927344
1930.000000	27.103942
1920.000000	30.702159
1910.000000	35.551999
1900.000000	40.180974
1890.000000	44.492659
1880.000000	47.446156
1870.000000	48.592988
1860.000000	48.900478
1850.000000	48.578900
1840.000000	48.186949
1830.000000	47.726105
1820.000000	47.230958
1810.000000	46.801975
1800.000000	46.489804
1790.000000	46.138333
1780.000000	45.721945
1770.000000	45.300990
1760.000000	44.924462
1750.000000	44.623282
1740.000000	45.000901
1730.000000	46.089817
1720.000000	46.853667
1710.000000	47.114730
1700.000000	47.981162
1690.000000	49.913214
1680.000000	51.606575
1670.000000	52.293179
1660.000000	52.364372
1650.000000	51.926716
1640.000000	51.227986
1630.000000	50.432544
1620.000000	49.535100
1610.000000	48.609967
1600.000000	47.828042
1590.000000	47.146421
1580.000000	46.516451
1570.000000	46.100712
1560.000000	45.502165
1550.000000	44.493416
1540.000000	43.522073
1530.000000	42.916647
1520.000000	42.507053
1510.000000	42.219138
1500.000000	42.084613
1490.000000	42.170973
1480.000000	42.331338
1470.000000	42.753521
1460.000000	43.524226
1450.000000	44.743117
1440.000000	46.530738
1430.000000	49.171804
1420.000000	52.608227
1410.000000	56.267101
1400.000000	59.298705
1390.000000	61.170820
1380.000000	62.306464
1370.000000	63.372111
1360.000000	64.436242
1350.000000	65.477781
1340.000000	66.315465
1330.000000	66.961770
1320.000000	67.436469
1310.000000	67.684985
1300.000000	67.689246
1290.000000	67.687824
1280.000000	67.711356
1270.000000	67.782756
1260.000000	67.739101
1250.000000	67.449922
1240.000000	67.191364
1230.000000	66.860410
1220.000000	66.265666
1210.000000	65.753819
1200.000000	65.600903
1190.000000	66.082441
1180.000000	67.134828
1170.000000	68.451381
1160.000000	69.553636
1150.000000	70.473504
1140.000000	71.094128
1130.000000	71.344904
1120.000000	71.517331
1110.000000	71.597649
1100.000000	71.635979
1090.000000	71.624814
1080.000000	71.552933
1070.000000	71.468342
1060.000000	71.393021
1050.000000	71.353646
1040.000000	71.307218
1030.000000	71.270616
1020.000000	71.330268
1010.000000	71.500069
1000.000000	71.593032
990.000000	71.789385
980.000000	72.065146
970.000000	72.410340
960.000000	72.699614
950.000000	72.854371
940.000000	73.000224
930.000000	73.043216
920.000000	73.214867
910.000000	73.386143
900.000000	73.635452
890.000000	73.890177
880.000000	74.050069
870.000000	74.197640
860.000000	74.260289
850.000000	73.319861
840.000000	73.867937
830.000000	73.620942
820.000000	73.402841
810.000000	73.638970
800.000000	73.723543
790.000000	73.722029
780.000000	73.748900
770.000000	73.835893
760.000000	73.982993
750.000000	74.073221
740.000000	74.141522
730.000000	74.033640
720.000000	74.190638
710.000000	74.156881
700.000000	74.221029
690.000000	74.377541
680.000000	74.222486
670.000000	74.249901
660.000000	74.225217
650.000000	74.241629
640.000000	74.201437
630.000000	74.233974
620.000000	74.199891
610.000000	74.100105
600.000000	74.103665
590.000000	73.997519
580.000000	73.864685
570.000000	73.942368
560.000000	73.857352
550.000000	73.758955
540.000000	73.692213
530.000000	73.505318
520.000000	73.304266
510.000000	73.078308
500.000000	72.930886
490.000000	72.590801
480.000000	72.360624
470.000000	71.890445
460.000000	71.061298
450.000000	70.469612
440.000000	69.222975
430.000000	67.697671
420.000000	65.941169
410.000000	64.220378
400.000000	62.833856
390.000000	61.188788
380.000000	59.671997
370.000000	57.703013
360.000000	55.011791
350.000000	53.231072
340.000000	50.583884
330.000000	49.084626
320.000000	48.248330
310.000000	46.223377
300.000000	41.337775
290.000000	33.272375
280.000000	28.463710
270.000000	28.624994
260.000000	29.630985
250.000000	30.804141
