PE UV       SUBTECH     SPECTRUM    ASCII       PEDS        4.00        
   -1
3C-XXX-C015.Sample.Raw.asc
23/09/05
15:46:54.00
23/09/05
15:46:54.00
Administrator

250.000000
1
Lambda 750
750N8071901
PerkinElmer UV WinLab 6.0.4.0738 / 1.61.00 Lambda 900

0
0
3350/servo 860.8/2
0
0
UV/VIS
1
1
1
CommonBeamDepol,150mm sphere / downward view
0
0
0
0
Program
Program
3350/servo 860.8/2
3350/0.2 860.8/0.2
3350/0.2 860.8/0.2
0
1
 
 
 
0
 
860.8
319.2
860.8
Front
100
on
 
 
0
0
0
 
0
 
 
 
0
 
 
0
0
0
0
0
 
 
 
 
0
0


0
0
#HDR
-1
-1
#GR
nm
%R
1.0
0.0
2500.000000
-10.000000
226
8
66.354717
15.761402
#DATA
2500.000000	15.761402
2490.000000	16.505764
2480.000000	16.654645
2470.000000	16.582878
2460.000000	16.745656
2450.000000	17.806596
2440.000000	18.134573
2430.000000	19.420773
2420.000000	18.936015
2410.000000	19.365254
2400.000000	18.997490
2390.000000	18.948431
2380.000000	19.217407
2370.000000	19.642672
2360.000000	19.693291
2350.000000	19.716020
2340.000000	19.906520
2330.000000	19.392538
2320.000000	18.960746
2310.000000	18.795795
2300.000000	18.075209
2290.000000	18.506780
2280.000000	18.955597
2270.000000	20.373737
2260.000000	21.425665
2250.000000	21.823456
2240.000000	22.054752
2230.000000	21.915986
2220.000000	21.345601
2210.000000	21.041325
2200.000000	20.549802
2190.000000	20.209288
2180.000000	21.114101
2170.000000	21.792231
2160.000000	22.744555
2150.000000	23.535652
2140.000000	23.781108
2130.000000	24.075652
2120.000000	23.875167
2110.000000	23.811468
2100.000000	23.293524
2090.000000	22.786877
2080.000000	21.872280
2070.000000	20.781134
2060.000000	20.117150
2050.000000	20.303044
2040.000000	20.861765
2030.000000	20.703516
2020.000000	20.186988
2010.000000	19.419374
2000.000000	18.643710
1990.000000	17.906450
1980.000000	17.235924
1970.000000	16.679118
1960.000000	16.507096
1950.000000	16.951845
1940.000000	17.983743
1930.000000	19.674653
1920.000000	23.009719
1910.000000	27.298313
1900.000000	31.849125
1890.000000	36.144111
1880.000000	38.912857
1870.000000	40.138274
1860.000000	40.411427
1850.000000	40.139865
1840.000000	39.716138
1830.000000	39.258216
1820.000000	38.810949
1810.000000	38.377568
1800.000000	38.017651
1790.000000	37.690291
1780.000000	37.303067
1770.000000	36.915230
1760.000000	36.478405
1750.000000	36.138222
1740.000000	36.531058
1730.000000	37.652682
1720.000000	38.386046
1710.000000	38.631416
1700.000000	39.534207
1690.000000	41.437733
1680.000000	43.157801
1670.000000	43.840173
1660.000000	43.869233
1650.000000	43.423919
1640.000000	42.766457
1630.000000	41.916901
1620.000000	41.034482
1610.000000	40.086674
1600.000000	39.343723
1590.000000	38.604219
1580.000000	37.975353
1570.000000	37.551581
1560.000000	36.959694
1550.000000	35.906417
1540.000000	34.973078
1530.000000	34.389915
1520.000000	33.979347
1510.000000	33.662606
1500.000000	33.497806
1490.000000	33.524365
1480.000000	33.667055
1470.000000	34.092253
1460.000000	34.838618
1450.000000	36.045537
1440.000000	37.857683
1430.000000	40.510139
1420.000000	43.972654
1410.000000	47.681779
1400.000000	50.836226
1390.000000	52.800915
1380.000000	53.965030
1370.000000	55.056207
1360.000000	56.166360
1350.000000	57.244627
1340.000000	58.111892
1330.000000	58.817160
1320.000000	59.337333
1310.000000	59.631114
1300.000000	59.642728
1290.000000	59.578774
1280.000000	59.598658
1270.000000	59.665121
1260.000000	59.654250
1250.000000	59.347913
1240.000000	59.082845
1230.000000	58.668167
1220.000000	58.085623
1210.000000	57.545473
1200.000000	57.401837
1190.000000	57.883774
1180.000000	58.945128
1170.000000	60.294676
1160.000000	61.513051
1150.000000	62.418721
1140.000000	63.103544
1130.000000	63.349319
1120.000000	63.506190
1110.000000	63.578068
1100.000000	63.618438
1090.000000	63.595134
1080.000000	63.533525
1070.000000	63.410629
1060.000000	63.351935
1050.000000	63.290401
1040.000000	63.262181
1030.000000	63.200862
1020.000000	63.221862
1010.000000	63.375095
1000.000000	63.520188
990.000000	63.750236
980.000000	63.962903
970.000000	64.296226
960.000000	64.599534
950.000000	64.772954
940.000000	64.928791
930.000000	65.068624
920.000000	65.153505
910.000000	65.375190
900.000000	65.766201
890.000000	65.956090
880.000000	66.139011
870.000000	66.256068
860.000000	66.354717
850.000000	65.136606
840.000000	65.449042
830.000000	65.321809
820.000000	65.346604
810.000000	65.354355
800.000000	65.465479
790.000000	65.516411
780.000000	65.409172
770.000000	65.719793
760.000000	65.630248
750.000000	65.753931
740.000000	65.735195
730.000000	65.861473
720.000000	65.786160
710.000000	65.970271
700.000000	65.988229
690.000000	65.993578
680.000000	65.918327
670.000000	65.935434
660.000000	65.974199
650.000000	65.950720
640.000000	65.958769
630.000000	65.924341
620.000000	65.907647
610.000000	65.800826
600.000000	65.803743
590.000000	65.759419
580.000000	65.661999
570.000000	65.584989
560.000000	65.502292
550.000000	65.328700
540.000000	65.256116
530.000000	65.091978
520.000000	64.873979
510.000000	64.683246
500.000000	64.578059
490.000000	64.153611
480.000000	63.984774
470.000000	63.458668
460.000000	62.684558
450.000000	61.946197
440.000000	60.700308
430.000000	59.041744
420.000000	57.229330
410.000000	55.420160
400.000000	53.529398
390.000000	51.759444
380.000000	49.668706
370.000000	47.796016
360.000000	44.783373
350.000000	42.539676
340.000000	39.865506
330.000000	37.973019
320.000000	37.083318
310.000000	35.079816
300.000000	33.115284
290.000000	27.258969
280.000000	24.407911
270.000000	24.980728
260.000000	25.896458
250.000000	27.526082
