PE UV       SUBTECH     SPECTRUM    ASCII       PEDS        4.00        
   -1
3C-XXX-C068.Sample.Raw.asc
23/09/06
11:20:30.00
23/09/06
11:20:30.00
Administrator

250.000000
1
Lambda 750
750N8071901
PerkinElmer UV WinLab 6.0.4.0738 / 1.61.00 Lambda 900

0
0
3350/servo 860.8/2
0
0
UV/VIS
1
1
1
CommonBeamDepol,150mm sphere / downward view
0
0
0
0
Program
Program
3350/servo 860.8/2
3350/0.2 860.8/0.2
3350/0.2 860.8/0.2
0
1
 
 
 
0
 
860.8
319.2
860.8
Front
100
on
 
 
0
0
0
 
0
 
 
 
0
 
 
0
0
0
0
0
 
 
 
 
0
0


0
0
#HDR
-1
-1
#GR
nm
%R
1.0
0.0
2500.000000
-10.000000
226
8
70.433897
22.479512
#DATA
2500.000000	22.593296
2490.000000	23.218624
2480.000000	22.479512
2470.000000	23.460631
2460.000000	24.274854
2450.000000	24.747811
2440.000000	25.152281
2430.000000	26.224492
2420.000000	26.504834
2410.000000	26.779967
2400.000000	26.567880
2390.000000	26.798530
2380.000000	26.538706
2370.000000	26.545495
2360.000000	26.941751
2350.000000	26.934783
2340.000000	27.015770
2330.000000	26.420114
2320.000000	26.314547
2310.000000	25.300046
2300.000000	25.581895
2290.000000	25.794626
2280.000000	26.250079
2270.000000	27.285877
2260.000000	28.434705
2250.000000	29.558003
2240.000000	29.694542
2230.000000	29.374160
2220.000000	29.018618
2210.000000	28.349781
2200.000000	27.842811
2190.000000	27.909412
2180.000000	28.756353
2170.000000	29.628599
2160.000000	30.561283
2150.000000	30.982545
2140.000000	31.460530
2130.000000	31.602479
2120.000000	31.766571
2110.000000	31.695511
2100.000000	31.315179
2090.000000	30.563631
2080.000000	29.379879
2070.000000	28.273334
2060.000000	27.578412
2050.000000	27.907159
2040.000000	28.321338
2030.000000	28.160375
2020.000000	27.485873
2010.000000	26.689605
2000.000000	25.712804
1990.000000	24.932966
1980.000000	24.094553
1970.000000	23.498932
1960.000000	23.232292
1950.000000	23.643127
1940.000000	25.003418
1930.000000	27.100444
1920.000000	30.480761
1910.000000	35.073458
1900.000000	39.378092
1890.000000	43.455590
1880.000000	46.226254
1870.000000	47.189731
1860.000000	47.463383
1850.000000	47.236388
1840.000000	46.923620
1830.000000	46.449755
1820.000000	46.005144
1810.000000	45.585233
1800.000000	45.215274
1790.000000	44.963468
1780.000000	44.619523
1770.000000	44.230459
1760.000000	43.865419
1750.000000	43.607179
1740.000000	43.948195
1730.000000	44.960350
1720.000000	45.633299
1710.000000	45.897772
1700.000000	46.725336
1690.000000	48.444173
1680.000000	49.991482
1670.000000	50.585209
1660.000000	50.670663
1650.000000	50.261822
1640.000000	49.639410
1630.000000	48.885946
1620.000000	48.054062
1610.000000	47.208114
1600.000000	46.476481
1590.000000	45.849493
1580.000000	45.237128
1570.000000	44.894821
1560.000000	44.343833
1550.000000	43.399398
1540.000000	42.495557
1530.000000	41.937211
1520.000000	41.533517
1510.000000	41.258016
1500.000000	41.129850
1490.000000	41.206363
1480.000000	41.340164
1470.000000	41.720614
1460.000000	42.440987
1450.000000	43.546880
1440.000000	45.173044
1430.000000	47.595008
1420.000000	50.733015
1410.000000	54.087067
1400.000000	56.870792
1390.000000	58.602075
1380.000000	59.639865
1370.000000	60.640051
1360.000000	61.593657
1350.000000	62.514303
1340.000000	63.288662
1330.000000	63.923905
1320.000000	64.374460
1310.000000	64.599193
1300.000000	64.589972
1290.000000	64.600789
1280.000000	64.603102
1270.000000	64.670761
1260.000000	64.607649
1250.000000	64.331804
1240.000000	64.095138
1230.000000	63.791106
1220.000000	63.246750
1210.000000	62.778423
1200.000000	62.644408
1190.000000	63.061599
1180.000000	64.012587
1170.000000	65.210410
1160.000000	66.210591
1150.000000	67.019746
1140.000000	67.612406
1130.000000	67.844833
1120.000000	67.957298
1110.000000	68.044814
1100.000000	68.071188
1090.000000	68.036005
1080.000000	67.946815
1070.000000	67.870641
1060.000000	67.769657
1050.000000	67.717070
1040.000000	67.669677
1030.000000	67.597755
1020.000000	67.649457
1010.000000	67.798445
1000.000000	67.886863
990.000000	68.050363
980.000000	68.307701
970.000000	68.570648
960.000000	68.861021
950.000000	69.015093
940.000000	69.125423
930.000000	69.185571
920.000000	69.367777
910.000000	69.509178
900.000000	69.717120
890.000000	69.926302
880.000000	70.151076
870.000000	70.433897
860.000000	70.387679
850.000000	69.359773
840.000000	69.766857
830.000000	69.599623
820.000000	69.464853
810.000000	69.422366
800.000000	69.627895
790.000000	69.503184
780.000000	69.524594
770.000000	69.637341
760.000000	69.772991
750.000000	69.821810
740.000000	69.837446
730.000000	69.831984
720.000000	69.891504
710.000000	69.809476
700.000000	69.848086
690.000000	69.888238
680.000000	69.735211
670.000000	69.699567
660.000000	69.716166
650.000000	69.618401
640.000000	69.621693
630.000000	69.651804
620.000000	69.554781
610.000000	69.451003
600.000000	69.448081
590.000000	69.383073
580.000000	69.217073
570.000000	69.199306
560.000000	69.096309
550.000000	68.946468
540.000000	68.883172
530.000000	68.743045
520.000000	68.491314
510.000000	68.171128
500.000000	68.084535
490.000000	67.776359
480.000000	67.604418
470.000000	67.045223
460.000000	66.284449
450.000000	65.600999
440.000000	64.581781
430.000000	62.994293
420.000000	61.400430
410.000000	59.788094
400.000000	58.491871
390.000000	56.865727
380.000000	55.293254
370.000000	53.482603
360.000000	51.213775
350.000000	48.806999
340.000000	46.681626
330.000000	45.097405
320.000000	43.563855
310.000000	43.122483
300.000000	36.309911
290.000000	29.324744
280.000000	25.560657
270.000000	25.815636
260.000000	26.674687
250.000000	27.714327
