PE UV       SUBTECH     SPECTRUM    ASCII       PEDS        4.00        
   -1
3C-XXX-C059.Sample.Raw.asc
23/09/06
10:49:54.00
23/09/06
10:49:54.00
Administrator

250.000000
1
Lambda 750
750N8071901
PerkinElmer UV WinLab 6.0.4.0738 / 1.61.00 Lambda 900

0
0
3350/servo 860.8/2
0
0
UV/VIS
1
1
1
CommonBeamDepol,150mm sphere / downward view
0
0
0
0
Program
Program
3350/servo 860.8/2
3350/0.2 860.8/0.2
3350/0.2 860.8/0.2
0
1
 
 
 
0
 
860.8
319.2
860.8
Front
100
on
 
 
0
0
0
 
0
 
 
 
0
 
 
0
0
0
0
0
 
 
 
 
0
0


0
0
#HDR
-1
-1
#GR
nm
%R
1.0
0.0
2500.000000
-10.000000
226
8
70.606344
20.820417
#DATA
2500.000000	20.820417
2490.000000	21.360824
2480.000000	21.196011
2470.000000	21.758889
2460.000000	22.262125
2450.000000	22.236316
2440.000000	23.682158
2430.000000	23.570936
2420.000000	23.776248
2410.000000	24.312078
2400.000000	24.415270
2390.000000	24.233864
2380.000000	24.448332
2370.000000	24.612908
2360.000000	24.958192
2350.000000	25.046676
2340.000000	24.924519
2330.000000	24.255114
2320.000000	24.327055
2310.000000	23.625732
2300.000000	23.499102
2290.000000	23.893544
2280.000000	23.932385
2270.000000	24.988889
2260.000000	26.368825
2250.000000	27.338022
2240.000000	27.742145
2230.000000	27.491170
2220.000000	26.555441
2210.000000	26.160474
2200.000000	25.987630
2190.000000	25.967343
2180.000000	26.740661
2170.000000	27.613775
2160.000000	28.247862
2150.000000	28.850742
2140.000000	29.373072
2130.000000	29.471244
2120.000000	29.523896
2110.000000	29.364543
2100.000000	29.191961
2090.000000	28.499942
2080.000000	27.327598
2070.000000	26.123406
2060.000000	25.449425
2050.000000	25.680401
2040.000000	26.163270
2030.000000	25.968410
2020.000000	25.398871
2010.000000	24.621479
2000.000000	23.734058
1990.000000	22.995109
1980.000000	22.179922
1970.000000	21.650868
1960.000000	21.293907
1950.000000	21.797631
1940.000000	22.902940
1930.000000	24.885594
1920.000000	28.323977
1910.000000	33.002715
1900.000000	37.484885
1890.000000	41.791300
1880.000000	44.553354
1870.000000	45.705606
1860.000000	45.975890
1850.000000	45.649875
1840.000000	45.307526
1830.000000	44.872873
1820.000000	44.431666
1810.000000	43.978450
1800.000000	43.653502
1790.000000	43.367618
1780.000000	42.940800
1770.000000	42.579068
1760.000000	42.190877
1750.000000	41.873635
1740.000000	42.241016
1730.000000	43.297443
1720.000000	44.051828
1710.000000	44.287825
1700.000000	45.192469
1690.000000	47.050089
1680.000000	48.655381
1670.000000	49.335172
1660.000000	49.391204
1650.000000	48.917936
1640.000000	48.261433
1630.000000	47.481339
1620.000000	46.572821
1610.000000	45.719026
1600.000000	44.962003
1590.000000	44.271160
1580.000000	43.627278
1570.000000	43.227993
1560.000000	42.615364
1550.000000	41.611335
1540.000000	40.679218
1530.000000	40.107410
1520.000000	39.697172
1510.000000	39.408938
1500.000000	39.286616
1490.000000	39.318091
1480.000000	39.447172
1470.000000	39.871747
1460.000000	40.605840
1450.000000	41.789891
1440.000000	43.533848
1430.000000	46.151993
1420.000000	49.503842
1410.000000	53.068101
1400.000000	56.032893
1390.000000	57.900095
1380.000000	59.020652
1370.000000	60.034111
1360.000000	61.098721
1350.000000	62.140277
1340.000000	62.952159
1330.000000	63.630149
1320.000000	64.126195
1310.000000	64.359719
1300.000000	64.364622
1290.000000	64.347718
1280.000000	64.378507
1270.000000	64.449091
1260.000000	64.406960
1250.000000	64.144837
1240.000000	63.870354
1230.000000	63.507125
1220.000000	62.910394
1210.000000	62.418904
1200.000000	62.271990
1190.000000	62.744229
1180.000000	63.771476
1170.000000	65.057403
1160.000000	66.144804
1150.000000	67.046596
1140.000000	67.651890
1130.000000	67.928142
1120.000000	68.077753
1110.000000	68.163198
1100.000000	68.198480
1090.000000	68.146236
1080.000000	68.067916
1070.000000	67.976169
1060.000000	67.885047
1050.000000	67.839154
1040.000000	67.796664
1030.000000	67.743647
1020.000000	67.780246
1010.000000	67.949869
1000.000000	68.041634
990.000000	68.235232
980.000000	68.540365
970.000000	68.805846
960.000000	69.138698
950.000000	69.298149
940.000000	69.418799
930.000000	69.523791
920.000000	69.700290
910.000000	69.834802
900.000000	70.146452
890.000000	70.231876
880.000000	70.437619
870.000000	70.597087
860.000000	70.606344
850.000000	69.648739
840.000000	69.811307
830.000000	70.054273
820.000000	69.795769
810.000000	69.831211
800.000000	70.017034
790.000000	69.823020
780.000000	70.104470
770.000000	70.094673
760.000000	70.154323
750.000000	70.213149
740.000000	70.131926
730.000000	70.258284
720.000000	70.279156
710.000000	70.226387
700.000000	70.300620
690.000000	70.335100
680.000000	70.235202
670.000000	70.203555
660.000000	70.262922
650.000000	70.220094
640.000000	70.075699
630.000000	70.130989
620.000000	70.088692
610.000000	69.938748
600.000000	69.846567
590.000000	69.903024
580.000000	69.709144
570.000000	69.706037
560.000000	69.604914
550.000000	69.442638
540.000000	69.378442
530.000000	69.201399
520.000000	68.947094
510.000000	68.630143
500.000000	68.521692
490.000000	68.085044
480.000000	67.890757
470.000000	67.361638
460.000000	66.622375
450.000000	65.831692
440.000000	64.653622
430.000000	62.969328
420.000000	61.228917
410.000000	59.518413
400.000000	57.985818
390.000000	56.352936
380.000000	54.599368
370.000000	52.737255
360.000000	50.267983
350.000000	47.835330
340.000000	45.686150
330.000000	43.217033
320.000000	42.474817
310.000000	41.273144
300.000000	36.380988
290.000000	29.513884
280.000000	25.500128
270.000000	25.743135
260.000000	26.682595
250.000000	27.886282
