PE UV       SUBTECH     SPECTRUM    ASCII       PEDS        4.00        
   -1
3C-XXX-C031.Sample.Raw.asc
23/09/06
09:14:22.00
23/09/06
09:14:22.00
Administrator

250.000000
1
Lambda 750
750N8071901
PerkinElmer UV WinLab 6.0.4.0738 / 1.61.00 Lambda 900

0
0
3350/servo 860.8/2
0
0
UV/VIS
1
1
1
CommonBeamDepol,150mm sphere / downward view
0
0
0
0
Program
Program
3350/servo 860.8/2
3350/0.2 860.8/0.2
3350/0.2 860.8/0.2
0
1
 
 
 
0
 
860.8
319.2
860.8
Front
100
on
 
 
0
0
0
 
0
 
 
 
0
 
 
0
0
0
0
0
 
 
 
 
0
0


0
0
#HDR
-1
-1
#GR
nm
%R
1.0
0.0
2500.000000
-10.000000
226
8
63.644830
16.636551
#DATA
2500.000000	16.636551
2490.000000	17.392746
2480.000000	16.955558
2470.000000	17.485934
2460.000000	18.792281
2450.000000	19.037480
2440.000000	19.347853
2430.000000	19.972315
2420.000000	19.753496
2410.000000	20.806749
2400.000000	19.660050
2390.000000	20.171305
2380.000000	20.309177
2370.000000	19.944927
2360.000000	20.665412
2350.000000	20.753626
2340.000000	20.827312
2330.000000	20.358583
2320.000000	19.807688
2310.000000	19.690340
2300.000000	19.294917
2290.000000	19.727554
2280.000000	20.057736
2270.000000	20.685845
2260.000000	21.954070
2250.000000	22.652392
2240.000000	23.219726
2230.000000	23.152132
2220.000000	22.453608
2210.000000	21.847122
2200.000000	21.572193
2190.000000	21.682447
2180.000000	22.181481
2170.000000	23.073669
2160.000000	23.675663
2150.000000	24.105565
2140.000000	24.563023
2130.000000	24.620309
2120.000000	24.828393
2110.000000	24.671306
2100.000000	24.489465
2090.000000	23.627782
2080.000000	22.655396
2070.000000	21.729915
2060.000000	21.061481
2050.000000	21.265162
2040.000000	21.620710
2030.000000	21.527294
2020.000000	21.013707
2010.000000	20.278821
2000.000000	19.435788
1990.000000	18.815411
1980.000000	18.032625
1970.000000	17.689287
1960.000000	17.458457
1950.000000	17.764671
1940.000000	18.932161
1930.000000	20.624764
1920.000000	23.796199
1910.000000	28.058685
1900.000000	32.213729
1890.000000	36.297017
1880.000000	38.923172
1870.000000	39.950018
1860.000000	40.262088
1850.000000	39.915657
1840.000000	39.601006
1830.000000	39.160519
1820.000000	38.697568
1810.000000	38.248720
1800.000000	37.963805
1790.000000	37.677127
1780.000000	37.263946
1770.000000	36.910733
1760.000000	36.533136
1750.000000	36.290443
1740.000000	36.560929
1730.000000	37.545280
1720.000000	38.261414
1710.000000	38.487668
1700.000000	39.332119
1690.000000	41.133950
1680.000000	42.709945
1670.000000	43.309570
1660.000000	43.375024
1650.000000	42.924785
1640.000000	42.254454
1630.000000	41.515223
1620.000000	40.636037
1610.000000	39.806598
1600.000000	39.053347
1590.000000	38.387997
1580.000000	37.798388
1570.000000	37.387203
1560.000000	36.803807
1550.000000	35.848601
1540.000000	34.945334
1530.000000	34.408419
1520.000000	34.022760
1510.000000	33.724939
1500.000000	33.566695
1490.000000	33.603974
1480.000000	33.743538
1470.000000	34.108403
1460.000000	34.825954
1450.000000	35.953497
1440.000000	37.618144
1430.000000	40.098241
1420.000000	43.327745
1410.000000	46.797130
1400.000000	49.683625
1390.000000	51.487783
1380.000000	52.572992
1370.000000	53.562192
1360.000000	54.586731
1350.000000	55.602858
1340.000000	56.390412
1330.000000	56.984098
1320.000000	57.414004
1310.000000	57.612094
1300.000000	57.580960
1290.000000	57.564074
1280.000000	57.563621
1270.000000	57.620935
1260.000000	57.559424
1250.000000	57.300146
1240.000000	57.003043
1230.000000	56.649753
1220.000000	56.044500
1210.000000	55.559269
1200.000000	55.373166
1190.000000	55.799632
1180.000000	56.826267
1170.000000	58.107166
1160.000000	59.146905
1150.000000	60.057321
1140.000000	60.658608
1130.000000	60.900899
1120.000000	61.044971
1110.000000	61.113114
1100.000000	61.115231
1090.000000	61.090631
1080.000000	61.024724
1070.000000	60.898132
1060.000000	60.825604
1050.000000	60.802645
1040.000000	60.761918
1030.000000	60.712496
1020.000000	60.774355
1010.000000	60.875426
1000.000000	61.004707
990.000000	61.185291
980.000000	61.441149
970.000000	61.701381
960.000000	62.015217
950.000000	62.159516
940.000000	62.262010
930.000000	62.308075
920.000000	62.454583
910.000000	62.628871
900.000000	62.917730
890.000000	63.023761
880.000000	63.157870
870.000000	63.644830
860.000000	63.530215
850.000000	62.211857
840.000000	62.289637
830.000000	62.190846
820.000000	61.867703
810.000000	61.948667
800.000000	62.121092
790.000000	62.017177
780.000000	61.996232
770.000000	62.073607
760.000000	62.150644
750.000000	62.159104
740.000000	62.138273
730.000000	62.147764
720.000000	62.154603
710.000000	62.141280
700.000000	62.126090
690.000000	62.259949
680.000000	62.003801
670.000000	61.994969
660.000000	61.987827
650.000000	61.804399
640.000000	61.818756
630.000000	61.813988
620.000000	61.722764
610.000000	61.577124
600.000000	61.492278
590.000000	61.396065
580.000000	61.197797
570.000000	61.209399
560.000000	61.022238
550.000000	60.924417
540.000000	60.704730
530.000000	60.515879
520.000000	60.361664
510.000000	60.110805
500.000000	59.859751
490.000000	59.469441
480.000000	59.262618
470.000000	58.740003
460.000000	57.979499
450.000000	57.197400
440.000000	56.124805
430.000000	54.592194
420.000000	52.830493
410.000000	51.188651
400.000000	49.554533
390.000000	47.751059
380.000000	45.939452
370.000000	43.840616
360.000000	41.054056
350.000000	39.193836
340.000000	36.479570
330.000000	34.642537
320.000000	33.783671
310.000000	32.842734
300.000000	29.728019
290.000000	24.138195
280.000000	21.535749
270.000000	22.079852
260.000000	22.952570
250.000000	24.210486
