PE UV       SUBTECH     SPECTRUM    ASCII       PEDS        4.00        
   -1
3C-XXX-C073.Sample.Raw.asc
23/09/06
11:38:00.00
23/09/06
11:38:00.00
Administrator

250.000000
1
Lambda 750
750N8071901
PerkinElmer UV WinLab 6.0.4.0738 / 1.61.00 Lambda 900

0
0
3350/servo 860.8/2
0
0
UV/VIS
1
1
1
CommonBeamDepol,150mm sphere / downward view
0
0
0
0
Program
Program
3350/servo 860.8/2
3350/0.2 860.8/0.2
3350/0.2 860.8/0.2
0
1
 
 
 
0
 
860.8
319.2
860.8
Front
100
on
 
 
0
0
0
 
0
 
 
 
0
 
 
0
0
0
0
0
 
 
 
 
0
0


0
0
#HDR
-1
-1
#GR
nm
%R
1.0
0.0
2500.000000
-10.000000
226
8
70.179631
22.005590
#DATA
2500.000000	22.005590
2490.000000	22.749607
2480.000000	22.523882
2470.000000	22.947876
2460.000000	24.278594
2450.000000	24.911053
2440.000000	25.403444
2430.000000	25.311199
2420.000000	25.832514
2410.000000	26.220719
2400.000000	25.916973
2390.000000	25.873252
2380.000000	26.228548
2370.000000	25.987582
2360.000000	26.730379
2350.000000	26.860613
2340.000000	26.819322
2330.000000	26.053238
2320.000000	26.184888
2310.000000	25.469356
2300.000000	25.115151
2290.000000	25.632563
2280.000000	26.012367
2270.000000	27.022977
2260.000000	28.256417
2250.000000	28.995180
2240.000000	29.418411
2230.000000	29.069650
2220.000000	28.596586
2210.000000	28.023779
2200.000000	27.780401
2190.000000	27.708371
2180.000000	28.498417
2170.000000	29.324280
2160.000000	30.139353
2150.000000	30.603171
2140.000000	31.315734
2130.000000	31.520504
2120.000000	31.503398
2110.000000	31.427006
2100.000000	31.094851
2090.000000	30.358093
2080.000000	29.165453
2070.000000	28.077942
2060.000000	27.321729
2050.000000	27.728908
2040.000000	28.094104
2030.000000	27.908536
2020.000000	27.378464
2010.000000	26.516448
2000.000000	25.544606
1990.000000	24.649553
1980.000000	23.782835
1970.000000	23.215620
1960.000000	22.953583
1950.000000	23.380935
1940.000000	24.788456
1930.000000	26.833711
1920.000000	30.343773
1910.000000	35.002889
1900.000000	39.136759
1890.000000	43.229172
1880.000000	46.016644
1870.000000	46.971379
1860.000000	47.300021
1850.000000	47.042712
1840.000000	46.747136
1830.000000	46.233900
1820.000000	45.781623
1810.000000	45.326527
1800.000000	45.025712
1790.000000	44.724274
1780.000000	44.336329
1770.000000	43.984089
1760.000000	43.602627
1750.000000	43.380447
1740.000000	43.647217
1730.000000	44.710300
1720.000000	45.387794
1710.000000	45.659814
1700.000000	46.449826
1690.000000	48.154750
1680.000000	49.750437
1670.000000	50.345131
1660.000000	50.457658
1650.000000	50.046522
1640.000000	49.405138
1630.000000	48.704102
1620.000000	47.864985
1610.000000	47.027532
1600.000000	46.285119
1590.000000	45.657468
1580.000000	45.055578
1570.000000	44.689007
1560.000000	44.163140
1550.000000	43.224078
1540.000000	42.322213
1530.000000	41.752969
1520.000000	41.365596
1510.000000	41.077189
1500.000000	40.947879
1490.000000	41.035952
1480.000000	41.206282
1470.000000	41.570351
1460.000000	42.261481
1450.000000	43.363555
1440.000000	44.962299
1430.000000	47.354895
1420.000000	50.493512
1410.000000	53.844524
1400.000000	56.629212
1390.000000	58.369809
1380.000000	59.393457
1370.000000	60.377460
1360.000000	61.338580
1350.000000	62.269167
1340.000000	63.037322
1330.000000	63.664834
1320.000000	64.064863
1310.000000	64.312292
1300.000000	64.289097
1290.000000	64.290086
1280.000000	64.322002
1270.000000	64.370604
1260.000000	64.338543
1250.000000	64.054091
1240.000000	63.822353
1230.000000	63.534470
1220.000000	63.004937
1210.000000	62.525821
1200.000000	62.387031
1190.000000	62.793935
1180.000000	63.723738
1170.000000	64.895022
1160.000000	65.901201
1150.000000	66.696434
1140.000000	67.297338
1130.000000	67.525148
1120.000000	67.658866
1110.000000	67.739839
1100.000000	67.779175
1090.000000	67.764820
1080.000000	67.685975
1070.000000	67.597720
1060.000000	67.530436
1050.000000	67.472803
1040.000000	67.449601
1030.000000	67.405796
1020.000000	67.439091
1010.000000	67.600512
1000.000000	67.689357
990.000000	67.872631
980.000000	68.124692
970.000000	68.405261
960.000000	68.661420
950.000000	68.830609
940.000000	68.986480
930.000000	69.050647
920.000000	69.146547
910.000000	69.320269
900.000000	69.628859
890.000000	69.753911
880.000000	69.963335
870.000000	70.179631
860.000000	70.153873
850.000000	68.900387
840.000000	69.350463
830.000000	69.408059
820.000000	69.099864
810.000000	69.245986
800.000000	69.436198
790.000000	69.304052
780.000000	69.253215
770.000000	69.496463
760.000000	69.520019
750.000000	69.563793
740.000000	69.680617
730.000000	69.510826
720.000000	69.614119
710.000000	69.648567
700.000000	69.616689
690.000000	69.815912
680.000000	69.567986
670.000000	69.632337
660.000000	69.531941
650.000000	69.526210
640.000000	69.488018
630.000000	69.580649
620.000000	69.526586
610.000000	69.422507
600.000000	69.325615
590.000000	69.277052
580.000000	69.144716
570.000000	69.173618
560.000000	69.024985
550.000000	69.008442
540.000000	68.880882
530.000000	68.635495
520.000000	68.471643
510.000000	68.223456
500.000000	68.115386
490.000000	67.831175
480.000000	67.727641
470.000000	67.151587
460.000000	66.466078
450.000000	65.871387
440.000000	64.696170
430.000000	63.329629
420.000000	61.816934
410.000000	60.210355
400.000000	58.818898
390.000000	57.265207
380.000000	55.822574
370.000000	54.028805
360.000000	51.916176
350.000000	49.309918
340.000000	47.314980
330.000000	44.821617
320.000000	44.348501
310.000000	43.907790
300.000000	37.148763
290.000000	29.900449
280.000000	25.583464
270.000000	25.736304
260.000000	26.515175
250.000000	27.781634
