PE UV       SUBTECH     SPECTRUM    ASCII       PEDS        4.00        
   -1
017-4C-XXX-NR006-F001.Sample.asc
24/01/17
15:55:08.00
24/01/17
15:55:08.00
Administrator

250.000000
1
Lambda 750
750N8071901
PerkinElmer UV WinLab 6.0.4.0738 / 1.61.00 Lambda 900

0
0
3350/servo 860.8/2
0
0
UV/VIS
1
1
1
CommonBeamDepol,150mm sphere / downward view
0
0
0
0
Program
Program
3350/servo 860.8/2
3350/0.2 860.8/0.2
3350/0.2 860.8/0.2
0
1
 
 
 
0
 
860.8
319.2
860.8
Front
100
on
 
 
0
0
0
 
0
 
 
 
0
 
 
0
0
0
0
0
 
 
 
 
0
0


0
0
#HDR
-1
-1
#GR
nm
%R
1.0
0.0
2500.000000
-10.000000
226
8
61.531554
3.630861
#DATA
2500.000000	8.422551
2490.000000	3.630861
2480.000000	7.077870
2470.000000	9.163146
2460.000000	6.703856
2450.000000	6.872075
2440.000000	6.994604
2430.000000	8.362785
2420.000000	10.255653
2410.000000	10.003561
2400.000000	8.541612
2390.000000	7.376592
2380.000000	8.550273
2370.000000	8.271799
2360.000000	9.731131
2350.000000	9.736341
2340.000000	8.148704
2330.000000	8.744785
2320.000000	6.827715
2310.000000	6.177984
2300.000000	7.599538
2290.000000	7.879521
2280.000000	8.277739
2270.000000	9.993048
2260.000000	12.172589
2250.000000	11.884327
2240.000000	11.956397
2230.000000	12.089470
2220.000000	10.992083
2210.000000	10.280244
2200.000000	10.185869
2190.000000	9.974191
2180.000000	10.632708
2170.000000	12.011256
2160.000000	13.114437
2150.000000	13.835147
2140.000000	14.294922
2130.000000	15.683449
2120.000000	15.176112
2110.000000	15.212288
2100.000000	14.699048
2090.000000	14.296506
2080.000000	13.210529
2070.000000	12.203732
2060.000000	11.482050
2050.000000	11.581456
2040.000000	12.525463
2030.000000	12.608045
2020.000000	11.844620
2010.000000	11.292023
2000.000000	10.396130
1990.000000	9.216807
1980.000000	8.460990
1970.000000	8.270257
1960.000000	7.825651
1950.000000	8.556884
1940.000000	10.083585
1930.000000	12.923353
1920.000000	17.350608
1910.000000	23.311692
1900.000000	28.952137
1890.000000	33.152152
1880.000000	35.669649
1870.000000	36.567393
1860.000000	36.523281
1850.000000	36.193476
1840.000000	35.902012
1830.000000	35.292023
1820.000000	34.684305
1810.000000	34.313386
1800.000000	33.754326
1790.000000	33.172969
1780.000000	32.495368
1770.000000	31.711741
1760.000000	30.996578
1750.000000	30.465972
1740.000000	30.879625
1730.000000	32.277668
1720.000000	33.124938
1710.000000	33.437172
1700.000000	34.786709
1690.000000	37.419013
1680.000000	39.771955
1670.000000	40.712964
1660.000000	40.771392
1650.000000	40.219191
1640.000000	39.607867
1630.000000	38.730237
1620.000000	37.627512
1610.000000	36.464200
1600.000000	35.708437
1590.000000	34.884904
1580.000000	34.252932
1570.000000	33.850820
1560.000000	33.280933
1550.000000	32.046264
1540.000000	30.875655
1530.000000	30.144240
1520.000000	29.759054
1510.000000	29.727611
1500.000000	29.959671
1490.000000	30.509716
1480.000000	31.193133
1470.000000	31.943599
1460.000000	33.007548
1450.000000	34.464825
1440.000000	36.582387
1430.000000	39.245861
1420.000000	42.626202
1410.000000	45.930642
1400.000000	48.663358
1390.000000	50.385700
1380.000000	51.456746
1370.000000	52.466615
1360.000000	53.656128
1350.000000	54.800925
1340.000000	55.881501
1330.000000	56.659000
1320.000000	56.905052
1310.000000	56.837583
1300.000000	56.625521
1290.000000	56.369849
1280.000000	56.427245
1270.000000	56.635626
1260.000000	56.667454
1250.000000	56.492864
1240.000000	56.088876
1230.000000	55.551243
1220.000000	54.977924
1210.000000	54.307846
1200.000000	54.181739
1190.000000	54.743327
1180.000000	55.896505
1170.000000	57.249132
1160.000000	58.259643
1150.000000	59.031436
1140.000000	59.697807
1130.000000	59.896529
1120.000000	60.028208
1110.000000	60.176819
1100.000000	60.204314
1090.000000	60.077320
1080.000000	59.983455
1070.000000	59.839970
1060.000000	59.776872
1050.000000	59.702682
1040.000000	59.623923
1030.000000	59.622706
1020.000000	59.701723
1010.000000	59.925489
1000.000000	60.083528
990.000000	60.215262
980.000000	60.313461
970.000000	60.554104
960.000000	60.725586
950.000000	60.855718
940.000000	60.847128
930.000000	60.838871
920.000000	60.917824
910.000000	61.110366
900.000000	61.047599
890.000000	61.278550
880.000000	61.036171
870.000000	61.194959
860.000000	61.531554
850.000000	60.739382
840.000000	61.189154
830.000000	61.029265
820.000000	60.919040
810.000000	60.607197
800.000000	60.817175
790.000000	60.630219
780.000000	60.603308
770.000000	60.524898
760.000000	60.422791
750.000000	60.190965
740.000000	60.230982
730.000000	60.033614
720.000000	59.976428
710.000000	59.675908
700.000000	59.340542
690.000000	59.023373
680.000000	58.720382
670.000000	58.246038
660.000000	57.656365
650.000000	57.185588
640.000000	56.473741
630.000000	55.772460
620.000000	55.039757
610.000000	54.472067
600.000000	53.958809
590.000000	53.420106
580.000000	52.810411
570.000000	52.169136
560.000000	51.498864
550.000000	50.871866
540.000000	50.058298
530.000000	49.253645
520.000000	48.342658
510.000000	47.214450
500.000000	46.062605
490.000000	44.479325
480.000000	42.838613
470.000000	40.889546
460.000000	38.682478
450.000000	36.079988
440.000000	33.210759
430.000000	29.951672
420.000000	26.708608
410.000000	24.081486
400.000000	22.991971
390.000000	22.225826
380.000000	20.974252
370.000000	19.491612
360.000000	17.970640
350.000000	16.260074
340.000000	15.205689
330.000000	13.291176
320.000000	11.848255
310.000000	11.829518
300.000000	10.238265
290.000000	7.566063
280.000000	6.884055
270.000000	7.433666
260.000000	8.084689
250.000000	8.253035
