PE UV       SUBTECH     SPECTRUM    ASCII       PEDS        4.00        
   -1
017-2C-XXX-NR006-F001.Sample.asc
24/01/17
15:42:46.00
24/01/17
15:42:46.00
Administrator

250.000000
1
Lambda 750
750N8071901
PerkinElmer UV WinLab 6.0.4.0738 / 1.61.00 Lambda 900

0
0
3350/servo 860.8/2
0
0
UV/VIS
1
1
1
CommonBeamDepol,150mm sphere / downward view
0
0
0
0
Program
Program
3350/servo 860.8/2
3350/0.2 860.8/0.2
3350/0.2 860.8/0.2
0
1
 
 
 
0
 
860.8
319.2
860.8
Front
100
on
 
 
0
0
0
 
0
 
 
 
0
 
 
0
0
0
0
0
 
 
 
 
0
0


0
0
#HDR
-1
-1
#GR
nm
%R
1.0
0.0
2500.000000
-10.000000
226
8
46.722740
1.813365
#DATA
2500.000000	2.614557
2490.000000	2.072235
2480.000000	2.451631
2470.000000	3.960278
2460.000000	1.813437
2450.000000	2.060472
2440.000000	1.813365
2430.000000	5.485650
2420.000000	5.933606
2410.000000	3.821094
2400.000000	3.267636
2390.000000	6.781933
2380.000000	3.048260
2370.000000	5.867435
2360.000000	4.354028
2350.000000	5.965431
2340.000000	3.586870
2330.000000	4.850199
2320.000000	2.453037
2310.000000	3.422750
2300.000000	4.550429
2290.000000	3.419564
2280.000000	3.687687
2270.000000	4.889525
2260.000000	6.934556
2250.000000	7.343813
2240.000000	7.444719
2230.000000	6.911352
2220.000000	5.720317
2210.000000	6.473492
2200.000000	6.159877
2190.000000	5.307581
2180.000000	5.584791
2170.000000	7.387402
2160.000000	7.967076
2150.000000	7.892912
2140.000000	8.887812
2130.000000	9.765115
2120.000000	9.511677
2110.000000	9.320325
2100.000000	9.538327
2090.000000	8.902860
2080.000000	7.877600
2070.000000	6.996540
2060.000000	6.402442
2050.000000	7.034908
2040.000000	7.655864
2030.000000	7.788722
2020.000000	7.118840
2010.000000	6.708264
2000.000000	6.185466
1990.000000	5.157364
1980.000000	4.747768
1970.000000	4.424861
1960.000000	3.975508
1950.000000	4.750331
1940.000000	5.721282
1930.000000	7.870125
1920.000000	11.566350
1910.000000	15.880963
1900.000000	20.646761
1890.000000	24.066383
1880.000000	26.161310
1870.000000	26.768225
1860.000000	26.747252
1850.000000	26.287562
1840.000000	26.083299
1830.000000	25.722878
1820.000000	25.107737
1810.000000	24.813854
1800.000000	24.601802
1790.000000	24.120857
1780.000000	23.510786
1770.000000	22.898833
1760.000000	22.301855
1750.000000	21.947378
1740.000000	22.298890
1730.000000	23.211925
1720.000000	23.954533
1710.000000	24.148664
1700.000000	25.327922
1690.000000	27.487693
1680.000000	29.223179
1670.000000	30.012850
1660.000000	29.936144
1650.000000	29.689767
1640.000000	29.192451
1630.000000	28.535617
1620.000000	27.681450
1610.000000	26.742460
1600.000000	26.214395
1590.000000	25.600519
1580.000000	25.066458
1570.000000	24.846878
1560.000000	24.333374
1550.000000	23.359617
1540.000000	22.481305
1530.000000	21.867381
1520.000000	21.569845
1510.000000	21.549491
1500.000000	21.817855
1490.000000	22.322488
1480.000000	22.809818
1470.000000	23.499042
1460.000000	24.313386
1450.000000	25.471685
1440.000000	27.118001
1430.000000	29.298472
1420.000000	31.857651
1410.000000	34.376533
1400.000000	36.500928
1390.000000	37.880013
1380.000000	38.713955
1370.000000	39.506278
1360.000000	40.327604
1350.000000	41.260897
1340.000000	42.057336
1330.000000	42.835466
1320.000000	43.105677
1310.000000	43.103239
1300.000000	42.852333
1290.000000	42.620072
1280.000000	42.638615
1270.000000	42.842541
1260.000000	42.831708
1250.000000	42.726270
1240.000000	42.432813
1230.000000	42.075409
1220.000000	41.675024
1210.000000	41.096066
1200.000000	41.039245
1190.000000	41.404504
1180.000000	42.369112
1170.000000	43.437260
1160.000000	44.255847
1150.000000	44.799930
1140.000000	45.256523
1130.000000	45.502344
1120.000000	45.778919
1110.000000	45.753215
1100.000000	45.717550
1090.000000	45.624014
1080.000000	45.558458
1070.000000	45.448434
1060.000000	45.465738
1050.000000	45.409427
1040.000000	45.352692
1030.000000	45.247454
1020.000000	45.348256
1010.000000	45.506039
1000.000000	45.683024
990.000000	45.749847
980.000000	45.881669
970.000000	45.997382
960.000000	46.165793
950.000000	46.270265
940.000000	46.374858
930.000000	46.149993
920.000000	46.300562
910.000000	46.383457
900.000000	46.496724
890.000000	46.722740
880.000000	46.633636
870.000000	46.633222
860.000000	46.719188
850.000000	45.647183
840.000000	46.097572
830.000000	46.249115
820.000000	45.844958
810.000000	45.832414
800.000000	45.548842
790.000000	45.656549
780.000000	45.522593
770.000000	45.182781
760.000000	45.121541
750.000000	44.999281
740.000000	44.620748
730.000000	44.300910
720.000000	44.011445
710.000000	43.645969
700.000000	43.026959
690.000000	42.460626
680.000000	41.762060
670.000000	40.973773
660.000000	39.987733
650.000000	38.869429
640.000000	37.509662
630.000000	36.278002
620.000000	34.979678
610.000000	33.984307
600.000000	33.241933
590.000000	32.633187
580.000000	31.997989
570.000000	31.315140
560.000000	30.781369
550.000000	30.352143
540.000000	29.638452
530.000000	28.997593
520.000000	28.287625
510.000000	27.399145
500.000000	26.291238
490.000000	24.920191
480.000000	23.390100
470.000000	21.716254
460.000000	19.748075
450.000000	17.539885
440.000000	15.186175
430.000000	12.715628
420.000000	10.312442
410.000000	8.942011
400.000000	8.886161
390.000000	9.203202
380.000000	9.447509
370.000000	9.115973
360.000000	8.815075
350.000000	8.565562
340.000000	8.233878
330.000000	7.379426
320.000000	7.356945
310.000000	7.529606
300.000000	6.407135
290.000000	5.218907
280.000000	5.175058
270.000000	5.782505
260.000000	6.209792
250.000000	6.409135
