PE UV       SUBTECH     SPECTRUM    ASCII       PEDS        4.00        
   -1
Empty Chamber.Sample.asc
18/03/05
16:38:33.00
18/03/05
16:38:33.00
Administrator

200.000000
1
Lambda 750
750N8071901
PerkinElmer UV WinLab 6.0.4.0738 / 1.61.00 Lambda 900

0
0
3350/servo 860.8/2
0
0
UV/VIS
1
1
1
CommonBeamDepol,150mm sphere / downward view
0
0
0
0
Program
Program
3350/servo 860.8/2
3350/0.2 860.8/0.2
3350/0.2 860.8/0.2
0
1
 
 
 
0
 
860.8
319.2
860.8
Front
100
on
 
 
0
0
0
 
0
 
 
 
0
 
 
0
0
0
0
0
 
 
 
 
0
0


0
0
#HDR
-1
-1
#GR
nm
%T
1.0
0.0
2350.000000
-1.000000
2151
8
101.015564
99.512092
#DATA
2350.000000	99.985914
2349.000000	99.807863
2348.000000	99.517668
2347.000000	100.172078
2346.000000	99.754974
2345.000000	100.514439
2344.000000	100.309178
2343.000000	99.744139
2342.000000	99.864168
2341.000000	100.032624
2340.000000	100.109668
2339.000000	100.125740
2338.000000	100.093363
2337.000000	99.820393
2336.000000	100.206615
2335.000000	100.613940
2334.000000	99.766580
2333.000000	99.668884
2332.000000	100.904014
2331.000000	100.414436
2330.000000	99.807225
2329.000000	100.156114
2328.000000	99.995861
2327.000000	99.990702
2326.000000	100.037985
2325.000000	99.910169
2324.000000	99.924860
2323.000000	100.254681
2322.000000	99.785824
2321.000000	99.693196
2320.000000	100.518623
2319.000000	100.241675
2318.000000	100.224797
2317.000000	100.046107
2316.000000	100.089018
2315.000000	100.088561
2314.000000	100.171515
2313.000000	100.268918
2312.000000	99.849592
2311.000000	100.210404
2310.000000	100.353011
2309.000000	99.976789
2308.000000	100.178099
2307.000000	99.967115
2306.000000	99.726894
2305.000000	100.147887
2304.000000	100.160357
2303.000000	100.197837
2302.000000	100.046779
2301.000000	99.744150
2300.000000	100.434036
2299.000000	100.299405
2298.000000	99.880560
2297.000000	99.967316
2296.000000	99.869526
2295.000000	100.428971
2294.000000	100.283041
2293.000000	100.172241
2292.000000	100.067739
2291.000000	99.792142
2290.000000	100.052196
2289.000000	99.769192
2288.000000	99.779214
2287.000000	99.888459
2286.000000	100.040298
2285.000000	100.113993
2284.000000	100.372497
2283.000000	100.049265
2282.000000	100.035189
2281.000000	100.017535
2280.000000	99.979931
2279.000000	99.950384
2278.000000	99.843553
2277.000000	99.968833
2276.000000	99.850510
2275.000000	100.011635
2274.000000	100.102087
2273.000000	100.129865
2272.000000	100.162519
2271.000000	99.815519
2270.000000	99.907727
2269.000000	99.905726
2268.000000	99.865611
2267.000000	100.002936
2266.000000	100.182897
2265.000000	100.049065
2264.000000	100.037905
2263.000000	100.030615
2262.000000	99.900464
2261.000000	100.014776
2260.000000	99.921107
2259.000000	99.780224
2258.000000	100.014360
2257.000000	100.039079
2256.000000	99.874982
2255.000000	99.899389
2254.000000	99.849762
2253.000000	99.767292
2252.000000	99.836175
2251.000000	99.906407
2250.000000	99.936534
2249.000000	100.092452
2248.000000	99.997063
2247.000000	99.933226
2246.000000	99.969132
2245.000000	99.752856
2244.000000	99.917479
2243.000000	100.168680
2242.000000	100.121740
2241.000000	99.786033
2240.000000	99.706054
2239.000000	99.793810
2238.000000	99.823107
2237.000000	100.052699
2236.000000	100.273141
2235.000000	100.285454
2234.000000	100.262362
2233.000000	100.109560
2232.000000	99.837239
2231.000000	99.805003
2230.000000	99.970250
2229.000000	99.956913
2228.000000	100.038883
2227.000000	99.921003
2226.000000	99.832984
2225.000000	99.911503
2224.000000	99.870528
2223.000000	99.828595
2222.000000	99.912174
2221.000000	100.002936
2220.000000	100.082938
2219.000000	100.169230
2218.000000	99.905173
2217.000000	99.849304
2216.000000	99.951849
2215.000000	100.014273
2214.000000	100.094772
2213.000000	100.280047
2212.000000	100.253923
2211.000000	100.098813
2210.000000	99.972250
2209.000000	99.823253
2208.000000	100.156822
2207.000000	100.175666
2206.000000	100.030990
2205.000000	99.951527
2204.000000	100.190345
2203.000000	99.852566
2202.000000	99.722549
2201.000000	99.958114
2200.000000	100.048261
2199.000000	100.018706
2198.000000	100.092664
2197.000000	100.063086
2196.000000	100.122106
2195.000000	100.145718
2194.000000	100.039682
2193.000000	99.916586
2192.000000	99.922870
2191.000000	100.197982
2190.000000	99.892369
2189.000000	99.793507
2188.000000	99.759336
2187.000000	99.862764
2186.000000	100.043694
2185.000000	100.032718
2184.000000	100.106042
2183.000000	100.071914
2182.000000	99.897130
2181.000000	100.061256
2180.000000	99.949494
2179.000000	99.870477
2178.000000	99.894087
2177.000000	99.984044
2176.000000	100.062686
2175.000000	99.997476
2174.000000	100.179880
2173.000000	99.995555
2172.000000	99.952135
2171.000000	99.974598
2170.000000	99.988007
2169.000000	100.217320
2168.000000	100.087268
2167.000000	99.972185
2166.000000	99.896620
2165.000000	100.090884
2164.000000	100.109654
2163.000000	100.065389
2162.000000	100.190642
2161.000000	100.147922
2160.000000	100.026598
2159.000000	99.883702
2158.000000	99.921343
2157.000000	99.831171
2156.000000	99.981573
2155.000000	99.798756
2154.000000	100.062294
2153.000000	100.072108
2152.000000	100.054606
2151.000000	99.942311
2150.000000	100.100561
2149.000000	100.065755
2148.000000	99.988317
2147.000000	100.289602
2146.000000	100.163046
2145.000000	99.937185
2144.000000	100.050314
2143.000000	100.103810
2142.000000	99.926545
2141.000000	99.902662
2140.000000	100.134679
2139.000000	100.076529
2138.000000	100.116368
2137.000000	99.841726
2136.000000	99.978557
2135.000000	99.955631
2134.000000	99.922566
2133.000000	99.801416
2132.000000	99.780791
2131.000000	99.858807
2130.000000	100.214959
2129.000000	100.026613
2128.000000	99.924350
2127.000000	99.984980
2126.000000	99.858085
2125.000000	100.098748
2124.000000	99.939242
2123.000000	100.101297
2122.000000	99.775169
2121.000000	100.010086
2120.000000	100.195673
2119.000000	100.079927
2118.000000	99.917244
2117.000000	100.092780
2116.000000	100.119581
2115.000000	100.116744
2114.000000	100.178755
2113.000000	100.014839
2112.000000	99.976177
2111.000000	100.014134
2110.000000	100.121829
2109.000000	100.194960
2108.000000	100.135816
2107.000000	99.806807
2106.000000	99.943739
2105.000000	99.806277
2104.000000	99.832722
2103.000000	99.985171
2102.000000	99.943327
2101.000000	100.003330
2100.000000	100.191169
2099.000000	100.015051
2098.000000	100.034220
2097.000000	100.021627
2096.000000	100.083451
2095.000000	99.913917
2094.000000	100.027569
2093.000000	100.036877
2092.000000	99.871534
2091.000000	100.009599
2090.000000	99.905967
2089.000000	99.870560
2088.000000	100.047069
2087.000000	100.086507
2086.000000	99.966692
2085.000000	100.078906
2084.000000	99.976667
2083.000000	100.031112
2082.000000	100.048718
2081.000000	99.953616
2080.000000	99.972205
2079.000000	100.103751
2078.000000	100.037736
2077.000000	99.859207
2076.000000	100.080115
2075.000000	100.044569
2074.000000	99.927744
2073.000000	99.925707
2072.000000	100.001415
2071.000000	100.070054
2070.000000	99.986252
2069.000000	99.933567
2068.000000	100.068719
2067.000000	99.999798
2066.000000	99.938145
2065.000000	100.069946
2064.000000	100.035204
2063.000000	99.953674
2062.000000	99.917426
2061.000000	100.018309
2060.000000	99.960098
2059.000000	100.002830
2058.000000	99.994137
2057.000000	100.012135
2056.000000	100.085612
2055.000000	100.137935
2054.000000	100.026199
2053.000000	99.922426
2052.000000	99.953249
2051.000000	99.943335
2050.000000	99.957911
2049.000000	100.021762
2048.000000	100.056104
2047.000000	100.042926
2046.000000	100.027421
2045.000000	99.995953
2044.000000	100.024990
2043.000000	99.979971
2042.000000	99.977741
2041.000000	100.038349
2040.000000	100.042595
2039.000000	100.010829
2038.000000	100.044345
2037.000000	100.029467
2036.000000	99.943437
2035.000000	99.987655
2034.000000	100.056988
2033.000000	100.051332
2032.000000	100.059454
2031.000000	100.053690
2030.000000	99.998886
2029.000000	99.978636
2028.000000	99.979649
2027.000000	99.959395
2026.000000	99.961225
2025.000000	100.017527
2024.000000	99.995136
2023.000000	99.993617
2022.000000	100.040328
2021.000000	100.015601
2020.000000	100.016719
2019.000000	100.107253
2018.000000	100.062951
2017.000000	100.008817
2016.000000	100.061834
2015.000000	100.003141
2014.000000	99.978931
2013.000000	100.001824
2012.000000	100.029086
2011.000000	100.062857
2010.000000	100.002635
2009.000000	99.932416
2008.000000	100.048981
2007.000000	100.076572
2006.000000	100.019467
2005.000000	100.058315
2004.000000	100.069303
2003.000000	100.002739
2002.000000	100.010851
2001.000000	99.962790
2000.000000	99.917784
1999.000000	99.917808
1998.000000	99.957005
1997.000000	100.016433
1996.000000	100.024648
1995.000000	99.959330
1994.000000	99.996653
1993.000000	100.043942
1992.000000	100.049946
1991.000000	100.006193
1990.000000	100.018373
1989.000000	100.051982
1988.000000	100.004367
1987.000000	99.975129
1986.000000	99.955032
1985.000000	99.972792
1984.000000	99.973607
1983.000000	100.048841
1982.000000	99.994518
1981.000000	100.025385
1980.000000	100.001117
1979.000000	99.971264
1978.000000	99.988322
1977.000000	99.931685
1976.000000	99.988525
1975.000000	99.998985
1974.000000	100.036866
1973.000000	100.050676
1972.000000	100.033622
1971.000000	100.012389
1970.000000	99.961933
1969.000000	99.962450
1968.000000	99.980920
1967.000000	100.021009
1966.000000	99.994112
1965.000000	99.933416
1964.000000	99.968828
1963.000000	100.024474
1962.000000	100.035741
1961.000000	99.995939
1960.000000	100.013602
1959.000000	100.029843
1958.000000	99.997563
1957.000000	99.983453
1956.000000	100.037860
1955.000000	99.920267
1954.000000	99.954854
1953.000000	100.038052
1952.000000	99.981736
1951.000000	100.048204
1950.000000	100.027806
1949.000000	100.007410
1948.000000	100.034101
1947.000000	100.015114
1946.000000	100.064724
1945.000000	100.006086
1944.000000	99.962268
1943.000000	99.965298
1942.000000	100.113134
1941.000000	100.044006
1940.000000	99.919456
1939.000000	99.946240
1938.000000	99.987543
1937.000000	99.854494
1936.000000	99.928420
1935.000000	99.977008
1934.000000	100.017618
1933.000000	100.052719
1932.000000	100.000304
1931.000000	99.989976
1930.000000	100.144596
1929.000000	100.129211
1928.000000	99.873603
1927.000000	100.109773
1926.000000	99.874485
1925.000000	99.886747
1924.000000	99.940147
1923.000000	100.043034
1922.000000	99.922969
1921.000000	100.022980
1920.000000	99.881509
1919.000000	100.033549
1918.000000	100.006783
1917.000000	100.049924
1916.000000	99.932807
1915.000000	100.032502
1914.000000	100.069277
1913.000000	99.899037
1912.000000	99.896941
1911.000000	99.943610
1910.000000	99.974086
1909.000000	100.022895
1908.000000	99.971140
1907.000000	100.046993
1906.000000	99.945948
1905.000000	99.991082
1904.000000	100.150938
1903.000000	99.994631
1902.000000	99.836852
1901.000000	99.921040
1900.000000	99.995340
1899.000000	99.993111
1898.000000	100.022191
1897.000000	100.012567
1896.000000	100.073108
1895.000000	100.078264
1894.000000	99.954396
1893.000000	99.997062
1892.000000	100.011860
1891.000000	100.023916
1890.000000	99.964437
1889.000000	99.939006
1888.000000	99.988148
1887.000000	99.954851
1886.000000	99.942722
1885.000000	99.920273
1884.000000	99.965708
1883.000000	100.016801
1882.000000	99.921807
1881.000000	99.947890
1880.000000	100.036620
1879.000000	99.970475
1878.000000	99.920160
1877.000000	99.941177
1876.000000	99.969062
1875.000000	99.977458
1874.000000	99.985754
1873.000000	99.957965
1872.000000	99.911038
1871.000000	99.932638
1870.000000	100.146112
1869.000000	100.103422
1868.000000	100.094051
1867.000000	100.010817
1866.000000	99.957866
1865.000000	100.035185
1864.000000	100.030230
1863.000000	100.027503
1862.000000	100.030039
1861.000000	100.034994
1860.000000	100.034086
1859.000000	99.984727
1858.000000	99.956831
1857.000000	99.931863
1856.000000	99.939959
1855.000000	99.985137
1854.000000	99.980486
1853.000000	100.000404
1852.000000	100.006876
1851.000000	100.012033
1850.000000	99.968668
1849.000000	100.008693
1848.000000	100.070173
1847.000000	100.047936
1846.000000	100.011524
1845.000000	100.017082
1844.000000	100.001011
1843.000000	99.963717
1842.000000	99.940878
1841.000000	99.998484
1840.000000	100.044995
1839.000000	100.011932
1838.000000	99.970175
1837.000000	99.987664
1836.000000	100.022762
1835.000000	100.011331
1834.000000	99.989075
1833.000000	100.035320
1832.000000	100.061152
1831.000000	100.016500
1830.000000	100.052147
1829.000000	100.044048
1828.000000	99.987752
1827.000000	99.991093
1826.000000	100.017715
1825.000000	99.995038
1824.000000	100.015297
1823.000000	100.031202
1822.000000	100.004964
1821.000000	100.008512
1820.000000	100.013476
1819.000000	100.025431
1818.000000	100.039526
1817.000000	100.001013
1816.000000	99.967272
1815.000000	100.005980
1814.000000	100.010238
1813.000000	99.965545
1812.000000	99.976591
1811.000000	100.027775
1810.000000	100.042484
1809.000000	100.023527
1808.000000	100.010040
1807.000000	100.018760
1806.000000	100.021603
1805.000000	99.982352
1804.000000	99.987121
1803.000000	100.019780
1802.000000	100.011666
1801.000000	100.010854
1800.000000	100.019374
1799.000000	99.980122
1798.000000	99.965014
1797.000000	99.978092
1796.000000	99.993811
1795.000000	99.997159
1794.000000	100.008118
1793.000000	100.007814
1792.000000	99.994622
1791.000000	99.993810
1790.000000	99.974633
1789.000000	99.970067
1788.000000	100.015834
1787.000000	100.027103
1786.000000	99.990968
1785.000000	100.019285
1784.000000	100.016342
1783.000000	99.993810
1782.000000	100.008422
1781.000000	100.045164
1780.000000	100.021616
1779.000000	100.023446
1778.000000	99.983560
1777.000000	99.995738
1776.000000	99.997767
1775.000000	100.002537
1774.000000	99.985082
1773.000000	100.019183
1772.000000	100.044262
1771.000000	99.997869
1770.000000	100.001522
1769.000000	99.982547
1768.000000	99.929480
1767.000000	99.949281
1766.000000	99.992391
1765.000000	100.005277
1764.000000	99.988938
1763.000000	99.976760
1762.000000	100.013196
1761.000000	100.012688
1760.000000	99.948055
1759.000000	100.020498
1758.000000	100.017254
1757.000000	100.014515
1756.000000	100.016749
1755.000000	100.025583
1754.000000	100.022835
1753.000000	100.000406
1752.000000	99.971389
1751.000000	99.990259
1750.000000	99.962562
1749.000000	100.024560
1748.000000	99.980111
1747.000000	99.996855
1746.000000	99.991274
1745.000000	100.011976
1744.000000	99.995737
1743.000000	99.996041
1742.000000	99.991068
1741.000000	99.986298
1740.000000	100.014511
1739.000000	99.987113
1738.000000	100.002029
1737.000000	99.998478
1736.000000	99.992999
1735.000000	100.029119
1734.000000	100.003856
1733.000000	99.986811
1732.000000	99.962768
1731.000000	99.954552
1730.000000	99.964294
1729.000000	99.989142
1728.000000	100.023951
1727.000000	99.992288
1726.000000	100.017759
1725.000000	99.964095
1724.000000	99.945838
1723.000000	99.987418
1722.000000	99.981333
1721.000000	100.012476
1720.000000	100.011565
1719.000000	99.991883
1718.000000	99.953538
1717.000000	99.976164
1716.000000	100.006392
1715.000000	99.974032
1714.000000	100.036016
1713.000000	99.979915
1712.000000	99.981130
1711.000000	99.977378
1710.000000	100.035309
1709.000000	99.985696
1708.000000	99.983266
1707.000000	100.009841
1706.000000	100.002941
1705.000000	99.995841
1704.000000	100.032561
1703.000000	100.040180
1702.000000	99.971497
1701.000000	99.982249
1700.000000	100.014911
1699.000000	100.016636
1698.000000	100.005374
1697.000000	99.977285
1696.000000	99.953957
1695.000000	99.957403
1694.000000	99.977382
1693.000000	100.030736
1692.000000	99.984888
1691.000000	100.043310
1690.000000	100.003348
1689.000000	99.980330
1688.000000	99.972213
1687.000000	100.013592
1686.000000	100.031139
1685.000000	100.001116
1684.000000	99.998276
1683.000000	100.008012
1682.000000	100.004563
1681.000000	100.031347
1680.000000	99.984182
1679.000000	100.001419
1678.000000	99.997160
1677.000000	99.967857
1676.000000	99.984278
1675.000000	100.028301
1674.000000	100.007709
1673.000000	100.001521
1672.000000	99.996957
1671.000000	99.978805
1670.000000	100.020788
1669.000000	99.980739
1668.000000	99.975571
1667.000000	99.995945
1666.000000	99.968883
1665.000000	99.985001
1664.000000	100.006894
1663.000000	99.964635
1662.000000	99.992601
1661.000000	100.021494
1660.000000	100.011053
1659.000000	100.006590
1658.000000	100.013180
1657.000000	100.012367
1656.000000	99.995540
1655.000000	99.998074
1654.000000	100.022502
1653.000000	100.003345
1652.000000	100.031731
1651.000000	100.020070
1650.000000	100.029705
1649.000000	99.975980
1648.000000	99.973853
1647.000000	99.995844
1646.000000	99.979020
1645.000000	99.976285
1644.000000	99.979123
1643.000000	99.998378
1642.000000	100.016013
1641.000000	99.985610
1640.000000	100.000811
1639.000000	99.997770
1638.000000	99.990674
1637.000000	99.995743
1636.000000	100.011049
1635.000000	100.011557
1634.000000	100.000710
1633.000000	100.009933
1632.000000	100.024330
1631.000000	100.027678
1630.000000	100.002230
1629.000000	100.022304
1628.000000	100.007603
1627.000000	99.996148
1626.000000	99.992196
1625.000000	99.979829
1624.000000	100.013786
1623.000000	99.980947
1622.000000	99.967064
1621.000000	99.992905
1620.000000	99.990473
1619.000000	99.971015
1618.000000	99.986014
1617.000000	99.994324
1616.000000	99.992702
1615.000000	99.989864
1614.000000	99.979222
1613.000000	99.979426
1612.000000	99.986723
1611.000000	99.988445
1610.000000	99.972739
1609.000000	99.984596
1608.000000	99.995237
1607.000000	100.008615
1606.000000	100.002534
1605.000000	100.006791
1604.000000	100.024937
1603.000000	100.031728
1602.000000	100.020881
1601.000000	99.977502
1600.000000	99.963217
1599.000000	99.992703
1598.000000	100.011353
1597.000000	100.015408
1596.000000	100.026356
1595.000000	100.007906
1594.000000	99.983482
1593.000000	99.987636
1592.000000	99.993716
1591.000000	100.016321
1590.000000	100.009427
1589.000000	99.998480
1588.000000	100.003446
1587.000000	99.991892
1586.000000	99.989156
1585.000000	99.994020
1584.000000	100.015813
1583.000000	100.004662
1582.000000	99.988041
1581.000000	99.988953
1580.000000	99.996251
1579.000000	100.002533
1578.000000	99.997973
1577.000000	99.997163
1576.000000	100.020980
1575.000000	100.018143
1574.000000	100.014494
1573.000000	100.025137
1572.000000	100.011554
1571.000000	99.989867
1570.000000	99.992096
1569.000000	100.002027
1568.000000	100.013579
1567.000000	100.004763
1566.000000	99.993313
1565.000000	99.971329
1564.000000	100.001013
1563.000000	100.000405
1562.000000	99.987741
1561.000000	99.986931
1560.000000	99.997771
1559.000000	99.988856
1558.000000	99.994428
1557.000000	100.018845
1556.000000	100.004053
1555.000000	100.022292
1554.000000	99.998683
1553.000000	100.000507
1552.000000	99.993719
1551.000000	99.998481
1550.000000	99.972047
1549.000000	99.968501
1548.000000	99.990579
1547.000000	99.990174
1546.000000	99.982678
1545.000000	100.015906
1544.000000	99.992808
1543.000000	99.985212
1542.000000	99.995644
1541.000000	100.030902
1540.000000	100.001621
1539.000000	99.999797
1538.000000	99.989668
1537.000000	99.994936
1536.000000	100.013066
1535.000000	99.968405
1534.000000	99.993822
1533.000000	99.985923
1532.000000	99.967694
1531.000000	99.989060
1530.000000	99.991593
1529.000000	99.957875
1528.000000	99.998278
1527.000000	99.996455
1526.000000	99.970829
1525.000000	99.992404
1524.000000	100.000405
1523.000000	99.984503
1522.000000	99.990986
1521.000000	99.989670
1520.000000	99.974684
1519.000000	99.992607
1518.000000	99.979746
1517.000000	100.001317
1516.000000	99.997670
1515.000000	100.000000
1514.000000	99.993113
1513.000000	99.997367
1512.000000	99.982174
1511.000000	100.002229
1510.000000	100.005572
1509.000000	100.022794
1508.000000	99.978934
1507.000000	100.004457
1506.000000	99.976908
1505.000000	99.979443
1504.000000	99.990581
1503.000000	99.997974
1502.000000	100.009827
1501.000000	100.027864
1500.000000	100.022591
1499.000000	99.983088
1498.000000	99.982075
1497.000000	99.992910
1496.000000	99.995847
1495.000000	100.003140
1494.000000	100.018841
1493.000000	100.014685
1492.000000	100.017320
1491.000000	99.971750
1490.000000	99.988354
1489.000000	100.018634
