PE UV       SUBTECH     SPECTRUM    ASCII       PEDS        4.00        
   -1
Empty Chamber.Sample.asc
18/03/14
08:51:57.00
18/03/14
08:51:57.00
Administrator

200.000000
1
Lambda 750
750N8071901
PerkinElmer UV WinLab 6.0.4.0738 / 1.61.00 Lambda 900

0
0
3350/servo 860.8/2
0
0
UV/VIS
1
1
1
CommonBeamDepol,150mm sphere / downward view
0
0
0
0
Program
Program
3350/servo 860.8/2
3350/0.2 860.8/0.2
3350/0.2 860.8/0.2
0
1
 
 
 
0
 
860.8
319.2
860.8
Front
100
on
 
 
0
0
0
 
0
 
 
 
0
 
 
0
0
0
0
0
 
 
 
 
0
0


0
0
#HDR
-1
-1
#GR
nm
%T
1.0
0.0
2350.000000
-1.000000
2151
8
100.547972
99.315226
#DATA
2350.000000	99.882395
2349.000000	100.131626
2348.000000	100.085319
2347.000000	99.812405
2346.000000	99.676301
2345.000000	100.159434
2344.000000	100.097793
2343.000000	100.071521
2342.000000	100.263866
2341.000000	99.852069
2340.000000	100.237028
2339.000000	100.281129
2338.000000	99.979839
2337.000000	100.156548
2336.000000	99.679628
2335.000000	100.193287
2334.000000	99.757333
2333.000000	100.354384
2332.000000	99.979011
2331.000000	99.618822
2330.000000	99.846676
2329.000000	100.126639
2328.000000	99.990397
2327.000000	100.118127
2326.000000	100.342335
2325.000000	100.239146
2324.000000	100.173965
2323.000000	100.016670
2322.000000	100.237433
2321.000000	100.124505
2320.000000	100.019573
2319.000000	99.649785
2318.000000	100.063953
2317.000000	100.198945
2316.000000	99.953156
2315.000000	100.131519
2314.000000	99.965690
2313.000000	99.967900
2312.000000	100.077313
2311.000000	100.175509
2310.000000	100.293338
2309.000000	100.045287
2308.000000	99.764033
2307.000000	99.837258
2306.000000	100.075579
2305.000000	100.070873
2304.000000	100.085932
2303.000000	100.053462
2302.000000	100.085088
2301.000000	99.861163
2300.000000	100.235494
2299.000000	99.981708
2298.000000	99.853640
2297.000000	100.047882
2296.000000	100.108132
2295.000000	100.196080
2294.000000	100.068166
2293.000000	99.878386
2292.000000	99.880439
2291.000000	99.978377
2290.000000	100.005558
2289.000000	100.183093
2288.000000	100.136384
2287.000000	100.029646
2286.000000	99.794529
2285.000000	99.967456
2284.000000	100.064486
2283.000000	99.922817
2282.000000	99.926649
2281.000000	100.014666
2280.000000	100.089590
2279.000000	100.074094
2278.000000	100.014161
2277.000000	99.984342
2276.000000	100.049164
2275.000000	100.009798
2274.000000	99.976244
2273.000000	100.047056
2272.000000	100.114787
2271.000000	99.966243
2270.000000	99.920434
2269.000000	99.875370
2268.000000	99.956524
2267.000000	99.994638
2266.000000	100.038766
2265.000000	100.116481
2264.000000	100.056421
2263.000000	99.948680
2262.000000	99.860700
2261.000000	99.990701
2260.000000	100.041970
2259.000000	99.980284
2258.000000	100.121874
2257.000000	100.149073
2256.000000	100.130605
2255.000000	100.188254
2254.000000	100.112796
2253.000000	99.916640
2252.000000	100.039882
2251.000000	100.138257
2250.000000	100.036437
2249.000000	100.112960
2248.000000	100.124926
2247.000000	99.889129
2246.000000	99.952692
2245.000000	100.016080
2244.000000	100.034192
2243.000000	100.116725
2242.000000	100.011022
2241.000000	99.979655
2240.000000	99.985020
2239.000000	99.943608
2238.000000	99.922585
2237.000000	99.923368
2236.000000	100.039653
2235.000000	100.134936
2234.000000	100.143631
2233.000000	99.974192
2232.000000	99.739534
2231.000000	99.804051
2230.000000	99.999697
2229.000000	99.998584
2228.000000	99.949553
2227.000000	99.909814
2226.000000	99.939843
2225.000000	99.976437
2224.000000	100.036329
2223.000000	100.173234
2222.000000	100.030971
2221.000000	99.972288
2220.000000	100.018109
2219.000000	100.075231
2218.000000	99.933818
2217.000000	99.803356
2216.000000	99.968169
2215.000000	100.000505
2214.000000	100.020116
2213.000000	100.133437
2212.000000	100.008704
2211.000000	99.919543
2210.000000	100.073070
2209.000000	100.090091
2208.000000	100.019433
2207.000000	100.034113
2206.000000	100.101607
2205.000000	99.926793
2204.000000	99.953658
2203.000000	100.105482
2202.000000	100.088077
2201.000000	99.924411
2200.000000	99.923624
2199.000000	100.019094
2198.000000	100.146919
2197.000000	100.037897
2196.000000	100.045421
2195.000000	100.170772
2194.000000	99.957361
2193.000000	100.012121
2192.000000	100.040904
2191.000000	100.088625
2190.000000	99.899696
2189.000000	100.013641
2188.000000	99.975142
2187.000000	99.795087
2186.000000	99.917981
2185.000000	99.966599
2184.000000	100.026645
2183.000000	100.093925
2182.000000	99.947812
2181.000000	100.094394
2180.000000	100.161986
2179.000000	100.023112
2178.000000	100.008572
2177.000000	100.186118
2176.000000	100.172979
2175.000000	100.219847
2174.000000	100.149023
2173.000000	99.933966
2172.000000	99.973595
2171.000000	100.038794
2170.000000	99.902857
2169.000000	100.076496
2168.000000	100.165203
2167.000000	100.062634
2166.000000	99.998588
2165.000000	99.973597
2164.000000	99.972192
2163.000000	99.923612
2162.000000	100.220152
2161.000000	100.064609
2160.000000	99.992844
2159.000000	100.012891
2158.000000	100.089600
2157.000000	99.875318
2156.000000	100.050814
2155.000000	99.886102
2154.000000	100.080509
2153.000000	100.362154
2152.000000	100.050870
2151.000000	99.886246
2150.000000	100.035533
2149.000000	99.704879
2148.000000	99.913742
2147.000000	100.048107
2146.000000	100.100921
2145.000000	99.833114
2144.000000	100.036740
2143.000000	100.106318
2142.000000	99.853337
2141.000000	100.224976
2140.000000	99.974761
2139.000000	100.057245
2138.000000	99.916702
2137.000000	99.870728
2136.000000	100.210181
2135.000000	100.050961
2134.000000	100.004426
2133.000000	99.720767
2132.000000	100.080100
2131.000000	100.152554
2130.000000	100.155292
2129.000000	99.952475
2128.000000	99.981865
2127.000000	100.021957
2126.000000	100.050653
2125.000000	100.135606
2124.000000	100.070197
2123.000000	99.885200
2122.000000	100.052698
2121.000000	100.117288
2120.000000	100.016827
2119.000000	99.967967
2118.000000	99.839398
2117.000000	100.103622
2116.000000	100.082009
2115.000000	100.115510
2114.000000	99.810300
2113.000000	99.962020
2112.000000	100.093424
2111.000000	100.034798
2110.000000	100.198090
2109.000000	99.951741
2108.000000	100.216403
2107.000000	100.079802
2106.000000	100.151169
2105.000000	99.931762
2104.000000	100.053732
2103.000000	100.091068
2102.000000	100.065229
2101.000000	100.068314
2100.000000	100.093431
2099.000000	100.034938
2098.000000	100.053813
2097.000000	100.138716
2096.000000	99.993543
2095.000000	100.049113
2094.000000	100.112112
2093.000000	100.039455
2092.000000	100.020490
2091.000000	99.970944
2090.000000	100.045492
2089.000000	99.790930
2088.000000	99.927857
2087.000000	100.005649
2086.000000	99.965594
2085.000000	100.008980
2084.000000	99.940269
2083.000000	99.982829
2082.000000	99.987881
2081.000000	99.950535
2080.000000	100.018378
2079.000000	100.065064
2078.000000	100.106987
2077.000000	99.940251
2076.000000	99.948631
2075.000000	100.053405
2074.000000	100.001110
2073.000000	99.996165
2072.000000	99.983552
2071.000000	100.010203
2070.000000	99.947180
2069.000000	99.913766
2068.000000	100.015551
2067.000000	100.006769
2066.000000	99.942849
2065.000000	99.978089
2064.000000	100.038686
2063.000000	100.002928
2062.000000	100.038698
2061.000000	100.036464
2060.000000	99.948920
2059.000000	99.918605
2058.000000	99.998081
2057.000000	100.052022
2056.000000	100.037273
2055.000000	99.976056
2054.000000	99.959588
2053.000000	100.037604
2052.000000	100.033472
2051.000000	99.936140
2050.000000	99.994139
2049.000000	100.053270
2048.000000	100.089953
2047.000000	100.072775
2046.000000	100.052771
2045.000000	99.932519
2044.000000	99.879193
2043.000000	99.986255
2042.000000	100.041241
2041.000000	100.074833
2040.000000	100.023664
2039.000000	99.963201
2038.000000	99.999697
2037.000000	100.015266
2036.000000	99.999798
2035.000000	100.016588
2034.000000	100.015175
2033.000000	100.018509
2032.000000	100.022048
2031.000000	99.949727
2030.000000	99.920098
2029.000000	99.953480
2028.000000	99.984222
2027.000000	100.017096
2026.000000	99.974509
2025.000000	99.959529
2024.000000	99.993118
2023.000000	100.018828
2022.000000	100.046371
2021.000000	100.051729
2020.000000	100.061958
2019.000000	100.024501
2018.000000	99.989066
2017.000000	100.007594
2016.000000	100.011138
2015.000000	99.998887
2014.000000	100.004150
2013.000000	100.042729
2012.000000	99.996052
2011.000000	100.002025
2010.000000	100.030392
2009.000000	100.002127
2008.000000	99.973163
2007.000000	99.937318
2006.000000	99.996354
2005.000000	99.982881
2004.000000	99.969609
2003.000000	100.008106
2002.000000	100.020267
2001.000000	100.019764
2000.000000	99.918469
1999.000000	99.953298
1998.000000	100.010337
1997.000000	99.993819
1996.000000	100.010945
1995.000000	99.997263
1994.000000	99.963411
1993.000000	99.978312
1992.000000	99.991586
1991.000000	100.052217
1990.000000	100.052229
1989.000000	100.020076
1988.000000	99.989760
1987.000000	100.027682
1986.000000	100.002737
1985.000000	99.969591
1984.000000	99.987330
1983.000000	99.969998
1982.000000	99.987427
1981.000000	100.005884
1980.000000	100.022110
1979.000000	100.055276
1978.000000	100.052443
1977.000000	99.984893
1976.000000	99.979524
1975.000000	100.012068
1974.000000	99.981443
1973.000000	99.978403
1972.000000	100.031241
1971.000000	100.016327
1970.000000	99.994627
1969.000000	99.927243
1968.000000	99.993105
1967.000000	100.017034
1966.000000	99.988037
1965.000000	99.962390
1964.000000	100.052014
1963.000000	100.001622
1962.000000	99.981752
1961.000000	100.000811
1960.000000	99.991384
1959.000000	100.031436
1958.000000	100.098893
1957.000000	100.038726
1956.000000	99.969100
1955.000000	99.973457
1954.000000	99.954922
1953.000000	99.969300
1952.000000	99.975382
1951.000000	99.999088
1950.000000	99.968200
1949.000000	99.989364
1948.000000	99.980347
1947.000000	99.966164
1946.000000	99.950898
1945.000000	99.944624
1944.000000	99.969521
1943.000000	100.026642
1942.000000	100.031192
1941.000000	100.041210
1940.000000	99.989976
1939.000000	100.015489
1938.000000	99.994536
1937.000000	99.992813
1936.000000	100.000202
1935.000000	99.983711
1934.000000	100.010524
1933.000000	100.081188
1932.000000	100.039664
1931.000000	100.013248
1930.000000	99.970671
1929.000000	99.977551
1928.000000	100.022848
1927.000000	100.020328
1926.000000	99.959764
1925.000000	99.939566
1924.000000	100.025687
1923.000000	100.041064
1922.000000	100.024356
1921.000000	99.968247
1920.000000	100.048764
1919.000000	100.014767
1918.000000	100.073177
1917.000000	100.035597
1916.000000	100.005761
1915.000000	99.962296
1914.000000	99.948539
1913.000000	99.991707
1912.000000	99.948526
1911.000000	99.994539
1910.000000	99.997573
1909.000000	100.008901
1908.000000	99.972688
1907.000000	100.010624
1906.000000	99.958820
1905.000000	100.013151
1904.000000	99.953757
1903.000000	99.938372
1902.000000	99.993929
1901.000000	100.010627
1900.000000	99.913939
1899.000000	100.018115
1898.000000	99.994333
1897.000000	99.967832
1896.000000	100.028846
1895.000000	100.007897
1894.000000	100.001620
1893.000000	99.962752
1892.000000	99.971350
1891.000000	100.008609
1890.000000	100.058733
1889.000000	100.005063
1888.000000	99.971060
1887.000000	99.982500
1886.000000	99.983415
1885.000000	99.950853
1884.000000	99.966628
1883.000000	100.015372
1882.000000	99.993426
1881.000000	100.043181
1880.000000	100.029924
1879.000000	99.952314
1878.000000	99.940600
1877.000000	99.985349
1876.000000	99.972933
1875.000000	100.040109
1874.000000	100.021718
1873.000000	99.987073
1872.000000	99.992023
1871.000000	99.999798
1870.000000	100.026772
1869.000000	99.988184
1868.000000	99.979899
1867.000000	99.982924
1866.000000	100.023747
1865.000000	100.004042
1864.000000	99.969889
1863.000000	99.983730
1862.000000	100.026280
1861.000000	100.031748
1860.000000	100.037421
1859.000000	100.005966
1858.000000	99.956444
1857.000000	99.984739
1856.000000	99.968265
1855.000000	99.924036
1854.000000	99.972510
1853.000000	99.976754
1852.000000	99.979081
1851.000000	99.994947
1850.000000	99.971204
1849.000000	99.930506
1848.000000	99.976360
1847.000000	100.000101
1846.000000	99.982515
1845.000000	99.969486
1844.000000	99.981306
1843.000000	99.961500
1842.000000	100.004144
1841.000000	100.023349
1840.000000	100.010815
1839.000000	99.998484
1838.000000	99.986859
1837.000000	99.993226
1836.000000	100.004550
1835.000000	99.982608
1834.000000	99.990494
1833.000000	100.002832
1832.000000	99.992716
1831.000000	100.005970
1830.000000	100.040886
1829.000000	100.023785
1828.000000	100.009210
1827.000000	99.975410
1826.000000	99.989575
1825.000000	99.997368
1824.000000	99.981171
1823.000000	99.979955
1822.000000	99.995141
1821.000000	100.013264
1820.000000	100.029070
1819.000000	100.006988
1818.000000	100.001418
1817.000000	99.992401
1816.000000	100.017934
1815.000000	100.017223
1814.000000	100.008714
1813.000000	100.003850
1812.000000	99.970823
1811.000000	99.961401
1810.000000	99.974568
1809.000000	99.991791
1808.000000	100.002940
1807.000000	100.013989
1806.000000	99.989965
1805.000000	99.967661
1804.000000	99.982563
1803.000000	100.007199
1802.000000	100.024029
1801.000000	99.981144
1800.000000	99.986008
1799.000000	100.021399
1798.000000	100.012574
1797.000000	99.993206
1796.000000	99.957824
1795.000000	99.971106
1794.000000	100.009533
1793.000000	99.996147
1792.000000	100.012474
1791.000000	100.023329
1790.000000	99.997769
1789.000000	100.010852
1788.000000	100.027390
1787.000000	100.023133
1786.000000	100.021911
1785.000000	100.025560
1784.000000	99.969983
1783.000000	99.973431
1782.000000	99.988133
1781.000000	99.999899
1780.000000	100.010143
1779.000000	100.000913
1778.000000	99.966332
1777.000000	99.978096
1776.000000	99.993104
1775.000000	99.976574
1774.000000	99.973023
1773.000000	99.999290
1772.000000	100.009129
1771.000000	100.002637
1770.000000	99.997769
1769.000000	99.996552
1768.000000	99.996349
1767.000000	99.971404
1766.000000	100.021704
1765.000000	100.019272
1764.000000	99.999290
1763.000000	100.027388
1762.000000	100.031647
1761.000000	100.023025
1760.000000	100.013897
1759.000000	100.056611
1758.000000	100.022112
1757.000000	100.014404
1756.000000	100.004565
1755.000000	99.994522
1754.000000	100.009230
1753.000000	100.011763
1752.000000	100.007909
1751.000000	100.001724
1750.000000	100.028700
1749.000000	100.033265
1748.000000	99.991785
1747.000000	100.018964
1746.000000	100.037429
1745.000000	100.011155
1744.000000	100.027280
1743.000000	100.021297
1742.000000	99.994119
1741.000000	99.980740
1740.000000	100.014703
1739.000000	100.019571
1738.000000	100.015515
1737.000000	100.027176
1736.000000	100.020384
1735.000000	100.002738
1734.000000	99.981040
1733.000000	99.990367
1732.000000	99.973538
1731.000000	100.039755
1730.000000	99.994322
1729.000000	100.007605
1728.000000	99.993713
1727.000000	99.995031
1726.000000	99.998479
1725.000000	100.034486
1724.000000	99.987123
1723.000000	99.981247
1722.000000	100.001926
1721.000000	100.006894
1720.000000	100.020076
1719.000000	100.014197
1718.000000	99.974459
1717.000000	100.016933
1716.000000	99.991079
1715.000000	99.973133
1714.000000	100.020685
1713.000000	100.011154
1712.000000	99.954587
1711.000000	99.997567
1710.000000	100.019879
1709.000000	100.004259
1708.000000	99.979823
1707.000000	99.976886
1706.000000	99.998682
1705.000000	99.989356
1704.000000	100.006286
1703.000000	99.986820
1702.000000	99.989252
1701.000000	100.009531
1700.000000	100.003752
1699.000000	99.996858
1698.000000	99.987330
1697.000000	100.003345
1696.000000	99.974864
1695.000000	99.973342
1694.000000	100.032650
1693.000000	100.052338
1692.000000	100.009529
1691.000000	100.002433
1690.000000	99.979726
1689.000000	99.962391
1688.000000	99.975568
1687.000000	100.016119
1686.000000	99.986013
1685.000000	99.992702
1684.000000	99.972433
1683.000000	99.998885
1682.000000	100.044509
1681.000000	100.006387
1680.000000	100.037008
1679.000000	100.019466
1678.000000	100.003143
1677.000000	99.981147
1676.000000	99.999189
1675.000000	100.026563
1674.000000	99.970303
1673.000000	100.007604
1672.000000	100.020583
1671.000000	100.006792
1670.000000	99.998987
1669.000000	100.009524
1668.000000	100.008411
1667.000000	100.002533
1666.000000	100.000811
1665.000000	100.012159
1664.000000	99.981055
1663.000000	99.966370
1662.000000	100.007193
1661.000000	99.999899
1660.000000	100.003445
1659.000000	100.017325
1658.000000	100.014690
1657.000000	100.003141
1656.000000	99.988552
1655.000000	99.976091
1654.000000	100.010740
1653.000000	100.000000
1652.000000	99.999797
1651.000000	99.996455
1650.000000	100.000709
1649.000000	100.011652
1648.000000	99.970523
1647.000000	99.967889
1646.000000	100.020973
1645.000000	100.005268
1644.000000	100.007803
1643.000000	99.993717
1642.000000	99.996657
1641.000000	99.985210
1640.000000	99.978627
1639.000000	99.989566
1638.000000	100.004154
1637.000000	100.017020
1636.000000	100.008712
1635.000000	100.015503
1634.000000	100.020367
1633.000000	100.013981
1632.000000	100.022901
1631.000000	100.012059
1630.000000	100.020066
1629.000000	100.003749
1628.000000	99.997467
1627.000000	100.004255
1626.000000	99.991085
1625.000000	99.981056
1624.000000	100.011347
1623.000000	99.998075
1622.000000	100.001823
1621.000000	100.005673
1620.000000	100.005369
1619.000000	99.998481
1618.000000	99.993315
1617.000000	100.000608
1616.000000	100.001925
1615.000000	99.981870
1614.000000	99.979740
1613.000000	99.998176
1612.000000	100.004052
1611.000000	100.002837
1610.000000	100.001317
1609.000000	100.004052
1608.000000	100.006990
1607.000000	100.020260
1606.000000	100.006685
1605.000000	99.999190
1604.000000	100.009725
1603.000000	99.994732
1602.000000	99.996860
1601.000000	100.002735
1600.000000	100.000203
1599.000000	99.994530
1598.000000	99.992303
1597.000000	99.992505
1596.000000	99.998987
1595.000000	100.017626
1594.000000	100.010332
1593.000000	99.996759
1592.000000	100.004355
1591.000000	99.995341
1590.000000	99.994632
1589.000000	100.002229
1588.000000	100.008306
1587.000000	99.996151
1586.000000	99.988757
1585.000000	100.011649
1584.000000	100.018134
1583.000000	100.010434
1582.000000	99.995746
1581.000000	99.991898
1580.000000	99.990279
1579.000000	100.003241
1578.000000	100.010129
1577.000000	99.998076
1576.000000	99.985519
1575.000000	100.007191
1574.000000	100.007292
1573.000000	99.995848
1572.000000	99.999291
1571.000000	100.002633
1570.000000	99.996354
1569.000000	99.997974
1568.000000	99.999595
1567.000000	100.007595
1566.000000	99.989773
1565.000000	99.987748
1564.000000	100.023697
1563.000000	100.046287
1562.000000	100.020762
1561.000000	99.995950
1560.000000	99.990077
1559.000000	99.998076
1558.000000	100.003848
1557.000000	99.970132
1556.000000	99.997671
1555.000000	100.000911
1554.000000	99.984204
1553.000000	99.986533
1552.000000	99.994026
1551.000000	99.997064
1550.000000	99.981067
1549.000000	99.996659
1548.000000	99.989774
1547.000000	100.002228
1546.000000	100.002835
1545.000000	99.998177
1544.000000	99.984003
1543.000000	99.998481
1542.000000	99.993520
1541.000000	99.988965
1540.000000	100.024300
1539.000000	100.018730
1538.000000	100.009212
1537.000000	100.008402
1536.000000	99.988359
1535.000000	99.989572
1534.000000	100.004353
1533.000000	100.009516
1532.000000	99.997975
1531.000000	100.000608
1530.000000	99.996253
1529.000000	99.985217
1528.000000	99.991798
1527.000000	99.971752
1526.000000	100.003849
1525.000000	100.002633
1524.000000	99.998785
1523.000000	100.008708
1522.000000	100.020657
1521.000000	100.013669
1520.000000	100.007191
1519.000000	100.021064
1518.000000	100.008810
1517.000000	100.012659
1516.000000	100.006381
1515.000000	100.014077
1514.000000	100.003544
1513.000000	99.992810
1512.000000	100.022485
1511.000000	100.037891
1510.000000	100.004355
1509.000000	99.971342
1508.000000	100.008507
1507.000000	100.001215
1506.000000	99.990886
1505.000000	100.004253
1504.000000	99.987848
1503.000000	100.000507
1502.000000	100.012966
1501.000000	100.022993
1500.000000	100.014787
1499.000000	99.991190
1498.000000	100.002937
1497.000000	100.017319
1496.000000	99.998278
1495.000000	99.993721
1494.000000	99.995241
1493.000000	100.020661
1492.000000	100.018432
1491.000000	100.008203
