PE UV       SUBTECH     SPECTRUM    ASCII       PEDS        4.00        
   -1
RDms1240121.Sample.asc
18/03/14
15:42:09.00
18/03/14
15:42:09.00
Administrator

200.000000
1
Lambda 750
750N8071901
PerkinElmer UV WinLab 6.0.4.0738 / 1.61.00 Lambda 900

0
0
3350/servo 860.8/2
0
0
UV/VIS
1
1
1
CommonBeamDepol,150mm sphere / downward view
0
0
0
0
Program
Program
3350/servo 860.8/2
3350/0.2 860.8/0.2
3350/0.2 860.8/0.2
0
1
 
 
 
0
 
860.8
319.2
860.8
Front
100
on
 
 
0
0
0
 
0
 
 
 
0
 
 
0
0
0
0
0
 
 
 
 
0
0


0
0
#HDR
-1
-1
#GR
nm
%R
1.0
0.0
2350.000000
-1.000000
2151
8
50.818073
6.286637
#DATA
2350.000000	24.410818
2349.000000	24.706489
2348.000000	24.514388
2347.000000	25.066368
2346.000000	24.786802
2345.000000	24.905137
2344.000000	24.646650
2343.000000	24.493795
2342.000000	24.696549
2341.000000	24.979832
2340.000000	25.081289
2339.000000	25.494024
2338.000000	24.939869
2337.000000	25.289013
2336.000000	25.528619
2335.000000	25.900420
2334.000000	25.620487
2333.000000	25.936193
2332.000000	25.828131
2331.000000	25.780993
2330.000000	25.611000
2329.000000	25.680432
2328.000000	25.603960
2327.000000	25.584852
2326.000000	25.584137
2325.000000	25.326624
2324.000000	25.167445
2323.000000	25.209961
2322.000000	25.417781
2321.000000	25.281982
2320.000000	24.928621
2319.000000	25.170882
2318.000000	25.345036
2317.000000	25.217798
2316.000000	25.044497
2315.000000	24.942062
2314.000000	24.864279
2313.000000	24.757885
2312.000000	24.644275
2311.000000	24.873739
2310.000000	24.622938
2309.000000	24.647412
2308.000000	24.834838
2307.000000	24.565793
2306.000000	24.554839
2305.000000	24.509975
2304.000000	24.573475
2303.000000	24.551346
2302.000000	24.285768
2301.000000	24.334340
2300.000000	24.238313
2299.000000	24.259865
2298.000000	24.346532
2297.000000	24.099676
2296.000000	24.030711
2295.000000	24.063353
2294.000000	23.979275
2293.000000	24.001059
2292.000000	24.121788
2291.000000	24.025721
2290.000000	23.793953
2289.000000	23.964171
2288.000000	23.971987
2287.000000	24.081693
2286.000000	24.003305
2285.000000	23.835816
2284.000000	23.794956
2283.000000	23.797765
2282.000000	23.629241
2281.000000	23.827672
2280.000000	23.947848
2279.000000	24.011264
2278.000000	23.975627
2277.000000	23.760025
2276.000000	23.860625
2275.000000	24.057899
2274.000000	24.105485
2273.000000	24.258033
2272.000000	24.353567
2271.000000	24.176055
2270.000000	24.207174
2269.000000	24.344884
2268.000000	24.478895
2267.000000	24.568118
2266.000000	24.376891
2265.000000	24.398192
2264.000000	24.706393
2263.000000	24.977529
2262.000000	25.149517
2261.000000	25.111467
2260.000000	25.304407
2259.000000	25.417674
2258.000000	25.561254
2257.000000	25.852318
2256.000000	25.965778
2255.000000	26.110789
2254.000000	26.262648
2253.000000	26.375711
2252.000000	26.535649
2251.000000	26.727860
2250.000000	26.749149
2249.000000	26.868833
2248.000000	27.112994
2247.000000	27.249635
2246.000000	27.484767
2245.000000	27.692333
2244.000000	27.941922
2243.000000	28.056655
2242.000000	28.043542
2241.000000	28.169366
2240.000000	28.209932
2239.000000	28.273946
2238.000000	28.429332
2237.000000	28.587243
2236.000000	28.710011
2235.000000	28.787259
2234.000000	28.793213
2233.000000	28.822651
2232.000000	28.933867
2231.000000	28.968997
2230.000000	28.903832
2229.000000	28.970376
2228.000000	29.151216
2227.000000	29.257632
2226.000000	29.106834
2225.000000	29.061693
2224.000000	29.153579
2223.000000	29.108728
2222.000000	29.023361
2221.000000	28.969997
2220.000000	29.053898
2219.000000	29.013863
2218.000000	28.888444
2217.000000	28.819811
2216.000000	28.830337
2215.000000	28.747875
2214.000000	28.638332
2213.000000	28.625884
2212.000000	28.710700
2211.000000	28.740931
2210.000000	28.671535
2209.000000	28.559296
2208.000000	28.487419
2207.000000	28.480239
2206.000000	28.453774
2205.000000	28.364116
2204.000000	28.352339
2203.000000	28.258469
2202.000000	28.260999
2201.000000	28.146408
2200.000000	28.013820
2199.000000	27.950315
2198.000000	28.039107
2197.000000	27.897527
2196.000000	27.744827
2195.000000	27.680887
2194.000000	27.717294
2193.000000	27.561575
2192.000000	27.560160
2191.000000	27.619105
2190.000000	27.514819
2189.000000	27.397437
2188.000000	27.425814
2187.000000	27.397266
2186.000000	27.286318
2185.000000	27.125585
2184.000000	27.258955
2183.000000	27.391387
2182.000000	27.271911
2181.000000	27.267083
2180.000000	27.215797
2179.000000	27.127267
2178.000000	27.117969
2177.000000	27.271415
2176.000000	27.292178
2175.000000	27.340816
2174.000000	27.249723
2173.000000	27.259759
2172.000000	27.315385
2171.000000	27.098152
2170.000000	27.294632
2169.000000	27.554202
2168.000000	27.614909
2167.000000	27.561161
2166.000000	27.702117
2165.000000	27.639660
2164.000000	27.876505
2163.000000	27.976325
2162.000000	28.067404
2161.000000	28.009532
2160.000000	28.157779
2159.000000	28.365109
2158.000000	28.267941
2157.000000	28.384535
2156.000000	28.613847
2155.000000	28.645719
2154.000000	28.808110
2153.000000	28.949955
2152.000000	29.242766
2151.000000	29.317576
2150.000000	29.109119
2149.000000	29.502158
2148.000000	29.430373
2147.000000	29.534578
2146.000000	29.667716
2145.000000	29.840769
2144.000000	29.720146
2143.000000	29.914120
2142.000000	30.195437
2141.000000	30.410460
2140.000000	30.325488
2139.000000	30.522643
2138.000000	30.501460
2137.000000	30.684057
2136.000000	30.663407
2135.000000	30.750343
2134.000000	30.736018
2133.000000	30.572151
2132.000000	30.723762
2131.000000	30.910740
2130.000000	31.139813
2129.000000	31.188039
2128.000000	30.955888
2127.000000	31.002488
2126.000000	31.047192
2125.000000	31.204110
2124.000000	31.267272
2123.000000	31.161252
2122.000000	31.313183
2121.000000	31.455550
2120.000000	31.301198
2119.000000	31.425141
2118.000000	31.287968
2117.000000	31.397371
2116.000000	31.447662
2115.000000	31.552546
2114.000000	31.504333
2113.000000	31.497382
2112.000000	31.495087
2111.000000	31.441257
2110.000000	31.498760
2109.000000	31.553288
2108.000000	31.670680
2107.000000	31.576946
2106.000000	31.504839
2105.000000	31.628294
2104.000000	31.607381
2103.000000	31.628465
2102.000000	31.501992
2101.000000	31.742846
2100.000000	31.583509
2099.000000	31.643876
2098.000000	31.580127
2097.000000	31.582013
2096.000000	31.750474
2095.000000	31.610009
2094.000000	31.621649
2093.000000	31.501355
2092.000000	31.595325
2091.000000	31.588033
2090.000000	31.504995
2089.000000	31.590884
2088.000000	31.518885
2087.000000	31.477327
2086.000000	31.432290
2085.000000	31.431985
2084.000000	31.379103
2083.000000	31.372101
2082.000000	31.213935
2081.000000	31.112812
2080.000000	31.038585
2079.000000	30.981365
2078.000000	30.892662
2077.000000	30.941887
2076.000000	30.878140
2075.000000	30.718505
2074.000000	30.682222
2073.000000	30.579077
2072.000000	30.477218
2071.000000	30.464996
2070.000000	30.350124
2069.000000	30.207154
2068.000000	30.084743
2067.000000	29.942224
2066.000000	29.741096
2065.000000	29.711173
2064.000000	29.680126
2063.000000	29.593676
2062.000000	29.425399
2061.000000	29.350459
2060.000000	29.260995
2059.000000	29.136623
2058.000000	29.040193
2057.000000	28.939104
2056.000000	28.790262
2055.000000	28.733034
2054.000000	28.603599
2053.000000	28.463831
2052.000000	28.403460
2051.000000	28.265540
2050.000000	28.149847
2049.000000	28.133576
2048.000000	28.045009
2047.000000	28.038643
2046.000000	28.041380
2045.000000	27.952363
2044.000000	27.984505
2043.000000	27.952362
2042.000000	27.947806
2041.000000	27.979941
2040.000000	27.951054
2039.000000	27.940846
2038.000000	27.994213
2037.000000	28.038236
2036.000000	28.111823
2035.000000	28.192708
2034.000000	28.247728
2033.000000	28.304988
2032.000000	28.370773
2031.000000	28.442401
2030.000000	28.523401
2029.000000	28.576182
2028.000000	28.653138
2027.000000	28.772363
2026.000000	28.841176
2025.000000	28.877361
2024.000000	28.882700
2023.000000	28.905783
2022.000000	28.936495
2021.000000	28.914545
2020.000000	28.931807
2019.000000	28.945546
2018.000000	28.960807
2017.000000	28.983429
2016.000000	28.922911
2015.000000	28.878235
2014.000000	28.881595
2013.000000	28.832274
2012.000000	28.767107
2011.000000	28.763216
2010.000000	28.722579
2009.000000	28.618954
2008.000000	28.555298
2007.000000	28.529780
2006.000000	28.422784
2005.000000	28.305503
2004.000000	28.237147
2003.000000	28.175265
2002.000000	28.102336
2001.000000	28.028747
2000.000000	27.905206
1999.000000	27.842365
1998.000000	27.771607
1997.000000	27.696628
1996.000000	27.588699
1995.000000	27.472253
1994.000000	27.328989
1993.000000	27.263662
1992.000000	27.156642
1991.000000	27.054044
1990.000000	26.993439
1989.000000	26.844443
1988.000000	26.754141
1987.000000	26.654735
1986.000000	26.534992
1985.000000	26.434896
1984.000000	26.376064
1983.000000	26.257668
1982.000000	26.168996
1981.000000	26.125554
1980.000000	26.050154
1979.000000	25.889492
1978.000000	25.803287
1977.000000	25.704355
1976.000000	25.616176
1975.000000	25.510516
1974.000000	25.382444
1973.000000	25.282354
1972.000000	25.247724
1971.000000	25.186672
1970.000000	25.109006
1969.000000	24.989335
1968.000000	24.928824
1967.000000	24.860817
1966.000000	24.738867
1965.000000	24.585178
1964.000000	24.518385
1963.000000	24.404417
1962.000000	24.372199
1961.000000	24.238527
1960.000000	24.191343
1959.000000	24.085424
1958.000000	24.092697
1957.000000	23.950674
1956.000000	23.867936
1955.000000	23.843366
1954.000000	23.781836
1953.000000	23.767606
1952.000000	23.684259
1951.000000	23.672838
1950.000000	23.607624
1949.000000	23.562206
1948.000000	23.536872
1947.000000	23.466228
1946.000000	23.493953
1945.000000	23.518353
1944.000000	23.476680
1943.000000	23.454409
1942.000000	23.477591
1941.000000	23.564475
1940.000000	23.571997
1939.000000	23.602706
1938.000000	23.555513
1937.000000	23.695811
1936.000000	23.783747
1935.000000	23.815951
1934.000000	23.875469
1933.000000	24.039517
1932.000000	24.068121
1931.000000	24.184941
1930.000000	24.327074
1929.000000	24.448175
1928.000000	24.620452
1927.000000	24.711006
1926.000000	24.903202
1925.000000	25.119883
1924.000000	25.396381
1923.000000	25.584131
1922.000000	25.730537
1921.000000	26.095710
1920.000000	26.259970
1919.000000	26.373949
1918.000000	26.783629
1917.000000	26.916119
1916.000000	27.101618
1915.000000	27.473130
1914.000000	27.847331
1913.000000	28.246878
1912.000000	28.514451
1911.000000	28.759027
1910.000000	29.225937
1909.000000	29.495890
1908.000000	29.872950
1907.000000	30.230163
1906.000000	30.662021
1905.000000	31.067714
1904.000000	31.480912
1903.000000	31.916704
1902.000000	32.309778
1901.000000	32.746715
1900.000000	33.217743
1899.000000	33.660625
1898.000000	34.051656
1897.000000	34.448832
1896.000000	34.789870
1895.000000	35.252543
1894.000000	35.661407
1893.000000	36.057188
1892.000000	36.478928
1891.000000	36.839515
1890.000000	37.193955
1889.000000	37.565990
1888.000000	37.942943
1887.000000	38.252717
1886.000000	38.624046
1885.000000	38.905254
1884.000000	39.206166
1883.000000	39.604531
1882.000000	39.848635
1881.000000	40.175293
1880.000000	40.384464
1879.000000	40.557904
1878.000000	40.779588
1877.000000	41.026037
1876.000000	41.174421
1875.000000	41.472596
1874.000000	41.615444
1873.000000	41.823116
1872.000000	41.969662
1871.000000	42.176263
1870.000000	42.347268
1869.000000	42.434884
1868.000000	42.568313
1867.000000	42.679790
1866.000000	42.709490
1865.000000	42.804145
1864.000000	42.894616
1863.000000	42.939170
1862.000000	43.034433
1861.000000	43.094819
1860.000000	43.177678
1859.000000	43.196833
1858.000000	43.229699
1857.000000	43.244287
1856.000000	43.246611
1855.000000	43.284657
1854.000000	43.333303
1853.000000	43.369786
1852.000000	43.397578
1851.000000	43.435252
1850.000000	43.392919
1849.000000	43.359198
1848.000000	43.408430
1847.000000	43.410789
1846.000000	43.408471
1845.000000	43.383207
1844.000000	43.376211
1843.000000	43.376842
1842.000000	43.379956
1841.000000	43.345614
1840.000000	43.294038
1839.000000	43.290324
1838.000000	43.272938
1837.000000	43.249241
1836.000000	43.245011
1835.000000	43.199775
1834.000000	43.172615
1833.000000	43.118539
1832.000000	43.110891
1831.000000	43.105161
1830.000000	43.093049
1829.000000	43.063949
1828.000000	43.027016
1827.000000	42.987669
1826.000000	42.944407
1825.000000	42.911589
1824.000000	42.916089
1823.000000	42.913460
1822.000000	42.841496
1821.000000	42.822978
1820.000000	42.851196
1819.000000	42.778798
1818.000000	42.785328
1817.000000	42.774380
1816.000000	42.725441
1815.000000	42.707777
1814.000000	42.658825
1813.000000	42.643527
1812.000000	42.643080
1811.000000	42.639790
1810.000000	42.618047
1809.000000	42.613267
1808.000000	42.598695
1807.000000	42.570705
1806.000000	42.555937
1805.000000	42.523380
1804.000000	42.504027
1803.000000	42.482703
1802.000000	42.439506
1801.000000	42.421720
1800.000000	42.417397
1799.000000	42.414611
1798.000000	42.403446
1797.000000	42.405677
1796.000000	42.372524
1795.000000	42.344444
1794.000000	42.366852
1793.000000	42.364690
1792.000000	42.339084
1791.000000	42.344842
1790.000000	42.314561
1789.000000	42.296786
1788.000000	42.323849
1787.000000	42.311321
1786.000000	42.285446
1785.000000	42.267523
1784.000000	42.249558
1783.000000	42.230387
1782.000000	42.238540
1781.000000	42.200909
1780.000000	42.161230
1779.000000	42.166539
1778.000000	42.132094
1777.000000	42.087677
1776.000000	42.052653
1775.000000	42.030768
1774.000000	41.988361
1773.000000	41.937555
1772.000000	41.916904
1771.000000	41.872998
1770.000000	41.854691
1769.000000	41.824276
1768.000000	41.756806
1767.000000	41.698245
1766.000000	41.719076
1765.000000	41.689361
1764.000000	41.646617
1763.000000	41.605805
1762.000000	41.571184
1761.000000	41.533766
1760.000000	41.498665
1759.000000	41.493732
1758.000000	41.460396
1757.000000	41.419990
1756.000000	41.389444
1755.000000	41.355938
1754.000000	41.338556
1753.000000	41.330302
1752.000000	41.268269
1751.000000	41.216407
1750.000000	41.229223
1749.000000	41.224482
1748.000000	41.165953
1747.000000	41.104146
1746.000000	41.064674
1745.000000	41.026746
1744.000000	40.962320
1743.000000	40.939464
1742.000000	40.879385
1741.000000	40.849955
1740.000000	40.826719
1739.000000	40.776462
1738.000000	40.765930
1737.000000	40.746010
1736.000000	40.736688
1735.000000	40.697665
1734.000000	40.678851
1733.000000	40.668551
1732.000000	40.661110
1731.000000	40.660768
1730.000000	40.681205
1729.000000	40.744647
1728.000000	40.763955
1727.000000	40.788330
1726.000000	40.815035
1725.000000	40.885947
1724.000000	40.939914
1723.000000	40.979201
1722.000000	41.108464
1721.000000	41.193734
1720.000000	41.274029
1719.000000	41.352979
1718.000000	41.377891
1717.000000	41.447513
1716.000000	41.516506
1715.000000	41.595690
1714.000000	41.657414
1713.000000	41.718814
1712.000000	41.792169
1711.000000	41.872997
1710.000000	41.912994
1709.000000	41.952918
1708.000000	41.991528
1707.000000	42.019998
1706.000000	42.074979
1705.000000	42.117252
1704.000000	42.125135
1703.000000	42.117733
1702.000000	42.164043
1701.000000	42.209663
1700.000000	42.229054
1699.000000	42.212797
1698.000000	42.272784
1697.000000	42.303965
1696.000000	42.314062
1695.000000	42.318721
1694.000000	42.383788
1693.000000	42.458061
1692.000000	42.471598
1691.000000	42.523474
1690.000000	42.586775
1689.000000	42.636151
1688.000000	42.716226
1687.000000	42.788740
1686.000000	42.850627
1685.000000	42.926241
1684.000000	43.024585
1683.000000	43.106872
1682.000000	43.255651
1681.000000	43.338855
1680.000000	43.421829
1679.000000	43.548923
1678.000000	43.646660
1677.000000	43.738420
1676.000000	43.862216
1675.000000	43.999899
1674.000000	44.061880
1673.000000	44.188197
1672.000000	44.292095
1671.000000	44.364161
1670.000000	44.455570
1669.000000	44.586520
1668.000000	44.655293
1667.000000	44.755608
1666.000000	44.792287
1665.000000	44.858486
1664.000000	44.888523
1663.000000	44.951297
1662.000000	45.028205
1661.000000	45.063507
1660.000000	45.083437
1659.000000	45.136789
1658.000000	45.151100
1657.000000	45.195334
1656.000000	45.238102
1655.000000	45.241149
1654.000000	45.281080
1653.000000	45.291910
1652.000000	45.300954
1651.000000	45.306834
1650.000000	45.284992
1649.000000	45.299712
1648.000000	45.272367
1647.000000	45.280437
1646.000000	45.281927
1645.000000	45.291868
1644.000000	45.294573
1643.000000	45.275031
1642.000000	45.248564
1641.000000	45.227394
1640.000000	45.215391
1639.000000	45.204501
1638.000000	45.206386
1637.000000	45.183961
1636.000000	45.124432
1635.000000	45.125248
1634.000000	45.101850
1633.000000	45.062273
1632.000000	45.079975
1631.000000	45.067097
1630.000000	45.025624
1629.000000	45.001292
1628.000000	44.973400
1627.000000	44.945047
1626.000000	44.919956
1625.000000	44.895592
1624.000000	44.869465
1623.000000	44.839453
1622.000000	44.819506
1621.000000	44.787528
1620.000000	44.739436
1619.000000	44.708393
1618.000000	44.677125
1617.000000	44.647571
1616.000000	44.610081
1615.000000	44.573652
1614.000000	44.546249
1613.000000	44.514912
1612.000000	44.467509
1611.000000	44.430554
1610.000000	44.409110
1609.000000	44.380724
1608.000000	44.344035
1607.000000	44.311516
1606.000000	44.268794
1605.000000	44.234502
1604.000000	44.194693
1603.000000	44.143767
1602.000000	44.109012
1601.000000	44.076769
1600.000000	44.035467
1599.000000	44.007820
1598.000000	43.975879
1597.000000	43.938505
1596.000000	43.900593
1595.000000	43.863326
1594.000000	43.836375
1593.000000	43.803884
1592.000000	43.768453
1591.000000	43.742992
1590.000000	43.721937
1589.000000	43.674647
1588.000000	43.645578
1587.000000	43.625970
1586.000000	43.588315
1585.000000	43.556821
1584.000000	43.531240
1583.000000	43.510857
1582.000000	43.474928
1581.000000	43.446078
1580.000000	43.418906
1579.000000	43.387879
1578.000000	43.370137
1577.000000	43.333992
1576.000000	43.296737
1575.000000	43.270390
1574.000000	43.224498
1573.000000	43.200864
1572.000000	43.168204
1571.000000	43.143810
1570.000000	43.126655
1569.000000	43.089714
1568.000000	43.071294
1567.000000	43.048828
1566.000000	43.018275
1565.000000	43.000122
1564.000000	43.003739
1563.000000	42.992040
1562.000000	42.966045
1561.000000	42.932987
1560.000000	42.896892
1559.000000	42.877496
1558.000000	42.859689
1557.000000	42.836908
1556.000000	42.825318
1555.000000	42.824826
1554.000000	42.787218
1553.000000	42.776469
1552.000000	42.751392
1551.000000	42.737398
1550.000000	42.716309
1549.000000	42.673969
1548.000000	42.642461
1547.000000	42.592038
1546.000000	42.546476
1545.000000	42.517390
1544.000000	42.473551
1543.000000	42.415038
1542.000000	42.371004
1541.000000	42.323026
1540.000000	42.260386
1539.000000	42.202579
1538.000000	42.164632
1537.000000	42.088113
1536.000000	42.029999
1535.000000	41.983265
1534.000000	41.924808
1533.000000	41.872851
1532.000000	41.826155
1531.000000	41.768553
1530.000000	41.714987
1529.000000	41.665047
1528.000000	41.603947
1527.000000	41.561217
1526.000000	41.525717
1525.000000	41.481533
1524.000000	41.434495
1523.000000	41.392613
1522.000000	41.379632
1521.000000	41.341508
1520.000000	41.340621
1519.000000	41.278110
1518.000000	41.261851
1517.000000	41.226908
1516.000000	41.225490
1515.000000	41.178127
1514.000000	41.159243
1513.000000	41.126615
1512.000000	41.115331
1511.000000	41.107465
1510.000000	41.101559
1509.000000	41.052328
1508.000000	41.052035
1507.000000	41.049097
1506.000000	41.015678
1505.000000	41.032808
1504.000000	41.009356
1503.000000	41.013588
1502.000000	40.991390
1501.000000	40.994861
1500.000000	40.977342
1499.000000	40.970290
1498.000000	40.979303
1497.000000	40.986803
1496.000000	40.981739
1495.000000	41.003452
1494.000000	40.997590
1493.000000	41.004694
1492.000000	41.016085
1491.000000	41.005073
1490.000000	41.028354
1489.000000	41.064217
1488.000000	41.088655
1487.000000	41.090046
1486.000000	41.106488
1485.000000	41.114243
1484.000000	41.142788
1483.000000	41.172105
1482.000000	41.183116
1481.000000	41.216003
1480.000000	41.224187
1479.000000	41.210940
1478.000000	41.266286
1477.000000	41.276855
1476.000000	41.285361
1475.000000	41.303972
1474.000000	41.321484
1473.000000	41.330864
1472.000000	41.358000
1471.000000	41.386131
1470.000000	41.418348
