PE UV       SUBTECH     SPECTRUM    ASCII       PEDS        4.00        
   -1
RDms1240111.Sample.asc
18/03/14
12:37:13.00
18/03/14
12:37:13.00
Administrator

200.000000
1
Lambda 750
750N8071901
PerkinElmer UV WinLab 6.0.4.0738 / 1.61.00 Lambda 900

0
0
3350/servo 860.8/2
0
0
UV/VIS
1
1
1
CommonBeamDepol,150mm sphere / downward view
0
0
0
0
Program
Program
3350/servo 860.8/2
3350/0.2 860.8/0.2
3350/0.2 860.8/0.2
0
1
 
 
 
0
 
860.8
319.2
860.8
Front
100
on
 
 
0
0
0
 
0
 
 
 
0
 
 
0
0
0
0
0
 
 
 
 
0
0


0
0
#HDR
-1
-1
#GR
nm
%R
1.0
0.0
2350.000000
-1.000000
2151
8
49.062045
8.595197
#DATA
2350.000000	22.215823
2349.000000	22.357390
2348.000000	22.056005
2347.000000	22.913865
2346.000000	22.411766
2345.000000	22.259380
2344.000000	22.084162
2343.000000	22.063993
2342.000000	22.690645
2341.000000	22.369000
2340.000000	22.199094
2339.000000	23.111661
2338.000000	23.563656
2337.000000	23.330452
2336.000000	23.242734
2335.000000	23.469253
2334.000000	23.561746
2333.000000	23.431462
2332.000000	23.455066
2331.000000	23.336985
2330.000000	23.553639
2329.000000	23.509695
2328.000000	23.487421
2327.000000	23.234328
2326.000000	23.252943
2325.000000	23.139478
2324.000000	23.369474
2323.000000	23.376105
2322.000000	23.366422
2321.000000	22.691622
2320.000000	22.742755
2319.000000	22.777933
2318.000000	22.605831
2317.000000	22.777992
2316.000000	22.654350
2315.000000	22.777928
2314.000000	22.557021
2313.000000	22.420522
2312.000000	22.483968
2311.000000	22.663866
2310.000000	22.582649
2309.000000	22.576967
2308.000000	22.137721
2307.000000	22.320739
2306.000000	22.293344
2305.000000	22.022875
2304.000000	22.145951
2303.000000	22.165723
2302.000000	22.296700
2301.000000	22.221998
2300.000000	22.133948
2299.000000	22.039916
2298.000000	21.996998
2297.000000	21.968357
2296.000000	22.012680
2295.000000	22.133241
2294.000000	22.076686
2293.000000	21.955059
2292.000000	22.080966
2291.000000	22.127177
2290.000000	22.157360
2289.000000	22.038005
2288.000000	21.983090
2287.000000	22.123763
2286.000000	22.028503
2285.000000	22.027497
2284.000000	22.047953
2283.000000	21.885176
2282.000000	21.702681
2281.000000	21.949337
2280.000000	22.021560
2279.000000	22.093817
2278.000000	22.044973
2277.000000	22.190098
2276.000000	22.285968
2275.000000	22.348194
2274.000000	22.363815
2273.000000	22.388037
2272.000000	22.406549
2271.000000	22.314353
2270.000000	22.368974
2269.000000	22.611285
2268.000000	22.719432
2267.000000	22.907966
2266.000000	22.959163
2265.000000	22.847208
2264.000000	22.907691
2263.000000	22.930509
2262.000000	23.143581
2261.000000	23.401681
2260.000000	23.536217
2259.000000	23.663058
2258.000000	23.723429
2257.000000	23.844377
2256.000000	23.934473
2255.000000	24.009616
2254.000000	24.184029
2253.000000	24.427485
2252.000000	24.612286
2251.000000	24.734569
2250.000000	24.972849
2249.000000	25.124282
2248.000000	25.074368
2247.000000	25.218150
2246.000000	25.483590
2245.000000	25.565732
2244.000000	25.641231
2243.000000	25.835132
2242.000000	25.817702
2241.000000	25.827326
2240.000000	25.984937
2239.000000	26.053114
2238.000000	26.207943
2237.000000	26.365104
2236.000000	26.285832
2235.000000	26.354064
2234.000000	26.510914
2233.000000	26.380247
2232.000000	26.442970
2231.000000	26.670943
2230.000000	26.769697
2229.000000	26.787178
2228.000000	26.656867
2227.000000	26.632527
2226.000000	26.658288
2225.000000	26.648902
2224.000000	26.721339
2223.000000	26.664107
2222.000000	26.629562
2221.000000	26.521966
2220.000000	26.542203
2219.000000	26.453265
2218.000000	26.369599
2217.000000	26.317598
2216.000000	26.325166
2215.000000	26.326426
2214.000000	26.457956
2213.000000	26.546334
2212.000000	26.498151
2211.000000	26.509686
2210.000000	26.530026
2209.000000	26.318954
2208.000000	26.263200
2207.000000	26.351666
2206.000000	26.327721
2205.000000	26.237080
2204.000000	26.203013
2203.000000	26.068559
2202.000000	25.742057
2201.000000	25.738885
2200.000000	25.802049
2199.000000	25.822890
2198.000000	25.874863
2197.000000	25.781764
2196.000000	25.688426
2195.000000	25.685846
2194.000000	25.571609
2193.000000	25.341373
2192.000000	25.389602
2191.000000	25.441381
2190.000000	25.380782
2189.000000	25.349319
2188.000000	25.266840
2187.000000	25.190637
2186.000000	25.146337
2185.000000	25.235974
2184.000000	25.165296
2183.000000	25.245140
2182.000000	25.118180
2181.000000	25.125489
2180.000000	24.973238
2179.000000	25.175786
2178.000000	25.097143
2177.000000	25.163257
2176.000000	25.211077
2175.000000	25.155775
2174.000000	25.192358
2173.000000	25.120171
2172.000000	25.104234
2171.000000	25.313648
2170.000000	25.280871
2169.000000	25.376433
2168.000000	25.605785
2167.000000	25.708632
2166.000000	25.626470
2165.000000	25.687338
2164.000000	25.845924
2163.000000	25.763782
2162.000000	26.004391
2161.000000	25.966713
2160.000000	26.030570
2159.000000	26.264717
2158.000000	26.197588
2157.000000	26.342065
2156.000000	26.426451
2155.000000	26.587813
2154.000000	26.681977
2153.000000	26.959972
2152.000000	26.859643
2151.000000	26.859277
2150.000000	27.165599
2149.000000	27.294333
2148.000000	27.128979
2147.000000	27.248180
2146.000000	27.450579
2145.000000	27.470166
2144.000000	27.644414
2143.000000	27.649635
2142.000000	27.965834
2141.000000	27.892886
2140.000000	27.868618
2139.000000	28.157474
2138.000000	28.303512
2137.000000	28.222256
2136.000000	28.251714
2135.000000	28.299388
2134.000000	28.203354
2133.000000	28.211683
2132.000000	28.513351
2131.000000	28.792616
2130.000000	28.723023
2129.000000	28.739002
2128.000000	28.829073
2127.000000	28.594523
2126.000000	28.760648
2125.000000	28.580251
2124.000000	28.681968
2123.000000	28.671568
2122.000000	28.751042
2121.000000	28.639833
2120.000000	28.799762
2119.000000	28.882776
2118.000000	28.880242
2117.000000	28.901774
2116.000000	29.030006
2115.000000	28.974268
2114.000000	28.967711
2113.000000	28.836240
2112.000000	28.889808
2111.000000	28.992277
2110.000000	28.988280
2109.000000	29.045629
2108.000000	29.066885
2107.000000	28.966577
2106.000000	29.168983
2105.000000	29.022757
2104.000000	29.007969
2103.000000	29.042470
2102.000000	29.185822
2101.000000	29.158127
2100.000000	29.079244
2099.000000	29.012398
2098.000000	29.024777
2097.000000	29.064421
2096.000000	29.003014
2095.000000	28.976866
2094.000000	29.050236
2093.000000	28.972810
2092.000000	28.986900
2091.000000	28.942791
2090.000000	28.775701
2089.000000	28.854741
2088.000000	28.877732
2087.000000	28.763178
2086.000000	28.782218
2085.000000	28.815654
2084.000000	28.763564
2083.000000	28.777001
2082.000000	28.696408
2081.000000	28.588200
2080.000000	28.525886
2079.000000	28.601175
2078.000000	28.478729
2077.000000	28.393666
2076.000000	28.377733
2075.000000	28.275199
2074.000000	28.119248
2073.000000	28.083262
2072.000000	27.999653
2071.000000	28.064001
2070.000000	27.895480
2069.000000	27.798349
2068.000000	27.655344
2067.000000	27.539140
2066.000000	27.375508
2065.000000	27.303927
2064.000000	27.218853
2063.000000	27.131861
2062.000000	27.081891
2061.000000	26.950310
2060.000000	26.835298
2059.000000	26.710212
2058.000000	26.613324
2057.000000	26.472249
2056.000000	26.405291
2055.000000	26.413874
2054.000000	26.397431
2053.000000	26.320525
2052.000000	26.186600
2051.000000	26.023171
2050.000000	26.000635
2049.000000	25.978941
2048.000000	25.880882
2047.000000	25.879865
2046.000000	25.781935
2045.000000	25.700221
2044.000000	25.747042
2043.000000	25.805236
2042.000000	25.833003
2041.000000	25.913525
2040.000000	25.938717
2039.000000	25.836725
2038.000000	25.861173
2037.000000	25.930685
2036.000000	25.928132
2035.000000	26.004105
2034.000000	26.066204
2033.000000	26.131315
2032.000000	26.201989
2031.000000	26.207737
2030.000000	26.280683
2029.000000	26.358387
2028.000000	26.398339
2027.000000	26.467717
2026.000000	26.502407
2025.000000	26.552295
2024.000000	26.588430
2023.000000	26.609035
2022.000000	26.663508
2021.000000	26.663765
2020.000000	26.634210
2019.000000	26.590570
2018.000000	26.552544
2017.000000	26.542494
2016.000000	26.579679
2015.000000	26.562781
2014.000000	26.544237
2013.000000	26.503627
2012.000000	26.412722
2011.000000	26.371243
2010.000000	26.344902
2009.000000	26.264397
2008.000000	26.168946
2007.000000	26.101472
2006.000000	26.024837
2005.000000	25.940388
2004.000000	25.893532
2003.000000	25.874613
2002.000000	25.795857
2001.000000	25.666540
2000.000000	25.580717
1999.000000	25.534739
1998.000000	25.448727
1997.000000	25.349064
1996.000000	25.298669
1995.000000	25.206921
1994.000000	25.111339
1993.000000	25.019610
1992.000000	24.893791
1991.000000	24.768168
1990.000000	24.699735
1989.000000	24.615720
1988.000000	24.536271
1987.000000	24.436423
1986.000000	24.337048
1985.000000	24.259846
1984.000000	24.183017
1983.000000	24.073879
1982.000000	24.017464
1981.000000	23.993288
1980.000000	23.888385
1979.000000	23.785950
1978.000000	23.655034
1977.000000	23.547083
1976.000000	23.457901
1975.000000	23.387732
1974.000000	23.345143
1973.000000	23.298092
1972.000000	23.222822
1971.000000	23.102986
1970.000000	23.030266
1969.000000	22.905539
1968.000000	22.851439
1967.000000	22.714290
1966.000000	22.695425
1965.000000	22.630995
1964.000000	22.540212
1963.000000	22.453329
1962.000000	22.410254
1961.000000	22.300803
1960.000000	22.238260
1959.000000	22.176263
1958.000000	22.133709
1957.000000	22.091829
1956.000000	21.978403
1955.000000	21.966836
1954.000000	21.980547
1953.000000	21.943015
1952.000000	21.844804
1951.000000	21.874823
1950.000000	21.834437
1949.000000	21.757715
1948.000000	21.685550
1947.000000	21.675573
1946.000000	21.677069
1945.000000	21.705916
1944.000000	21.719658
1943.000000	21.749551
1942.000000	21.730967
1941.000000	21.714266
1940.000000	21.850212
1939.000000	21.821681
1938.000000	21.938874
1937.000000	22.022651
1936.000000	22.091103
1935.000000	22.069370
1934.000000	22.227001
1933.000000	22.330529
1932.000000	22.443916
1931.000000	22.576414
1930.000000	22.665934
1929.000000	22.759126
1928.000000	22.945456
1927.000000	23.072512
1926.000000	23.323601
1925.000000	23.503213
1924.000000	23.708109
1923.000000	23.824633
1922.000000	24.097656
1921.000000	24.242299
1920.000000	24.446095
1919.000000	24.701390
1918.000000	24.907137
1917.000000	25.142968
1916.000000	25.348080
1915.000000	25.677587
1914.000000	26.092187
1913.000000	26.313921
1912.000000	26.642079
1911.000000	26.941157
1910.000000	27.244007
1909.000000	27.496907
1908.000000	27.869390
1907.000000	28.159325
1906.000000	28.595957
1905.000000	28.991306
1904.000000	29.320338
1903.000000	29.741012
1902.000000	30.140036
1901.000000	30.555626
1900.000000	30.829892
1899.000000	31.197438
1898.000000	31.576215
1897.000000	31.985543
1896.000000	32.323488
1895.000000	32.604256
1894.000000	32.980869
1893.000000	33.311572
1892.000000	33.653279
1891.000000	34.013551
1890.000000	34.332843
1889.000000	34.514593
1888.000000	34.761148
1887.000000	35.140185
1886.000000	35.377776
1885.000000	35.591266
1884.000000	35.858429
1883.000000	36.150348
1882.000000	36.376316
1881.000000	36.520475
1880.000000	36.802471
1879.000000	37.020667
1878.000000	37.221274
1877.000000	37.496855
1876.000000	37.680568
1875.000000	37.983316
1874.000000	38.132060
1873.000000	38.341921
1872.000000	38.511233
1871.000000	38.691540
1870.000000	38.849370
1869.000000	38.895723
1868.000000	39.015196
1867.000000	39.061262
1866.000000	39.113827
1865.000000	39.165568
1864.000000	39.198214
1863.000000	39.266041
1862.000000	39.305677
1861.000000	39.377275
1860.000000	39.396428
1859.000000	39.344900
1858.000000	39.360306
1857.000000	39.411932
1856.000000	39.456200
1855.000000	39.463423
1854.000000	39.488490
1853.000000	39.495558
1852.000000	39.495789
1851.000000	39.498141
1850.000000	39.540438
1849.000000	39.545017
1848.000000	39.595490
1847.000000	39.598632
1846.000000	39.599810
1845.000000	39.596784
1844.000000	39.610562
1843.000000	39.637393
1842.000000	39.640721
1841.000000	39.634914
1840.000000	39.630020
1839.000000	39.687707
1838.000000	39.675292
1837.000000	39.623965
1836.000000	39.613209
1835.000000	39.582520
1834.000000	39.544828
1833.000000	39.524831
1832.000000	39.526950
1831.000000	39.454524
1830.000000	39.430385
1829.000000	39.417663
1828.000000	39.372845
1827.000000	39.349218
1826.000000	39.329310
1825.000000	39.300371
1824.000000	39.264550
1823.000000	39.267965
1822.000000	39.223929
1821.000000	39.193814
1820.000000	39.204169
1819.000000	39.193187
1818.000000	39.190147
1817.000000	39.169169
1816.000000	39.139404
1815.000000	39.118528
1814.000000	39.095749
1813.000000	39.059932
1812.000000	39.052225
1811.000000	39.033464
1810.000000	39.007168
1809.000000	39.002799
1808.000000	38.989250
1807.000000	38.947288
1806.000000	38.893839
1805.000000	38.879883
1804.000000	38.884715
1803.000000	38.886681
1802.000000	38.852152
1801.000000	38.816805
1800.000000	38.827762
1799.000000	38.825431
1798.000000	38.804320
1797.000000	38.790834
1796.000000	38.765966
1795.000000	38.751497
1794.000000	38.759570
1793.000000	38.756589
1792.000000	38.749082
1791.000000	38.718878
1790.000000	38.683716
1789.000000	38.662313
1788.000000	38.638778
1787.000000	38.617801
1786.000000	38.625316
1785.000000	38.594379
1784.000000	38.553298
1783.000000	38.544851
1782.000000	38.543341
1781.000000	38.543242
1780.000000	38.534871
1779.000000	38.505470
1778.000000	38.454682
1777.000000	38.436631
1776.000000	38.426685
1775.000000	38.401347
1774.000000	38.352258
1773.000000	38.338187
1772.000000	38.313846
1771.000000	38.267747
1770.000000	38.231905
1769.000000	38.219031
1768.000000	38.176376
1767.000000	38.121946
1766.000000	38.119970
1765.000000	38.115408
1764.000000	38.087534
1763.000000	38.053591
1762.000000	37.979730
1761.000000	37.985794
1760.000000	37.940013
1759.000000	37.896110
1758.000000	37.888167
1757.000000	37.864740
1756.000000	37.840105
1755.000000	37.820125
1754.000000	37.792956
1753.000000	37.785520
1752.000000	37.784925
1751.000000	37.737611
1750.000000	37.677345
1749.000000	37.668618
1748.000000	37.640366
1747.000000	37.585071
1746.000000	37.518499
1745.000000	37.481962
1744.000000	37.493750
1743.000000	37.418224
1742.000000	37.395289
1741.000000	37.347487
1740.000000	37.311856
1739.000000	37.289026
1738.000000	37.285611
1737.000000	37.250806
1736.000000	37.242080
1735.000000	37.227590
1734.000000	37.224674
1733.000000	37.229059
1732.000000	37.198612
1731.000000	37.241312
1730.000000	37.250033
1729.000000	37.298853
1728.000000	37.322113
1727.000000	37.337142
1726.000000	37.413715
1725.000000	37.470509
1724.000000	37.526818
1723.000000	37.614268
1722.000000	37.677833
1721.000000	37.717577
1720.000000	37.803737
1719.000000	37.877133
1718.000000	37.928703
1717.000000	38.008611
1716.000000	38.109827
1715.000000	38.155353
1714.000000	38.221942
1713.000000	38.261555
1712.000000	38.305003
1711.000000	38.401720
1710.000000	38.474396
1709.000000	38.514257
1708.000000	38.568827
1707.000000	38.598658
1706.000000	38.660475
1705.000000	38.671626
1704.000000	38.712614
1703.000000	38.729271
1702.000000	38.753649
1701.000000	38.775670
1700.000000	38.834401
1699.000000	38.819745
1698.000000	38.889993
1697.000000	38.935251
1696.000000	38.974580
1695.000000	38.961997
1694.000000	39.037753
1693.000000	39.078331
1692.000000	39.107282
1691.000000	39.174719
1690.000000	39.242281
1689.000000	39.286905
1688.000000	39.368896
1687.000000	39.450297
1686.000000	39.537569
1685.000000	39.603381
1684.000000	39.689002
1683.000000	39.806185
1682.000000	39.910394
1681.000000	39.993228
1680.000000	40.078093
1679.000000	40.207297
1678.000000	40.295791
1677.000000	40.373848
1676.000000	40.467283
1675.000000	40.587028
1674.000000	40.687116
1673.000000	40.807930
1672.000000	40.875230
1671.000000	40.941349
1670.000000	41.029136
1669.000000	41.107530
1668.000000	41.180250
1667.000000	41.293327
1666.000000	41.311393
1665.000000	41.355527
1664.000000	41.400296
1663.000000	41.403702
1662.000000	41.466140
1661.000000	41.552479
1660.000000	41.606736
1659.000000	41.612287
1658.000000	41.653336
1657.000000	41.709035
1656.000000	41.716992
1655.000000	41.735304
1654.000000	41.758975
1653.000000	41.768732
1652.000000	41.767856
1651.000000	41.763609
1650.000000	41.777076
1649.000000	41.785463
1648.000000	41.782483
1647.000000	41.779459
1646.000000	41.781088
1645.000000	41.776891
1644.000000	41.782983
1643.000000	41.776536
1642.000000	41.751298
1641.000000	41.756039
1640.000000	41.727038
1639.000000	41.739014
1638.000000	41.735253
1637.000000	41.711716
1636.000000	41.695690
1635.000000	41.683031
1634.000000	41.668144
1633.000000	41.653741
1632.000000	41.641748
1631.000000	41.600117
1630.000000	41.594216
1629.000000	41.566545
1628.000000	41.553981
1627.000000	41.535128
1626.000000	41.501786
1625.000000	41.487858
1624.000000	41.460388
1623.000000	41.434409
1622.000000	41.421257
1621.000000	41.375897
1620.000000	41.350072
1619.000000	41.325748
1618.000000	41.279224
1617.000000	41.244426
1616.000000	41.223724
1615.000000	41.196674
1614.000000	41.170381
1613.000000	41.154319
1612.000000	41.121299
1611.000000	41.077064
1610.000000	41.046796
1609.000000	41.028781
1608.000000	41.009786
1607.000000	40.964645
1606.000000	40.918792
1605.000000	40.887966
1604.000000	40.833885
1603.000000	40.811342
1602.000000	40.790361
1601.000000	40.757250
1600.000000	40.715900
1599.000000	40.685425
1598.000000	40.651691
1597.000000	40.617458
1596.000000	40.591804
1595.000000	40.557296
1594.000000	40.536941
1593.000000	40.509889
1592.000000	40.472011
1591.000000	40.441776
1590.000000	40.430392
1589.000000	40.405557
1588.000000	40.379632
1587.000000	40.347570
1586.000000	40.303900
1585.000000	40.296383
1584.000000	40.297620
1583.000000	40.271274
1582.000000	40.222342
1581.000000	40.189422
1580.000000	40.165346
1579.000000	40.156578
1578.000000	40.154541
1577.000000	40.123155
1576.000000	40.087936
1575.000000	40.065509
1574.000000	40.045112
1573.000000	40.023009
1572.000000	39.995585
1571.000000	39.969801
1570.000000	39.964758
1569.000000	39.955456
1568.000000	39.917016
1567.000000	39.899907
1566.000000	39.888453
1565.000000	39.873122
1564.000000	39.871346
1563.000000	39.860409
1562.000000	39.846707
1561.000000	39.828221
1560.000000	39.800651
1559.000000	39.790190
1558.000000	39.782479
1557.000000	39.776652
1556.000000	39.780406
1555.000000	39.762763
1554.000000	39.749713
1553.000000	39.733773
1552.000000	39.713618
1551.000000	39.692964
1550.000000	39.671718
1549.000000	39.634825
1548.000000	39.631349
1547.000000	39.613360
1546.000000	39.566889
1545.000000	39.520883
1544.000000	39.474129
1543.000000	39.419830
1542.000000	39.388797
1541.000000	39.345237
1540.000000	39.297864
1539.000000	39.246996
1538.000000	39.191520
1537.000000	39.151688
1536.000000	39.096683
1535.000000	39.060505
1534.000000	39.025124
1533.000000	38.987819
1532.000000	38.927522
1531.000000	38.866094
1530.000000	38.835308
1529.000000	38.782538
1528.000000	38.744493
1527.000000	38.711908
1526.000000	38.681645
1525.000000	38.638078
1524.000000	38.565809
1523.000000	38.559026
1522.000000	38.521499
1521.000000	38.488487
1520.000000	38.480478
1519.000000	38.457939
1518.000000	38.436270
1517.000000	38.395137
1516.000000	38.391951
1515.000000	38.354439
1514.000000	38.312531
1513.000000	38.318028
1512.000000	38.289224
1511.000000	38.278218
1510.000000	38.259345
1509.000000	38.230323
1508.000000	38.225679
1507.000000	38.220017
1506.000000	38.205444
1505.000000	38.168848
1504.000000	38.180555
1503.000000	38.207104
1502.000000	38.174331
1501.000000	38.163470
1500.000000	38.146680
1499.000000	38.143366
1498.000000	38.142927
1497.000000	38.159784
1496.000000	38.164792
1495.000000	38.159058
1494.000000	38.162073
1493.000000	38.168256
1492.000000	38.185525
1491.000000	38.191769
1490.000000	38.212972
1489.000000	38.234961
1488.000000	38.257043
1487.000000	38.269991
1486.000000	38.275406
1485.000000	38.303268
1484.000000	38.302373
1483.000000	38.351698
1482.000000	38.352627
1481.000000	38.387004
1480.000000	38.405837
1479.000000	38.421928
1478.000000	38.430568
1477.000000	38.455247
1476.000000	38.480567
1475.000000	38.499640
1474.000000	38.498494
1473.000000	38.528976
1472.000000	38.550425
1471.000000	38.570749
1470.000000	38.619027
