PE UV       SUBTECH     SPECTRUM    ASCII       PEDS        4.00        
   -1
RDmsmeh81.Sample.asc
18/03/14
10:48:31.00
18/03/14
10:48:31.00
Administrator

200.000000
1
Lambda 750
750N8071901
PerkinElmer UV WinLab 6.0.4.0738 / 1.61.00 Lambda 900

0
0
3350/servo 860.8/2
0
0
UV/VIS
1
1
1
CommonBeamDepol,150mm sphere / downward view
0
0
0
0
Program
Program
3350/servo 860.8/2
3350/0.2 860.8/0.2
3350/0.2 860.8/0.2
0
1
 
 
 
0
 
860.8
319.2
860.8
Front
100
on
 
 
0
0
0
 
0
 
 
 
0
 
 
0
0
0
0
0
 
 
 
 
0
0


0
0
#HDR
-1
-1
#GR
nm
%R
1.0
0.0
2350.000000
-1.000000
2151
8
53.299307
7.035027
#DATA
2350.000000	22.098318
2349.000000	22.394911
2348.000000	22.100223
2347.000000	22.541395
2346.000000	22.489292
2345.000000	22.150028
2344.000000	22.662945
2343.000000	22.439682
2342.000000	22.576451
2341.000000	22.601233
2340.000000	22.890594
2339.000000	23.009082
2338.000000	22.968091
2337.000000	23.198415
2336.000000	23.043244
2335.000000	23.268101
2334.000000	23.333578
2333.000000	23.410854
2332.000000	23.708750
2331.000000	23.393322
2330.000000	23.379536
2329.000000	23.494648
2328.000000	23.447494
2327.000000	23.188956
2326.000000	23.266984
2325.000000	23.161652
2324.000000	22.981920
2323.000000	23.022306
2322.000000	22.934679
2321.000000	22.693138
2320.000000	22.742048
2319.000000	22.403573
2318.000000	22.414576
2317.000000	22.772837
2316.000000	22.414578
2315.000000	22.392991
2314.000000	22.412798
2313.000000	22.059949
2312.000000	22.293520
2311.000000	22.235936
2310.000000	22.545349
2309.000000	22.306865
2308.000000	22.134995
2307.000000	22.310031
2306.000000	21.865032
2305.000000	21.818940
2304.000000	21.926875
2303.000000	21.787251
2302.000000	21.759390
2301.000000	21.491867
2300.000000	21.704875
2299.000000	21.759971
2298.000000	21.884880
2297.000000	22.034056
2296.000000	21.869382
2295.000000	21.879735
2294.000000	21.562607
2293.000000	21.459000
2292.000000	21.356122
2291.000000	21.507700
2290.000000	21.655853
2289.000000	21.502796
2288.000000	21.573230
2287.000000	21.633851
2286.000000	21.599075
2285.000000	21.396525
2284.000000	21.505437
2283.000000	21.563090
2282.000000	21.439426
2281.000000	21.438462
2280.000000	21.526085
2279.000000	21.527885
2278.000000	21.606589
2277.000000	21.719858
2276.000000	21.755059
2275.000000	21.904656
2274.000000	21.961984
2273.000000	22.018065
2272.000000	22.078081
2271.000000	22.124746
2270.000000	21.990456
2269.000000	21.921727
2268.000000	22.045150
2267.000000	22.183610
2266.000000	22.375553
2265.000000	22.457084
2264.000000	22.566838
2263.000000	22.742438
2262.000000	22.959163
2261.000000	23.061644
2260.000000	23.158490
2259.000000	23.374599
2258.000000	23.580315
2257.000000	23.764177
2256.000000	23.935383
2255.000000	24.207288
2254.000000	24.317683
2253.000000	24.327433
2252.000000	24.716547
2251.000000	25.015739
2250.000000	25.054023
2249.000000	25.217993
2248.000000	25.499702
2247.000000	25.584449
2246.000000	25.732865
2245.000000	26.018196
2244.000000	26.167973
2243.000000	26.333794
2242.000000	26.445047
2241.000000	26.526254
2240.000000	26.674845
2239.000000	26.827146
2238.000000	27.041116
2237.000000	27.158826
2236.000000	27.259347
2235.000000	27.271080
2234.000000	27.383338
2233.000000	27.563648
2232.000000	27.502415
2231.000000	27.387771
2230.000000	27.517691
2229.000000	27.629803
2228.000000	27.586650
2227.000000	27.576145
2226.000000	27.608164
2225.000000	27.613755
2224.000000	27.607814
2223.000000	27.554690
2222.000000	27.525503
2221.000000	27.621431
2220.000000	27.654139
2219.000000	27.654941
2218.000000	27.451677
2217.000000	27.391057
2216.000000	27.470788
2215.000000	27.352887
2214.000000	27.247521
2213.000000	27.399965
2212.000000	27.443899
2211.000000	27.298065
2210.000000	27.220450
2209.000000	27.163992
2208.000000	26.901973
2207.000000	26.837751
2206.000000	26.913681
2205.000000	26.934059
2204.000000	26.983032
2203.000000	26.910591
2202.000000	26.756004
2201.000000	26.483960
2200.000000	26.380223
2199.000000	26.476837
2198.000000	26.509151
2197.000000	26.300700
2196.000000	26.180271
2195.000000	26.156077
2194.000000	26.093581
2193.000000	25.848926
2192.000000	25.839045
2191.000000	25.807097
2190.000000	25.644156
2189.000000	25.740370
2188.000000	25.739741
2187.000000	25.683802
2186.000000	25.721483
2185.000000	25.616298
2184.000000	25.622400
2183.000000	25.646091
2182.000000	25.650455
2181.000000	25.503673
2180.000000	25.488079
2179.000000	25.402665
2178.000000	25.426821
2177.000000	25.430221
2176.000000	25.312503
2175.000000	25.509972
2174.000000	25.483946
2173.000000	25.338233
2172.000000	25.497988
2171.000000	25.594473
2170.000000	25.625799
2169.000000	25.709730
2168.000000	25.657561
2167.000000	25.734511
2166.000000	25.907276
2165.000000	25.954796
2164.000000	25.963100
2163.000000	26.173199
2162.000000	26.271315
2161.000000	26.295795
2160.000000	26.704262
2159.000000	26.669386
2158.000000	26.648404
2157.000000	26.754118
2156.000000	27.053017
2155.000000	27.021088
2154.000000	27.273615
2153.000000	27.632774
2152.000000	27.693303
2151.000000	27.697635
2150.000000	27.688521
2149.000000	27.699333
2148.000000	27.991360
2147.000000	28.110687
2146.000000	28.130335
2145.000000	28.228546
2144.000000	28.567632
2143.000000	28.568336
2142.000000	28.762480
2141.000000	28.913140
2140.000000	28.906651
2139.000000	29.242621
2138.000000	29.255104
2137.000000	29.194612
2136.000000	29.444657
2135.000000	29.473200
2134.000000	29.757498
2133.000000	29.412616
2132.000000	29.761248
2131.000000	29.899590
2130.000000	30.045721
2129.000000	29.991965
2128.000000	29.923914
2127.000000	30.035454
2126.000000	29.976526
2125.000000	30.227265
2124.000000	30.289651
2123.000000	30.105010
2122.000000	30.320691
2121.000000	30.399959
2120.000000	30.348424
2119.000000	30.429006
2118.000000	30.530038
2117.000000	30.435667
2116.000000	30.586063
2115.000000	30.576905
2114.000000	30.675818
2113.000000	30.597037
2112.000000	30.869166
2111.000000	30.688508
2110.000000	30.601151
2109.000000	30.658127
2108.000000	30.849986
2107.000000	30.886167
2106.000000	30.828312
2105.000000	30.768114
2104.000000	31.016427
2103.000000	30.819345
2102.000000	30.720963
2101.000000	30.894223
2100.000000	31.044315
2099.000000	30.792735
2098.000000	30.730430
2097.000000	30.764455
2096.000000	30.838051
2095.000000	30.829142
2094.000000	30.853716
2093.000000	30.819320
2092.000000	30.829744
2091.000000	30.784038
2090.000000	30.737085
2089.000000	30.715311
2088.000000	30.838417
2087.000000	30.709609
2086.000000	30.754360
2085.000000	30.666790
2084.000000	30.610070
2083.000000	30.531646
2082.000000	30.517724
2081.000000	30.397594
2080.000000	30.285573
2079.000000	30.305265
2078.000000	30.086166
2077.000000	30.103986
2076.000000	29.979947
2075.000000	29.784876
2074.000000	29.750121
2073.000000	29.636839
2072.000000	29.524518
2071.000000	29.505527
2070.000000	29.365034
2069.000000	29.202232
2068.000000	29.064533
2067.000000	28.882672
2066.000000	28.692596
2065.000000	28.639872
2064.000000	28.562165
2063.000000	28.353025
2062.000000	28.199791
2061.000000	28.082911
2060.000000	27.916762
2059.000000	27.871157
2058.000000	27.735088
2057.000000	27.587844
2056.000000	27.490755
2055.000000	27.391448
2054.000000	27.219200
2053.000000	27.093724
2052.000000	27.050105
2051.000000	26.890533
2050.000000	26.806438
2049.000000	26.758677
2048.000000	26.652961
2047.000000	26.643190
2046.000000	26.634155
2045.000000	26.573035
2044.000000	26.527947
2043.000000	26.511074
2042.000000	26.554717
2041.000000	26.609982
2040.000000	26.602720
2039.000000	26.646104
2038.000000	26.706118
2037.000000	26.782562
2036.000000	26.868145
2035.000000	26.945675
2034.000000	27.022258
2033.000000	27.086614
2032.000000	27.183626
2031.000000	27.259320
2030.000000	27.408414
2029.000000	27.548593
2028.000000	27.581216
2027.000000	27.636125
2026.000000	27.724948
2025.000000	27.799109
2024.000000	27.891114
2023.000000	27.964267
2022.000000	28.000267
2021.000000	28.022089
2020.000000	28.049821
2019.000000	28.029778
2018.000000	28.050166
2017.000000	28.083620
2016.000000	28.077675
2015.000000	28.091505
2014.000000	28.066612
2013.000000	28.027100
2012.000000	27.998105
2011.000000	27.921843
2010.000000	27.872410
2009.000000	27.785593
2008.000000	27.698241
2007.000000	27.652329
2006.000000	27.521541
2005.000000	27.443085
2004.000000	27.337689
2003.000000	27.236258
2002.000000	27.164990
2001.000000	27.038844
2000.000000	26.915695
1999.000000	26.855756
1998.000000	26.733496
1997.000000	26.641050
1996.000000	26.556787
1995.000000	26.441755
1994.000000	26.348986
1993.000000	26.223775
1992.000000	26.112647
1991.000000	26.004234
1990.000000	25.880714
1989.000000	25.737331
1988.000000	25.673289
1987.000000	25.566417
1986.000000	25.414782
1985.000000	25.352946
1984.000000	25.234387
1983.000000	25.103792
1982.000000	25.024993
1981.000000	24.958940
1980.000000	24.866075
1979.000000	24.712360
1978.000000	24.606928
1977.000000	24.473280
1976.000000	24.397762
1975.000000	24.282256
1974.000000	24.141263
1973.000000	24.076791
1972.000000	23.982351
1971.000000	23.845819
1970.000000	23.738589
1969.000000	23.650432
1968.000000	23.589256
1967.000000	23.488301
1966.000000	23.406108
1965.000000	23.326927
1964.000000	23.191255
1963.000000	23.104909
1962.000000	22.974111
1961.000000	22.869988
1960.000000	22.834078
1959.000000	22.701239
1958.000000	22.676351
1957.000000	22.549647
1956.000000	22.450609
1955.000000	22.435183
1954.000000	22.359099
1953.000000	22.275044
1952.000000	22.258648
1951.000000	22.196964
1950.000000	22.111824
1949.000000	22.078603
1948.000000	22.033224
1947.000000	22.022945
1946.000000	22.036275
1945.000000	22.002843
1944.000000	21.949918
1943.000000	21.907577
1942.000000	21.984449
1941.000000	21.994739
1940.000000	22.082281
1939.000000	22.107366
1938.000000	22.193776
1937.000000	22.247763
1936.000000	22.347843
1935.000000	22.419738
1934.000000	22.449225
1933.000000	22.590491
1932.000000	22.642743
1931.000000	22.764409
1930.000000	22.894701
1929.000000	23.058247
1928.000000	23.279687
1927.000000	23.428407
1926.000000	23.558949
1925.000000	23.907153
1924.000000	24.241269
1923.000000	24.351693
1922.000000	24.568005
1921.000000	24.868462
1920.000000	25.169662
1919.000000	25.401627
1918.000000	25.649738
1917.000000	26.107208
1916.000000	26.186645
1915.000000	26.648391
1914.000000	26.970164
1913.000000	27.365604
1912.000000	27.823145
1911.000000	28.086352
1910.000000	28.524808
1909.000000	28.988937
1908.000000	29.297990
1907.000000	29.949694
1906.000000	30.232822
1905.000000	30.789713
1904.000000	31.171073
1903.000000	31.651877
1902.000000	32.214768
1901.000000	32.684676
1900.000000	33.124503
1899.000000	33.667405
1898.000000	34.150115
1897.000000	34.613416
1896.000000	35.066791
1895.000000	35.615192
1894.000000	36.060613
1893.000000	36.492219
1892.000000	36.938041
1891.000000	37.342563
1890.000000	37.790400
1889.000000	38.222096
1888.000000	38.624757
1887.000000	39.010290
1886.000000	39.420748
1885.000000	39.788890
1884.000000	40.158386
1883.000000	40.463855
1882.000000	40.823214
1881.000000	41.150761
1880.000000	41.452228
1879.000000	41.632451
1878.000000	41.908078
1877.000000	42.202364
1876.000000	42.406167
1875.000000	42.673744
1874.000000	42.873882
1873.000000	43.046598
1872.000000	43.264742
1871.000000	43.316934
1870.000000	43.589915
1869.000000	43.667525
1868.000000	43.798510
1867.000000	43.882968
1866.000000	43.961434
1865.000000	44.078987
1864.000000	44.190610
1863.000000	44.267532
1862.000000	44.289212
1861.000000	44.345123
1860.000000	44.423700
1859.000000	44.445051
1858.000000	44.471595
1857.000000	44.542491
1856.000000	44.574630
1855.000000	44.579480
1854.000000	44.619758
1853.000000	44.694515
1852.000000	44.715759
1851.000000	44.675396
1850.000000	44.684691
1849.000000	44.698773
1848.000000	44.715105
1847.000000	44.744236
1846.000000	44.758745
1845.000000	44.694926
1844.000000	44.690339
1843.000000	44.653101
1842.000000	44.677879
1841.000000	44.672236
1840.000000	44.633603
1839.000000	44.582531
1838.000000	44.543587
1837.000000	44.494197
1836.000000	44.474184
1835.000000	44.430232
1834.000000	44.390541
1833.000000	44.368868
1832.000000	44.337677
1831.000000	44.263964
1830.000000	44.279561
1829.000000	44.260282
1828.000000	44.207524
1827.000000	44.196641
1826.000000	44.157908
1825.000000	44.091203
1824.000000	44.082585
1823.000000	44.075374
1822.000000	44.009864
1821.000000	43.963983
1820.000000	43.959302
1819.000000	43.932849
1818.000000	43.908835
1817.000000	43.878953
1816.000000	43.849693
1815.000000	43.828917
1814.000000	43.805377
1813.000000	43.788340
1812.000000	43.762632
1811.000000	43.728871
1810.000000	43.704544
1809.000000	43.686800
1808.000000	43.688209
1807.000000	43.646224
1806.000000	43.600223
1805.000000	43.585002
1804.000000	43.583708
1803.000000	43.564917
1802.000000	43.538363
1801.000000	43.514245
1800.000000	43.485649
1799.000000	43.477441
1798.000000	43.480324
1797.000000	43.468866
1796.000000	43.457847
1795.000000	43.441216
1794.000000	43.437576
1793.000000	43.421637
1792.000000	43.400903
1791.000000	43.395235
1790.000000	43.375734
1789.000000	43.361561
1788.000000	43.351482
1787.000000	43.315869
1786.000000	43.298925
1785.000000	43.291548
1784.000000	43.271964
1783.000000	43.266592
1782.000000	43.240614
1781.000000	43.212442
1780.000000	43.179061
1779.000000	43.138273
1778.000000	43.094571
1777.000000	43.049444
1776.000000	42.974560
1775.000000	42.927552
1774.000000	42.893001
1773.000000	42.870386
1772.000000	42.823755
1771.000000	42.760899
1770.000000	42.690835
1769.000000	42.637072
1768.000000	42.617481
1767.000000	42.545472
1766.000000	42.496970
1765.000000	42.493085
1764.000000	42.429354
1763.000000	42.375811
1762.000000	42.321792
1761.000000	42.308906
1760.000000	42.264298
1759.000000	42.203598
1758.000000	42.178636
1757.000000	42.122641
1756.000000	42.110207
1755.000000	42.043381
1754.000000	42.020473
1753.000000	41.953007
1752.000000	41.925147
1751.000000	41.868663
1750.000000	41.814273
1749.000000	41.805092
1748.000000	41.752874
1747.000000	41.701763
1746.000000	41.602063
1745.000000	41.519787
1744.000000	41.488964
1743.000000	41.386895
1742.000000	41.305681
1741.000000	41.268414
1740.000000	41.239815
1739.000000	41.209362
1738.000000	41.131687
1737.000000	41.102537
1736.000000	41.091230
1735.000000	41.032455
1734.000000	41.027939
1733.000000	40.978126
1732.000000	40.968417
1731.000000	40.998586
1730.000000	40.963985
1729.000000	40.978382
1728.000000	41.072526
1727.000000	41.120714
1726.000000	41.162256
1725.000000	41.229590
1724.000000	41.274512
1723.000000	41.368356
1722.000000	41.479540
1721.000000	41.552501
1720.000000	41.657195
1719.000000	41.761663
1718.000000	41.796383
1717.000000	41.918606
1716.000000	42.037093
1715.000000	42.107269
1714.000000	42.216524
1713.000000	42.310099
1712.000000	42.388112
1711.000000	42.466616
1710.000000	42.522538
1709.000000	42.572856
1708.000000	42.671262
1707.000000	42.729550
1706.000000	42.778520
1705.000000	42.818056
1704.000000	42.871757
1703.000000	42.882880
1702.000000	42.929615
1701.000000	43.000408
1700.000000	42.976729
1699.000000	42.994538
1698.000000	43.050138
1697.000000	43.121053
1696.000000	43.168089
1695.000000	43.170445
1694.000000	43.247091
1693.000000	43.313416
1692.000000	43.357382
1691.000000	43.464357
1690.000000	43.503462
1689.000000	43.553876
1688.000000	43.641715
1687.000000	43.743537
1686.000000	43.848183
1685.000000	43.968112
1684.000000	44.071110
1683.000000	44.228689
1682.000000	44.358536
1681.000000	44.524793
1680.000000	44.648785
1679.000000	44.792338
1678.000000	44.935222
1677.000000	45.054247
1676.000000	45.207536
1675.000000	45.352495
1674.000000	45.480972
1673.000000	45.597503
1672.000000	45.718501
1671.000000	45.871511
1670.000000	45.960063
1669.000000	46.146473
1668.000000	46.261785
1667.000000	46.382526
1666.000000	46.427095
1665.000000	46.496788
1664.000000	46.567443
1663.000000	46.608705
1662.000000	46.674089
1661.000000	46.761218
1660.000000	46.825030
1659.000000	46.876143
1658.000000	46.940456
1657.000000	46.982506
1656.000000	47.021858
1655.000000	47.040319
1654.000000	47.067716
1653.000000	47.096709
1652.000000	47.092273
1651.000000	47.090095
1650.000000	47.107130
1649.000000	47.113017
1648.000000	47.087407
1647.000000	47.076711
1646.000000	47.118923
1645.000000	47.097431
1644.000000	47.059843
1643.000000	47.051081
1642.000000	47.041320
1641.000000	47.009973
1640.000000	47.012139
1639.000000	47.004358
1638.000000	46.972902
1637.000000	46.957214
1636.000000	46.925317
1635.000000	46.926404
1634.000000	46.892824
1633.000000	46.846325
1632.000000	46.806840
1631.000000	46.777078
1630.000000	46.753286
1629.000000	46.704429
1628.000000	46.676271
1627.000000	46.660899
1626.000000	46.640792
1625.000000	46.596673
1624.000000	46.569647
1623.000000	46.531540
1622.000000	46.486062
1621.000000	46.454036
1620.000000	46.423481
1619.000000	46.382445
1618.000000	46.332268
1617.000000	46.296623
1616.000000	46.250027
1615.000000	46.210940
1614.000000	46.172999
1613.000000	46.149973
1612.000000	46.119339
1611.000000	46.049756
1610.000000	45.992860
1609.000000	45.960761
1608.000000	45.929462
1607.000000	45.880966
1606.000000	45.813890
1605.000000	45.755267
1604.000000	45.721568
1603.000000	45.684825
1602.000000	45.635983
1601.000000	45.582030
1600.000000	45.532564
1599.000000	45.493938
1598.000000	45.444574
1597.000000	45.406086
1596.000000	45.385370
1595.000000	45.340135
1594.000000	45.283917
1593.000000	45.221976
1592.000000	45.187870
1591.000000	45.161764
1590.000000	45.116364
1589.000000	45.073674
1588.000000	45.037165
1587.000000	45.003854
1586.000000	44.983435
1585.000000	44.942097
1584.000000	44.888349
1583.000000	44.861552
1582.000000	44.818964
1581.000000	44.789776
1580.000000	44.763813
1579.000000	44.718212
1578.000000	44.695147
1577.000000	44.660944
1576.000000	44.620641
1575.000000	44.588682
1574.000000	44.537434
1573.000000	44.499998
1572.000000	44.467816
1571.000000	44.433383
1570.000000	44.401460
1569.000000	44.361709
1568.000000	44.332357
1567.000000	44.304954
1566.000000	44.278447
1565.000000	44.237008
1564.000000	44.206324
1563.000000	44.227920
1562.000000	44.206387
1561.000000	44.168272
1560.000000	44.152440
1559.000000	44.114788
1558.000000	44.075992
1557.000000	44.063704
1556.000000	44.039941
1555.000000	44.010199
1554.000000	43.972936
1553.000000	43.962502
1552.000000	43.915187
1551.000000	43.880706
1550.000000	43.864042
1549.000000	43.819103
1548.000000	43.787030
1547.000000	43.742722
1546.000000	43.668846
1545.000000	43.593074
1544.000000	43.553278
1543.000000	43.501186
1542.000000	43.407831
1541.000000	43.357604
1540.000000	43.297370
1539.000000	43.213995
1538.000000	43.138055
1537.000000	43.065875
1536.000000	42.989618
1535.000000	42.944931
1534.000000	42.861033
1533.000000	42.798961
1532.000000	42.724156
1531.000000	42.681729
1530.000000	42.602982
1529.000000	42.524595
1528.000000	42.465834
1527.000000	42.420100
1526.000000	42.376883
1525.000000	42.329000
1524.000000	42.274515
1523.000000	42.233050
1522.000000	42.190917
1521.000000	42.141512
1520.000000	42.111159
1519.000000	42.088372
1518.000000	42.075077
1517.000000	42.019334
1516.000000	42.005944
1515.000000	41.964510
1514.000000	41.956646
1513.000000	41.930211
1512.000000	41.912025
1511.000000	41.895776
1510.000000	41.865918
1509.000000	41.856358
1508.000000	41.861720
1507.000000	41.829889
1506.000000	41.810819
1505.000000	41.815536
1504.000000	41.806807
1503.000000	41.828495
1502.000000	41.801661
1501.000000	41.797898
1500.000000	41.807763
1499.000000	41.785548
1498.000000	41.793212
1497.000000	41.811046
1496.000000	41.813172
1495.000000	41.816759
1494.000000	41.809170
1493.000000	41.844708
1492.000000	41.849252
1491.000000	41.862432
1490.000000	41.895561
1489.000000	41.914067
1488.000000	41.926128
1487.000000	41.951040
1486.000000	41.977808
1485.000000	41.995907
1484.000000	42.021381
1483.000000	42.052065
1482.000000	42.056660
1481.000000	42.104475
1480.000000	42.142752
1479.000000	42.142230
1478.000000	42.184165
1477.000000	42.192118
1476.000000	42.202984
1475.000000	42.235814
1474.000000	42.255599
1473.000000	42.271101
1472.000000	42.314337
1471.000000	42.335995
1470.000000	42.358103
1469.000000	42.383059
