PE UV       SUBTECH     SPECTRUM    ASCII       PEDS        4.00        
   -1
RDmsfkat91.Sample.asc
18/03/14
11:45:27.00
18/03/14
11:45:27.00
Administrator

200.000000
1
Lambda 750
750N8071901
PerkinElmer UV WinLab 6.0.4.0738 / 1.61.00 Lambda 900

0
0
3350/servo 860.8/2
0
0
UV/VIS
1
1
1
CommonBeamDepol,150mm sphere / downward view
0
0
0
0
Program
Program
3350/servo 860.8/2
3350/0.2 860.8/0.2
3350/0.2 860.8/0.2
0
1
 
 
 
0
 
860.8
319.2
860.8
Front
100
on
 
 
0
0
0
 
0
 
 
 
0
 
 
0
0
0
0
0
 
 
 
 
0
0


0
0
#HDR
-1
-1
#GR
nm
%R
1.0
0.0
2350.000000
-1.000000
2151
8
50.895846
7.177616
#DATA
2350.000000	28.692250
2349.000000	28.376893
2348.000000	28.530025
2347.000000	28.941178
2346.000000	28.951396
2345.000000	28.685108
2344.000000	28.503552
2343.000000	28.453727
2342.000000	28.814287
2341.000000	28.728536
2340.000000	28.732010
2339.000000	29.048046
2338.000000	29.129393
2337.000000	29.238313
2336.000000	29.348728
2335.000000	29.554834
2334.000000	29.608984
2333.000000	29.653890
2332.000000	29.456497
2331.000000	29.394591
2330.000000	29.582889
2329.000000	29.484244
2328.000000	29.221857
2327.000000	29.014692
2326.000000	29.399221
2325.000000	29.529706
2324.000000	29.195922
2323.000000	29.152367
2322.000000	29.394459
2321.000000	29.169543
2320.000000	29.207031
2319.000000	29.049903
2318.000000	29.089541
2317.000000	29.415457
2316.000000	28.815830
2315.000000	28.910198
2314.000000	29.042888
2313.000000	28.887009
2312.000000	28.754302
2311.000000	28.667652
2310.000000	28.755919
2309.000000	28.637481
2308.000000	28.725725
2307.000000	28.587476
2306.000000	28.805021
2305.000000	28.364248
2304.000000	28.297255
2303.000000	28.320834
2302.000000	28.313623
2301.000000	28.094248
2300.000000	28.066161
2299.000000	28.125827
2298.000000	28.177745
2297.000000	28.085953
2296.000000	28.017317
2295.000000	27.922463
2294.000000	27.765136
2293.000000	27.816676
2292.000000	27.815442
2291.000000	27.727325
2290.000000	27.902310
2289.000000	27.951621
2288.000000	27.981651
2287.000000	27.894854
2286.000000	27.835021
2285.000000	27.654693
2284.000000	27.468855
2283.000000	27.465240
2282.000000	27.587177
2281.000000	27.558752
2280.000000	27.453286
2279.000000	27.620029
2278.000000	27.675397
2277.000000	27.705499
2276.000000	27.777884
2275.000000	27.685089
2274.000000	27.651803
2273.000000	27.787032
2272.000000	27.822265
2271.000000	27.828812
2270.000000	27.843133
2269.000000	27.845540
2268.000000	27.974667
2267.000000	28.006685
2266.000000	28.104766
2265.000000	28.203192
2264.000000	28.253847
2263.000000	28.318575
2262.000000	28.234546
2261.000000	28.466651
2260.000000	28.616577
2259.000000	28.720851
2258.000000	29.044738
2257.000000	29.178356
2256.000000	29.179506
2255.000000	29.205384
2254.000000	29.237354
2253.000000	29.251312
2252.000000	29.458804
2251.000000	29.708891
2250.000000	29.761369
2249.000000	29.929701
2248.000000	30.178381
2247.000000	30.327514
2246.000000	30.391259
2245.000000	30.475482
2244.000000	30.647862
2243.000000	30.776840
2242.000000	30.845661
2241.000000	31.065184
2240.000000	31.192451
2239.000000	31.176945
2238.000000	31.237500
2237.000000	31.263617
2236.000000	31.359462
2235.000000	31.464310
2234.000000	31.546923
2233.000000	31.562701
2232.000000	31.637845
2231.000000	31.630263
2230.000000	31.541182
2229.000000	31.668923
2228.000000	31.652742
2227.000000	31.688615
2226.000000	31.747073
2225.000000	31.708390
2224.000000	31.625082
2223.000000	31.642802
2222.000000	31.642057
2221.000000	31.729631
2220.000000	31.606566
2219.000000	31.572233
2218.000000	31.504841
2217.000000	31.446417
2216.000000	31.438278
2215.000000	31.455901
2214.000000	31.367087
2213.000000	31.478639
2212.000000	31.444705
2211.000000	31.354120
2210.000000	31.313000
2209.000000	31.163141
2208.000000	31.147070
2207.000000	31.140853
2206.000000	31.110430
2205.000000	30.986105
2204.000000	31.087007
2203.000000	31.058087
2202.000000	30.867311
2201.000000	30.949963
2200.000000	30.859836
2199.000000	30.864437
2198.000000	30.866152
2197.000000	30.731007
2196.000000	30.615373
2195.000000	30.597167
2194.000000	30.465986
2193.000000	30.497301
2192.000000	30.399530
2191.000000	30.357885
2190.000000	30.245029
2189.000000	30.289701
2188.000000	30.253820
2187.000000	30.245372
2186.000000	30.238412
2185.000000	30.180989
2184.000000	30.183861
2183.000000	30.263587
2182.000000	30.395406
2181.000000	30.251968
2180.000000	30.182548
2179.000000	30.217180
2178.000000	30.082344
2177.000000	30.340341
2176.000000	30.173888
2175.000000	30.059827
2174.000000	30.211013
2173.000000	30.273510
2172.000000	30.227878
2171.000000	30.321342
2170.000000	30.381393
2169.000000	30.476876
2168.000000	30.463242
2167.000000	30.695768
2166.000000	30.691469
2165.000000	30.748378
2164.000000	30.843284
2163.000000	30.749450
2162.000000	30.976852
2161.000000	30.961802
2160.000000	30.996578
2159.000000	31.169492
2158.000000	31.259457
2157.000000	31.413500
2156.000000	31.479428
2155.000000	31.432452
2154.000000	31.748990
2153.000000	31.856158
2152.000000	31.959715
2151.000000	32.098312
2150.000000	32.072515
2149.000000	32.082380
2148.000000	32.332355
2147.000000	32.261087
2146.000000	32.589386
2145.000000	32.430970
2144.000000	32.866255
2143.000000	32.857488
2142.000000	32.755459
2141.000000	32.857679
2140.000000	32.826300
2139.000000	33.043451
2138.000000	33.126966
2137.000000	33.146261
2136.000000	33.461492
2135.000000	33.242591
2134.000000	33.504686
2133.000000	33.144030
2132.000000	33.516914
2131.000000	33.587892
2130.000000	33.724785
2129.000000	33.647547
2128.000000	33.744424
2127.000000	33.687640
2126.000000	33.706938
2125.000000	33.681180
2124.000000	33.799803
2123.000000	33.858201
2122.000000	33.924294
2121.000000	33.977694
2120.000000	33.920925
2119.000000	33.940812
2118.000000	33.927341
2117.000000	33.951778
2116.000000	34.059460
2115.000000	34.104944
2114.000000	33.981014
2113.000000	33.908579
2112.000000	33.950443
2111.000000	34.100136
2110.000000	33.928207
2109.000000	34.048455
2108.000000	34.123882
2107.000000	34.022867
2106.000000	33.930509
2105.000000	33.977208
2104.000000	34.048823
2103.000000	34.012054
2102.000000	34.129586
2101.000000	34.129788
2100.000000	34.041463
2099.000000	34.069561
2098.000000	34.135578
2097.000000	34.048520
2096.000000	34.081225
2095.000000	34.086735
2094.000000	34.091645
2093.000000	34.079445
2092.000000	34.085961
2091.000000	34.001630
2090.000000	33.908686
2089.000000	33.906571
2088.000000	33.913036
2087.000000	33.948247
2086.000000	34.019604
2085.000000	33.860447
2084.000000	33.812222
2083.000000	33.858723
2082.000000	33.826491
2081.000000	33.765728
2080.000000	33.636914
2079.000000	33.561293
2078.000000	33.424897
2077.000000	33.438937
2076.000000	33.343123
2075.000000	33.248632
2074.000000	33.191103
2073.000000	33.105065
2072.000000	33.074665
2071.000000	33.037822
2070.000000	32.921718
2069.000000	32.741676
2068.000000	32.634815
2067.000000	32.530386
2066.000000	32.540159
2065.000000	32.380640
2064.000000	32.295438
2063.000000	32.303883
2062.000000	32.123555
2061.000000	31.949492
2060.000000	31.869005
2059.000000	31.817420
2058.000000	31.664342
2057.000000	31.589097
2056.000000	31.543620
2055.000000	31.471472
2054.000000	31.297332
2053.000000	31.227193
2052.000000	31.123417
2051.000000	31.027173
2050.000000	30.954696
2049.000000	30.856183
2048.000000	30.834763
2047.000000	30.823485
2046.000000	30.775359
2045.000000	30.720920
2044.000000	30.709239
2043.000000	30.682431
2042.000000	30.650088
2041.000000	30.690936
2040.000000	30.673510
2039.000000	30.695625
2038.000000	30.783533
2037.000000	30.832668
2036.000000	30.793227
2035.000000	30.852249
2034.000000	30.920433
2033.000000	30.964352
2032.000000	31.065975
2031.000000	31.131038
2030.000000	31.203759
2029.000000	31.299832
2028.000000	31.306849
2027.000000	31.335778
2026.000000	31.447900
2025.000000	31.507479
2024.000000	31.517112
2023.000000	31.526357
2022.000000	31.524258
2021.000000	31.548690
2020.000000	31.626156
2019.000000	31.624002
2018.000000	31.588352
2017.000000	31.598819
2016.000000	31.573336
2015.000000	31.531942
2014.000000	31.515209
2013.000000	31.499212
2012.000000	31.481796
2011.000000	31.445907
2010.000000	31.364971
2009.000000	31.278033
2008.000000	31.217207
2007.000000	31.138743
2006.000000	31.094203
2005.000000	31.018866
2004.000000	30.920427
2003.000000	30.889336
2002.000000	30.824996
2001.000000	30.741531
2000.000000	30.668036
1999.000000	30.589352
1998.000000	30.518184
1997.000000	30.466949
1996.000000	30.397928
1995.000000	30.315322
1994.000000	30.197237
1993.000000	30.066623
1992.000000	29.983811
1991.000000	29.910147
1990.000000	29.863282
1989.000000	29.751283
1988.000000	29.714747
1987.000000	29.657068
1986.000000	29.572435
1985.000000	29.455416
1984.000000	29.385639
1983.000000	29.333927
1982.000000	29.282228
1981.000000	29.257963
1980.000000	29.167808
1979.000000	29.086491
1978.000000	28.987933
1977.000000	28.896209
1976.000000	28.810202
1975.000000	28.751631
1974.000000	28.616206
1973.000000	28.556640
1972.000000	28.513757
1971.000000	28.443781
1970.000000	28.352367
1969.000000	28.294488
1968.000000	28.231308
1967.000000	28.187928
1966.000000	28.143961
1965.000000	28.050237
1964.000000	27.990680
1963.000000	27.902221
1962.000000	27.852870
1961.000000	27.796139
1960.000000	27.714149
1959.000000	27.665849
1958.000000	27.649691
1957.000000	27.601861
1956.000000	27.541844
1955.000000	27.515277
1954.000000	27.442863
1953.000000	27.424995
1952.000000	27.409365
1951.000000	27.416162
1950.000000	27.312187
1949.000000	27.302866
1948.000000	27.241747
1947.000000	27.216411
1946.000000	27.126608
1945.000000	27.190910
1944.000000	27.198809
1943.000000	27.253416
1942.000000	27.232320
1941.000000	27.233708
1940.000000	27.250268
1939.000000	27.388586
1938.000000	27.336542
1937.000000	27.500655
1936.000000	27.577574
1935.000000	27.571055
1934.000000	27.610277
1933.000000	27.757948
1932.000000	27.840259
1931.000000	27.776165
1930.000000	27.998471
1929.000000	27.975124
1928.000000	28.228345
1927.000000	28.343282
1926.000000	28.481743
1925.000000	28.571919
1924.000000	28.830568
1923.000000	29.019582
1922.000000	29.187309
1921.000000	29.438991
1920.000000	29.645420
1919.000000	29.758310
1918.000000	29.936215
1917.000000	30.163087
1916.000000	30.349050
1915.000000	30.670496
1914.000000	30.923280
1913.000000	31.290984
1912.000000	31.537549
1911.000000	31.785707
1910.000000	32.010327
1909.000000	32.282307
1908.000000	32.632537
1907.000000	32.992359
1906.000000	33.213538
1905.000000	33.618686
1904.000000	33.957902
1903.000000	34.273131
1902.000000	34.728630
1901.000000	35.152157
1900.000000	35.484846
1899.000000	35.826274
1898.000000	36.277863
1897.000000	36.619170
1896.000000	37.013540
1895.000000	37.351794
1894.000000	37.717574
1893.000000	38.131532
1892.000000	38.471187
1891.000000	38.839859
1890.000000	39.200501
1889.000000	39.554051
1888.000000	39.826481
1887.000000	40.165515
1886.000000	40.471185
1885.000000	40.791045
1884.000000	41.039413
1883.000000	41.343910
1882.000000	41.623733
1881.000000	41.922761
1880.000000	42.188097
1879.000000	42.377340
1878.000000	42.624812
1877.000000	42.870957
1876.000000	43.086880
1875.000000	43.260831
1874.000000	43.443806
1873.000000	43.652634
1872.000000	43.825244
1871.000000	43.990875
1870.000000	44.193760
1869.000000	44.322476
1868.000000	44.379720
1867.000000	44.447274
1866.000000	44.577655
1865.000000	44.673104
1864.000000	44.711291
1863.000000	44.748652
1862.000000	44.835334
1861.000000	44.919215
1860.000000	44.975914
1859.000000	44.965673
1858.000000	44.947677
1857.000000	45.031452
1856.000000	45.038122
1855.000000	45.060923
1854.000000	45.130642
1853.000000	45.165503
1852.000000	45.148785
1851.000000	45.143722
1850.000000	45.175938
1849.000000	45.167553
1848.000000	45.161036
1847.000000	45.180734
1846.000000	45.193844
1845.000000	45.209327
1844.000000	45.164354
1843.000000	45.163706
1842.000000	45.155630
1841.000000	45.130110
1840.000000	45.138075
1839.000000	45.157127
1838.000000	45.107444
1837.000000	45.064305
1836.000000	45.028808
1835.000000	44.989595
1834.000000	44.930078
1833.000000	44.898149
1832.000000	44.869324
1831.000000	44.801629
1830.000000	44.779001
1829.000000	44.787499
1828.000000	44.734522
1827.000000	44.681161
1826.000000	44.668653
1825.000000	44.633786
1824.000000	44.598767
1823.000000	44.587641
1822.000000	44.566918
1821.000000	44.531195
1820.000000	44.502213
1819.000000	44.478125
1818.000000	44.474134
1817.000000	44.426984
1816.000000	44.381322
1815.000000	44.362436
1814.000000	44.354384
1813.000000	44.335415
1812.000000	44.297638
1811.000000	44.261963
1810.000000	44.235582
1809.000000	44.236994
1808.000000	44.202758
1807.000000	44.150735
1806.000000	44.129766
1805.000000	44.103547
1804.000000	44.078333
1803.000000	44.045393
1802.000000	44.009518
1801.000000	44.008856
1800.000000	43.987939
1799.000000	43.973157
1798.000000	43.963196
1797.000000	43.950318
1796.000000	43.929793
1795.000000	43.904642
1794.000000	43.903065
1793.000000	43.869341
1792.000000	43.843480
1791.000000	43.847910
1790.000000	43.822148
1789.000000	43.801000
1788.000000	43.791244
1787.000000	43.795263
1786.000000	43.788369
1785.000000	43.736009
1784.000000	43.676688
1783.000000	43.702857
1782.000000	43.696213
1781.000000	43.663996
1780.000000	43.627069
1779.000000	43.618207
1778.000000	43.596244
1777.000000	43.563692
1776.000000	43.523485
1775.000000	43.485113
1774.000000	43.444405
1773.000000	43.423371
1772.000000	43.398094
1771.000000	43.323557
1770.000000	43.294210
1769.000000	43.262237
1768.000000	43.243665
1767.000000	43.192325
1766.000000	43.170807
1765.000000	43.141825
1764.000000	43.097373
1763.000000	43.029571
1762.000000	43.008395
1761.000000	42.990830
1760.000000	42.932756
1759.000000	42.930609
1758.000000	42.883385
1757.000000	42.876314
1756.000000	42.845375
1755.000000	42.799193
1754.000000	42.757161
1753.000000	42.730247
1752.000000	42.699043
1751.000000	42.677492
1750.000000	42.649305
1749.000000	42.622813
1748.000000	42.564747
1747.000000	42.484456
1746.000000	42.469715
1745.000000	42.404259
1744.000000	42.377859
1743.000000	42.359339
1742.000000	42.306019
1741.000000	42.251408
1740.000000	42.249232
1739.000000	42.206685
1738.000000	42.186166
1737.000000	42.178913
1736.000000	42.181120
1735.000000	42.129800
1734.000000	42.161284
1733.000000	42.148790
1732.000000	42.139548
1731.000000	42.191243
1730.000000	42.156951
1729.000000	42.181940
1728.000000	42.253067
1727.000000	42.253940
1726.000000	42.293156
1725.000000	42.367122
1724.000000	42.418733
1723.000000	42.465773
1722.000000	42.556168
1721.000000	42.605892
1720.000000	42.700432
1719.000000	42.775464
1718.000000	42.801818
1717.000000	42.888576
1716.000000	42.924068
1715.000000	42.989607
1714.000000	43.078814
1713.000000	43.128123
1712.000000	43.154354
1711.000000	43.210084
1710.000000	43.275290
1709.000000	43.313659
1708.000000	43.345217
1707.000000	43.355769
1706.000000	43.408564
1705.000000	43.404407
1704.000000	43.453826
1703.000000	43.454890
1702.000000	43.489446
1701.000000	43.459098
1700.000000	43.463722
1699.000000	43.497622
1698.000000	43.510935
1697.000000	43.531421
1696.000000	43.563175
1695.000000	43.539394
1694.000000	43.597421
1693.000000	43.658885
1692.000000	43.642641
1691.000000	43.710832
1690.000000	43.785372
1689.000000	43.782572
1688.000000	43.872757
1687.000000	43.960794
1686.000000	44.002956
1685.000000	44.108495
1684.000000	44.179857
1683.000000	44.297713
1682.000000	44.397570
1681.000000	44.516987
1680.000000	44.617353
1679.000000	44.733027
1678.000000	44.846716
1677.000000	44.915691
1676.000000	45.052525
1675.000000	45.185512
1674.000000	45.282212
1673.000000	45.394638
1672.000000	45.500910
1671.000000	45.575312
1670.000000	45.680143
1669.000000	45.806133
1668.000000	45.891703
1667.000000	46.013265
1666.000000	46.050338
1665.000000	46.085616
1664.000000	46.119650
1663.000000	46.176879
1662.000000	46.234201
1661.000000	46.288157
1660.000000	46.325116
1659.000000	46.377781
1658.000000	46.413842
1657.000000	46.451187
1656.000000	46.466479
1655.000000	46.481289
1654.000000	46.489800
1653.000000	46.516385
1652.000000	46.536095
1651.000000	46.507020
1650.000000	46.509510
1649.000000	46.497808
1648.000000	46.498162
1647.000000	46.491121
1646.000000	46.459343
1645.000000	46.481325
1644.000000	46.468751
1643.000000	46.431535
1642.000000	46.402027
1641.000000	46.378164
1640.000000	46.348665
1639.000000	46.348317
1638.000000	46.320070
1637.000000	46.295347
1636.000000	46.263091
1635.000000	46.244283
1634.000000	46.218587
1633.000000	46.164983
1632.000000	46.142622
1631.000000	46.123587
1630.000000	46.084739
1629.000000	46.033732
1628.000000	46.005173
1627.000000	45.965784
1626.000000	45.925043
1625.000000	45.887146
1624.000000	45.878976
1623.000000	45.850471
1622.000000	45.806513
1621.000000	45.758661
1620.000000	45.721053
1619.000000	45.664951
1618.000000	45.619608
1617.000000	45.583418
1616.000000	45.550044
1615.000000	45.490797
1614.000000	45.448007
1613.000000	45.391152
1612.000000	45.353145
1611.000000	45.325406
1610.000000	45.283703
1609.000000	45.235020
1608.000000	45.190487
1607.000000	45.154235
1606.000000	45.096748
1605.000000	45.043152
1604.000000	44.998754
1603.000000	44.941596
1602.000000	44.884603
1601.000000	44.841658
1600.000000	44.806048
1599.000000	44.762122
1598.000000	44.710074
1597.000000	44.663991
1596.000000	44.623635
1595.000000	44.589220
1594.000000	44.561311
1593.000000	44.515209
1592.000000	44.468640
1591.000000	44.428475
1590.000000	44.376458
1589.000000	44.341593
1588.000000	44.314630
1587.000000	44.264573
1586.000000	44.219937
1585.000000	44.191465
1584.000000	44.168867
1583.000000	44.131403
1582.000000	44.072761
1581.000000	44.052403
1580.000000	44.032373
1579.000000	43.998311
1578.000000	43.975011
1577.000000	43.933865
1576.000000	43.881628
1575.000000	43.862082
1574.000000	43.828248
1573.000000	43.774274
1572.000000	43.727423
1571.000000	43.700593
1570.000000	43.675040
1569.000000	43.646864
1568.000000	43.627389
1567.000000	43.578864
1566.000000	43.549886
1565.000000	43.525760
1564.000000	43.503913
1563.000000	43.486513
1562.000000	43.463113
1561.000000	43.440913
1560.000000	43.399921
1559.000000	43.380959
1558.000000	43.374785
1557.000000	43.344858
1556.000000	43.322205
1555.000000	43.308251
1554.000000	43.291983
1553.000000	43.260785
1552.000000	43.232543
1551.000000	43.211894
1550.000000	43.167262
1549.000000	43.142005
1548.000000	43.114260
1547.000000	43.068452
1546.000000	43.018349
1545.000000	42.963702
1544.000000	42.902850
1543.000000	42.851603
1542.000000	42.798046
1541.000000	42.724445
1540.000000	42.673175
1539.000000	42.614030
1538.000000	42.545153
1537.000000	42.471565
1536.000000	42.419617
1535.000000	42.369997
1534.000000	42.288243
1533.000000	42.257347
1532.000000	42.191370
1531.000000	42.121246
1530.000000	42.062023
1529.000000	41.994629
1528.000000	41.962493
1527.000000	41.913559
1526.000000	41.866021
1525.000000	41.802637
1524.000000	41.776032
1523.000000	41.731826
1522.000000	41.692420
1521.000000	41.661874
1520.000000	41.638080
1519.000000	41.595086
1518.000000	41.589936
1517.000000	41.567778
1516.000000	41.544661
1515.000000	41.516277
1514.000000	41.504676
1513.000000	41.484916
1512.000000	41.470329
1511.000000	41.443417
1510.000000	41.432947
1509.000000	41.400268
1508.000000	41.382593
1507.000000	41.371135
1506.000000	41.378008
1505.000000	41.356674
1504.000000	41.345146
1503.000000	41.370591
1502.000000	41.338533
1501.000000	41.318993
1500.000000	41.314412
1499.000000	41.289467
1498.000000	41.308533
1497.000000	41.309086
1496.000000	41.290716
1495.000000	41.300378
1494.000000	41.294882
1493.000000	41.312078
1492.000000	41.316560
1491.000000	41.327215
1490.000000	41.357860
1489.000000	41.342606
1488.000000	41.378682
1487.000000	41.387677
1486.000000	41.409688
1485.000000	41.425650
1484.000000	41.414153
1483.000000	41.466842
1482.000000	41.428203
1481.000000	41.483648
1480.000000	41.509625
1479.000000	41.512936
1478.000000	41.529231
1477.000000	41.547527
1476.000000	41.551559
1475.000000	41.579263
1474.000000	41.604148
1473.000000	41.602684
1472.000000	41.630155
1471.000000	41.654469
1470.000000	41.688542
