PE UV       SUBTECH     SPECTRUM    ASCII       PEDS        4.00        
   -1
RDmsmeh71.Sample.asc
18/03/14
09:47:57.00
18/03/14
09:47:57.00
Administrator

200.000000
1
Lambda 750
750N8071901
PerkinElmer UV WinLab 6.0.4.0738 / 1.61.00 Lambda 900

0
0
3350/servo 860.8/2
0
0
UV/VIS
1
1
1
CommonBeamDepol,150mm sphere / downward view
0
0
0
0
Program
Program
3350/servo 860.8/2
3350/0.2 860.8/0.2
3350/0.2 860.8/0.2
0
1
 
 
 
0
 
860.8
319.2
860.8
Front
100
on
 
 
0
0
0
 
0
 
 
 
0
 
 
0
0
0
0
0
 
 
 
 
0
0


0
0
#HDR
-1
-1
#GR
nm
%R
1.0
0.0
2350.000000
-1.000000
2151
8
62.969651
6.756215
#DATA
2350.000000	26.135393
2349.000000	26.169002
2348.000000	25.846737
2347.000000	26.121916
2346.000000	26.235645
2345.000000	25.776017
2344.000000	25.933899
2343.000000	25.792491
2342.000000	26.007815
2341.000000	26.502608
2340.000000	26.433198
2339.000000	26.730527
2338.000000	26.700759
2337.000000	26.871436
2336.000000	27.058313
2335.000000	27.425344
2334.000000	27.217859
2333.000000	27.233108
2332.000000	27.298670
2331.000000	27.170800
2330.000000	26.877029
2329.000000	26.646382
2328.000000	26.813093
2327.000000	27.006828
2326.000000	27.217023
2325.000000	27.035578
2324.000000	26.783162
2323.000000	26.584848
2322.000000	26.482140
2321.000000	26.715916
2320.000000	26.380114
2319.000000	26.392458
2318.000000	26.241897
2317.000000	26.273380
2316.000000	26.179854
2315.000000	25.999071
2314.000000	25.850255
2313.000000	25.906429
2312.000000	25.787675
2311.000000	25.823838
2310.000000	25.804500
2309.000000	25.726708
2308.000000	25.663501
2307.000000	25.378999
2306.000000	25.416010
2305.000000	25.568823
2304.000000	25.283878
2303.000000	25.529099
2302.000000	25.584629
2301.000000	25.341842
2300.000000	25.266146
2299.000000	25.278681
2298.000000	25.247519
2297.000000	25.408999
2296.000000	25.294349
2295.000000	25.343646
2294.000000	25.460527
2293.000000	25.406137
2292.000000	25.354590
2291.000000	25.121804
2290.000000	25.260075
2289.000000	25.335088
2288.000000	25.421217
2287.000000	25.442864
2286.000000	25.398971
2285.000000	25.208934
2284.000000	25.151902
2283.000000	25.095012
2282.000000	25.210392
2281.000000	25.248737
2280.000000	25.088958
2279.000000	25.397802
2278.000000	25.578351
2277.000000	25.570779
2276.000000	25.550671
2275.000000	25.591947
2274.000000	25.676415
2273.000000	26.087652
2272.000000	26.036495
2271.000000	25.954375
2270.000000	25.963078
2269.000000	26.118713
2268.000000	26.323894
2267.000000	26.443047
2266.000000	26.539364
2265.000000	26.455578
2264.000000	26.670212
2263.000000	26.906624
2262.000000	27.068049
2261.000000	27.179990
2260.000000	27.378116
2259.000000	27.523133
2258.000000	27.681262
2257.000000	27.911231
2256.000000	28.157430
2255.000000	28.324267
2254.000000	28.493449
2253.000000	28.675787
2252.000000	28.974750
2251.000000	29.170133
2250.000000	29.317749
2249.000000	29.537633
2248.000000	29.729743
2247.000000	30.055294
2246.000000	30.365887
2245.000000	30.467593
2244.000000	30.631878
2243.000000	30.844812
2242.000000	30.870436
2241.000000	30.896753
2240.000000	31.154898
2239.000000	31.373712
2238.000000	31.443468
2237.000000	31.511611
2236.000000	31.647147
2235.000000	31.712823
2234.000000	31.829020
2233.000000	32.030172
2232.000000	31.942867
2231.000000	31.848938
2230.000000	32.010208
2229.000000	32.184170
2228.000000	32.208873
2227.000000	32.097789
2226.000000	32.026627
2225.000000	32.014299
2224.000000	32.052128
2223.000000	32.032933
2222.000000	32.054400
2221.000000	32.133979
2220.000000	32.046242
2219.000000	32.067463
2218.000000	32.062425
2217.000000	31.958036
2216.000000	32.002449
2215.000000	31.989847
2214.000000	31.947408
2213.000000	31.844453
2212.000000	31.874867
2211.000000	31.673621
2210.000000	31.527050
2209.000000	31.466821
2208.000000	31.482398
2207.000000	31.455058
2206.000000	31.359792
2205.000000	31.238486
2204.000000	31.274904
2203.000000	31.157900
2202.000000	31.084419
2201.000000	30.968355
2200.000000	30.876505
2199.000000	30.760884
2198.000000	30.644612
2197.000000	30.612971
2196.000000	30.548202
2195.000000	30.402013
2194.000000	30.330593
2193.000000	30.301249
2192.000000	30.271464
2191.000000	30.172146
2190.000000	30.050374
2189.000000	30.080635
2188.000000	30.072037
2187.000000	29.918680
2186.000000	30.028111
2185.000000	29.832754
2184.000000	29.809114
2183.000000	29.815169
2182.000000	29.861112
2181.000000	29.731839
2180.000000	29.666999
2179.000000	29.647359
2178.000000	29.591004
2177.000000	29.685699
2176.000000	29.578956
2175.000000	29.678982
2174.000000	29.821051
2173.000000	29.829724
2172.000000	29.931378
2171.000000	30.006459
2170.000000	29.974920
2169.000000	30.158495
2168.000000	30.266107
2167.000000	30.214334
2166.000000	30.186522
2165.000000	30.328246
2164.000000	30.509086
2163.000000	30.546352
2162.000000	30.800146
2161.000000	30.784884
2160.000000	30.985289
2159.000000	31.053268
2158.000000	31.125964
2157.000000	31.264586
2156.000000	31.555196
2155.000000	31.482615
2154.000000	31.661236
2153.000000	31.996162
2152.000000	32.128542
2151.000000	32.244984
2150.000000	32.200653
2149.000000	32.497643
2148.000000	32.583682
2147.000000	32.578111
2146.000000	32.874523
2145.000000	33.084732
2144.000000	33.371851
2143.000000	33.401158
2142.000000	33.390363
2141.000000	33.540468
2140.000000	33.763677
2139.000000	33.719631
2138.000000	33.975642
2137.000000	34.073382
2136.000000	34.000000
2135.000000	34.275102
2134.000000	34.455843
2133.000000	34.050256
2132.000000	34.563956
2131.000000	34.889942
2130.000000	34.719579
2129.000000	34.807776
2128.000000	34.862135
2127.000000	34.807268
2126.000000	34.888175
2125.000000	35.088819
2124.000000	35.179874
2123.000000	34.893516
2122.000000	35.217154
2121.000000	35.191821
2120.000000	35.057382
2119.000000	35.114134
2118.000000	35.243656
2117.000000	35.267953
2116.000000	35.314884
2115.000000	35.331545
2114.000000	35.364123
2113.000000	35.329870
2112.000000	35.541274
2111.000000	35.531902
2110.000000	35.437946
2109.000000	35.395075
2108.000000	35.664035
2107.000000	35.555352
2106.000000	35.628184
2105.000000	35.595463
2104.000000	35.716640
2103.000000	35.736790
2102.000000	35.716345
2101.000000	35.762050
2100.000000	35.777498
2099.000000	35.901801
2098.000000	35.832851
2097.000000	35.710997
2096.000000	35.556863
2095.000000	35.567790
2094.000000	35.658086
2093.000000	35.626561
2092.000000	35.546469
2091.000000	35.533750
2090.000000	35.557075
2089.000000	35.473737
2088.000000	35.503218
2087.000000	35.447970
2086.000000	35.362146
2085.000000	35.332417
2084.000000	35.215187
2083.000000	35.227734
2082.000000	35.066521
2081.000000	34.924006
2080.000000	34.966525
2079.000000	34.904804
2078.000000	34.824320
2077.000000	34.732325
2076.000000	34.545590
2075.000000	34.442826
2074.000000	34.342806
2073.000000	34.153666
2072.000000	34.083371
2071.000000	33.949711
2070.000000	33.797735
2069.000000	33.581602
2068.000000	33.453871
2067.000000	33.348588
2066.000000	33.218595
2065.000000	33.035537
2064.000000	32.971891
2063.000000	32.757049
2062.000000	32.624811
2061.000000	32.435643
2060.000000	32.221922
2059.000000	32.135831
2058.000000	31.958192
2057.000000	31.893047
2056.000000	31.804431
2055.000000	31.662521
2054.000000	31.486458
2053.000000	31.361231
2052.000000	31.293913
2051.000000	31.155094
2050.000000	31.081316
2049.000000	30.965957
2048.000000	30.888735
2047.000000	30.913746
2046.000000	30.859064
2045.000000	30.827395
2044.000000	30.851157
2043.000000	30.864854
2042.000000	30.889244
2041.000000	30.931616
2040.000000	30.970825
2039.000000	30.949680
2038.000000	31.019212
2037.000000	31.100990
2036.000000	31.130160
2035.000000	31.181277
2034.000000	31.266434
2033.000000	31.425161
2032.000000	31.573784
2031.000000	31.641252
2030.000000	31.717560
2029.000000	31.815194
2028.000000	31.878211
2027.000000	31.978250
2026.000000	32.080716
2025.000000	32.116367
2024.000000	32.183129
2023.000000	32.240111
2022.000000	32.251412
2021.000000	32.244859
2020.000000	32.303540
2019.000000	32.326951
2018.000000	32.296516
2017.000000	32.328326
2016.000000	32.285934
2015.000000	32.205313
2014.000000	32.193855
2013.000000	32.197057
2012.000000	32.137817
2011.000000	32.057520
2010.000000	31.983754
2009.000000	31.894674
2008.000000	31.747665
2007.000000	31.643948
2006.000000	31.559714
2005.000000	31.465877
2004.000000	31.403130
2003.000000	31.308530
2002.000000	31.218783
2001.000000	31.097580
2000.000000	30.976536
1999.000000	30.862166
1998.000000	30.733427
1997.000000	30.621379
1996.000000	30.534948
1995.000000	30.456310
1994.000000	30.288558
1993.000000	30.157123
1992.000000	30.009052
1991.000000	29.875978
1990.000000	29.805374
1989.000000	29.646239
1988.000000	29.509546
1987.000000	29.429122
1986.000000	29.280267
1985.000000	29.175046
1984.000000	29.026128
1983.000000	28.886222
1982.000000	28.771822
1981.000000	28.739885
1980.000000	28.621255
1979.000000	28.462021
1978.000000	28.365002
1977.000000	28.227746
1976.000000	28.115849
1975.000000	28.004555
1974.000000	27.850811
1973.000000	27.745191
1972.000000	27.712844
1971.000000	27.550454
1970.000000	27.434599
1969.000000	27.333554
1968.000000	27.231194
1967.000000	27.143003
1966.000000	27.055126
1965.000000	26.963003
1964.000000	26.842103
1963.000000	26.767280
1962.000000	26.671222
1961.000000	26.560674
1960.000000	26.496057
1959.000000	26.422009
1958.000000	26.381125
1957.000000	26.257605
1956.000000	26.111042
1955.000000	26.013081
1954.000000	25.997131
1953.000000	25.991301
1952.000000	25.929453
1951.000000	25.933096
1950.000000	25.920090
1949.000000	25.828683
1948.000000	25.754509
1947.000000	25.718526
1946.000000	25.680673
1945.000000	25.702328
1944.000000	25.654428
1943.000000	25.753080
1942.000000	25.776345
1941.000000	25.868808
1940.000000	26.018946
1939.000000	25.980611
1938.000000	26.031574
1937.000000	26.056657
1936.000000	26.204615
1935.000000	26.205094
1934.000000	26.298890
1933.000000	26.432829
1932.000000	26.616135
1931.000000	26.711196
1930.000000	26.935645
1929.000000	27.090403
1928.000000	27.218272
1927.000000	27.448537
1926.000000	27.677739
1925.000000	27.854590
1924.000000	28.175344
1923.000000	28.500917
1922.000000	28.732423
1921.000000	29.041672
1920.000000	29.338167
1919.000000	29.563300
1918.000000	29.942592
1917.000000	30.265831
1916.000000	30.461438
1915.000000	31.033082
1914.000000	31.502397
1913.000000	31.897884
1912.000000	32.232192
1911.000000	32.653579
1910.000000	33.124872
1909.000000	33.555656
1908.000000	34.026037
1907.000000	34.532916
1906.000000	35.075727
1905.000000	35.640464
1904.000000	36.072435
1903.000000	36.701812
1902.000000	37.154869
1901.000000	37.741387
1900.000000	38.357104
1899.000000	38.959529
1898.000000	39.531060
1897.000000	40.085235
1896.000000	40.622021
1895.000000	41.187143
1894.000000	41.724207
1893.000000	42.251676
1892.000000	42.742513
1891.000000	43.264295
1890.000000	43.833226
1889.000000	44.269607
1888.000000	44.709572
1887.000000	45.141985
1886.000000	45.611821
1885.000000	46.082747
1884.000000	46.494756
1883.000000	46.918136
1882.000000	47.299071
1881.000000	47.664328
1880.000000	48.012879
1879.000000	48.263812
1878.000000	48.511729
1877.000000	48.857371
1876.000000	49.194507
1875.000000	49.430947
1874.000000	49.704179
1873.000000	49.849021
1872.000000	50.132022
1871.000000	50.316977
1870.000000	50.466700
1869.000000	50.671110
1868.000000	50.780906
1867.000000	50.928149
1866.000000	51.044129
1865.000000	51.140889
1864.000000	51.273108
1863.000000	51.342459
1862.000000	51.439751
1861.000000	51.471629
1860.000000	51.607944
1859.000000	51.647203
1858.000000	51.641529
1857.000000	51.722179
1856.000000	51.749568
1855.000000	51.738486
1854.000000	51.763734
1853.000000	51.834022
1852.000000	51.809921
1851.000000	51.813878
1850.000000	51.819696
1849.000000	51.818152
1848.000000	51.838580
1847.000000	51.850493
1846.000000	51.826255
1845.000000	51.818744
1844.000000	51.802492
1843.000000	51.798232
1842.000000	51.810189
1841.000000	51.738254
1840.000000	51.697325
1839.000000	51.676686
1838.000000	51.663267
1837.000000	51.600579
1836.000000	51.549206
1835.000000	51.509633
1834.000000	51.423021
1833.000000	51.393041
1832.000000	51.395790
1831.000000	51.351852
1830.000000	51.306742
1829.000000	51.245168
1828.000000	51.204849
1827.000000	51.157008
1826.000000	51.131211
1825.000000	51.111082
1824.000000	51.077007
1823.000000	51.023065
1822.000000	50.960953
1821.000000	50.948931
1820.000000	50.945030
1819.000000	50.890174
1818.000000	50.870789
1817.000000	50.851986
1816.000000	50.825711
1815.000000	50.792326
1814.000000	50.743865
1813.000000	50.698460
1812.000000	50.641025
1811.000000	50.611050
1810.000000	50.599635
1809.000000	50.600157
1808.000000	50.606947
1807.000000	50.560872
1806.000000	50.527465
1805.000000	50.506126
1804.000000	50.458585
1803.000000	50.446816
1802.000000	50.429688
1801.000000	50.382845
1800.000000	50.377883
1799.000000	50.361900
1798.000000	50.339288
1797.000000	50.320326
1796.000000	50.293103
1795.000000	50.268617
1794.000000	50.255410
1793.000000	50.247530
1792.000000	50.217232
1791.000000	50.204429
1790.000000	50.164946
1789.000000	50.170684
1788.000000	50.164594
1787.000000	50.137782
1786.000000	50.124263
1785.000000	50.078455
1784.000000	50.034733
1783.000000	50.016631
1782.000000	50.009179
1781.000000	49.959987
1780.000000	49.909729
1779.000000	49.889195
1778.000000	49.800375
1777.000000	49.708397
1776.000000	49.670675
1775.000000	49.596990
1774.000000	49.557011
1773.000000	49.471003
1772.000000	49.419524
1771.000000	49.350834
1770.000000	49.289926
1769.000000	49.212763
1768.000000	49.165442
1767.000000	49.139642
1766.000000	49.080979
1765.000000	48.997526
1764.000000	48.981540
1763.000000	48.923858
1762.000000	48.857454
1761.000000	48.816345
1760.000000	48.755542
1759.000000	48.718802
1758.000000	48.706895
1757.000000	48.628984
1756.000000	48.591697
1755.000000	48.536102
1754.000000	48.484123
1753.000000	48.412768
1752.000000	48.401558
1751.000000	48.305728
1750.000000	48.239273
1749.000000	48.231144
1748.000000	48.152013
1747.000000	48.023746
1746.000000	47.992908
1745.000000	47.888351
1744.000000	47.811937
1743.000000	47.727704
1742.000000	47.658155
1741.000000	47.572876
1740.000000	47.500436
1739.000000	47.463748
1738.000000	47.385654
1737.000000	47.326452
1736.000000	47.276033
1735.000000	47.232153
1734.000000	47.233251
1733.000000	47.201863
1732.000000	47.189173
1731.000000	47.225248
1730.000000	47.225486
1729.000000	47.250900
1728.000000	47.308139
1727.000000	47.363090
1726.000000	47.443356
1725.000000	47.528162
1724.000000	47.644536
1723.000000	47.703594
1722.000000	47.837010
1721.000000	47.918563
1720.000000	48.050964
1719.000000	48.208127
1718.000000	48.267652
1717.000000	48.383417
1716.000000	48.514476
1715.000000	48.641618
1714.000000	48.745350
1713.000000	48.843643
1712.000000	48.959000
1711.000000	49.034850
1710.000000	49.128332
1709.000000	49.188676
1708.000000	49.278087
1707.000000	49.329631
1706.000000	49.397276
1705.000000	49.469962
1704.000000	49.537518
1703.000000	49.572209
1702.000000	49.622031
1701.000000	49.642700
1700.000000	49.716757
1699.000000	49.729857
1698.000000	49.793016
1697.000000	49.895583
1696.000000	49.904827
1695.000000	49.960825
1694.000000	50.028898
1693.000000	50.118926
1692.000000	50.165185
1691.000000	50.284445
1690.000000	50.365996
1689.000000	50.480354
1688.000000	50.597730
1687.000000	50.741290
1686.000000	50.821246
1685.000000	50.986833
1684.000000	51.125577
1683.000000	51.280087
1682.000000	51.468587
1681.000000	51.618525
1680.000000	51.780460
1679.000000	51.924738
1678.000000	52.109298
1677.000000	52.299504
1676.000000	52.456756
1675.000000	52.637518
1674.000000	52.746101
1673.000000	52.945238
1672.000000	53.106752
1671.000000	53.225295
1670.000000	53.364562
1669.000000	53.536896
1668.000000	53.663225
1667.000000	53.806057
1666.000000	53.873155
1665.000000	53.968997
1664.000000	54.055212
1663.000000	54.127718
1662.000000	54.203763
1661.000000	54.266770
1660.000000	54.337113
1659.000000	54.392406
1658.000000	54.462601
1657.000000	54.502735
1656.000000	54.525441
1655.000000	54.571933
1654.000000	54.591969
1653.000000	54.593809
1652.000000	54.589836
1651.000000	54.594299
1650.000000	54.608736
1649.000000	54.627744
1648.000000	54.582474
1647.000000	54.588588
1646.000000	54.600949
1645.000000	54.604181
1644.000000	54.589499
1643.000000	54.545104
1642.000000	54.559040
1641.000000	54.526548
1640.000000	54.493288
1639.000000	54.455727
1638.000000	54.436198
1637.000000	54.432980
1636.000000	54.376848
1635.000000	54.337931
1634.000000	54.346824
1633.000000	54.316262
1632.000000	54.267562
1631.000000	54.231076
1630.000000	54.193442
1629.000000	54.158894
1628.000000	54.105765
1627.000000	54.079300
1626.000000	54.033622
1625.000000	53.987542
1624.000000	53.950813
1623.000000	53.903562
1622.000000	53.865261
1621.000000	53.825775
1620.000000	53.782669
1619.000000	53.744684
1618.000000	53.678164
1617.000000	53.631257
1616.000000	53.601670
1615.000000	53.543340
1614.000000	53.485625
1613.000000	53.449747
1612.000000	53.406032
1611.000000	53.341384
1610.000000	53.288866
1609.000000	53.246941
1608.000000	53.183972
1607.000000	53.128213
1606.000000	53.063399
1605.000000	52.995340
1604.000000	52.942213
1603.000000	52.888686
1602.000000	52.837553
1601.000000	52.793568
1600.000000	52.735629
1599.000000	52.678700
1598.000000	52.624175
1597.000000	52.569077
1596.000000	52.521072
1595.000000	52.477826
1594.000000	52.426210
1593.000000	52.367438
1592.000000	52.317972
1591.000000	52.265041
1590.000000	52.229595
1589.000000	52.177300
1588.000000	52.119593
1587.000000	52.098376
1586.000000	52.057989
1585.000000	51.996519
1584.000000	51.944488
1583.000000	51.909602
1582.000000	51.863127
1581.000000	51.815937
1580.000000	51.784653
1579.000000	51.741423
1578.000000	51.719161
1577.000000	51.657273
1576.000000	51.583439
1575.000000	51.569270
1574.000000	51.526188
1573.000000	51.469223
1572.000000	51.439315
1571.000000	51.401477
1570.000000	51.365494
1569.000000	51.316001
1568.000000	51.262025
1567.000000	51.236834
1566.000000	51.206605
1565.000000	51.176232
1564.000000	51.141418
1563.000000	51.135658
1562.000000	51.109239
1561.000000	51.059191
1560.000000	51.039826
1559.000000	50.999939
1558.000000	50.973640
1557.000000	50.947509
1556.000000	50.910892
1555.000000	50.892574
1554.000000	50.854456
1553.000000	50.813607
1552.000000	50.784352
1551.000000	50.764450
1550.000000	50.700931
1549.000000	50.638171
1548.000000	50.606961
1547.000000	50.546585
1546.000000	50.466962
1545.000000	50.394573
1544.000000	50.324657
1543.000000	50.246783
1542.000000	50.191906
1541.000000	50.109036
1540.000000	50.029362
1539.000000	49.941077
1538.000000	49.863644
1537.000000	49.769909
1536.000000	49.678102
1535.000000	49.604714
1534.000000	49.529002
1533.000000	49.455754
1532.000000	49.390161
1531.000000	49.314662
1530.000000	49.246182
1529.000000	49.152602
1528.000000	49.084195
1527.000000	48.997042
1526.000000	48.956299
1525.000000	48.881807
1524.000000	48.828315
1523.000000	48.783595
1522.000000	48.735885
1521.000000	48.684008
1520.000000	48.665081
1519.000000	48.598118
1518.000000	48.568527
1517.000000	48.547911
1516.000000	48.512731
1515.000000	48.481212
1514.000000	48.438055
1513.000000	48.420657
1512.000000	48.398408
1511.000000	48.395061
1510.000000	48.355622
1509.000000	48.324346
1508.000000	48.318952
1507.000000	48.275321
1506.000000	48.278984
1505.000000	48.278890
1504.000000	48.251632
1503.000000	48.271261
1502.000000	48.260940
1501.000000	48.247308
1500.000000	48.251397
1499.000000	48.226806
1498.000000	48.234505
1497.000000	48.237773
1496.000000	48.243763
1495.000000	48.244318
1494.000000	48.257761
1493.000000	48.289741
1492.000000	48.286017
1491.000000	48.312980
1490.000000	48.345432
1489.000000	48.359137
1488.000000	48.400395
1487.000000	48.413257
1486.000000	48.457316
1485.000000	48.480380
1484.000000	48.492308
1483.000000	48.525756
1482.000000	48.547653
1481.000000	48.576846
1480.000000	48.626353
1479.000000	48.621485
1478.000000	48.671156
1477.000000	48.705451
1476.000000	48.705600
1475.000000	48.757797
1474.000000	48.766675
1473.000000	48.792548
1472.000000	48.807691
1471.000000	48.813377
1470.000000	48.885566
1469.000000	48.897549
