PE UV       SUBTECH     SPECTRUM    ASCII       PEDS        4.00        
   -1
RDmsfkat101.Sample.asc
18/03/14
14:46:56.00
18/03/14
14:46:56.00
Administrator

200.000000
1
Lambda 750
750N8071901
PerkinElmer UV WinLab 6.0.4.0738 / 1.61.00 Lambda 900

0
0
3350/servo 860.8/2
0
0
UV/VIS
1
1
1
CommonBeamDepol,150mm sphere / downward view
0
0
0
0
Program
Program
3350/servo 860.8/2
3350/0.2 860.8/0.2
3350/0.2 860.8/0.2
0
1
 
 
 
0
 
860.8
319.2
860.8
Front
100
on
 
 
0
0
0
 
0
 
 
 
0
 
 
0
0
0
0
0
 
 
 
 
0
0


0
0
#HDR
-1
-1
#GR
nm
%R
1.0
0.0
2350.000000
-1.000000
2151
8
46.501633
6.390638
#DATA
2350.000000	25.316579
2349.000000	25.366435
2348.000000	24.881392
2347.000000	26.027112
2346.000000	25.652584
2345.000000	25.471689
2344.000000	25.371062
2343.000000	24.986362
2342.000000	23.081001
2341.000000	25.644666
2340.000000	25.707072
2339.000000	25.907777
2338.000000	25.732915
2337.000000	26.318173
2336.000000	26.421192
2335.000000	26.523538
2334.000000	26.613710
2333.000000	26.447766
2332.000000	26.646095
2331.000000	26.610048
2330.000000	26.533665
2329.000000	26.136796
2328.000000	26.394819
2327.000000	26.208735
2326.000000	26.193754
2325.000000	25.948485
2324.000000	26.037166
2323.000000	26.280552
2322.000000	26.265006
2321.000000	26.186566
2320.000000	25.754298
2319.000000	25.872317
2318.000000	25.944524
2317.000000	26.007917
2316.000000	25.834280
2315.000000	25.919795
2314.000000	25.786595
2313.000000	25.962453
2312.000000	25.875917
2311.000000	25.930542
2310.000000	25.898968
2309.000000	25.602574
2308.000000	25.600596
2307.000000	25.794088
2306.000000	25.709938
2305.000000	25.654536
2304.000000	25.418842
2303.000000	25.392317
2302.000000	25.456997
2301.000000	25.282066
2300.000000	25.372554
2299.000000	25.542557
2298.000000	25.428827
2297.000000	25.399281
2296.000000	25.254724
2295.000000	25.294728
2294.000000	25.317216
2293.000000	25.246108
2292.000000	25.219363
2291.000000	25.238303
2290.000000	25.241078
2289.000000	25.307356
2288.000000	25.084608
2287.000000	25.052715
2286.000000	24.941561
2285.000000	24.974657
2284.000000	25.030826
2283.000000	24.892798
2282.000000	24.898876
2281.000000	25.138389
2280.000000	25.053870
2279.000000	25.036035
2278.000000	25.050044
2277.000000	24.999318
2276.000000	24.916285
2275.000000	25.142753
2274.000000	25.261847
2273.000000	25.302272
2272.000000	25.312955
2271.000000	25.142685
2270.000000	25.025578
2269.000000	25.276728
2268.000000	25.387442
2267.000000	25.418326
2266.000000	25.527713
2265.000000	25.589411
2264.000000	25.601952
2263.000000	25.686692
2262.000000	25.711976
2261.000000	25.713708
2260.000000	25.804504
2259.000000	26.125830
2258.000000	26.159804
2257.000000	26.209730
2256.000000	26.321375
2255.000000	26.246284
2254.000000	26.318236
2253.000000	26.442985
2252.000000	26.607012
2251.000000	26.691626
2250.000000	26.654211
2249.000000	26.798322
2248.000000	26.886142
2247.000000	27.007965
2246.000000	27.205368
2245.000000	27.329168
2244.000000	27.459589
2243.000000	27.588136
2242.000000	27.666670
2241.000000	27.753552
2240.000000	27.833904
2239.000000	27.813104
2238.000000	27.789192
2237.000000	27.792106
2236.000000	27.904918
2235.000000	27.914985
2234.000000	27.895872
2233.000000	27.986588
2232.000000	27.967677
2231.000000	28.020767
2230.000000	28.232407
2229.000000	28.309346
2228.000000	28.266320
2227.000000	28.224839
2226.000000	28.153319
2225.000000	28.199483
2224.000000	28.303332
2223.000000	28.348019
2222.000000	28.213046
2221.000000	28.181428
2220.000000	28.301513
2219.000000	28.308633
2218.000000	28.164191
2217.000000	28.056071
2216.000000	28.037991
2215.000000	28.071046
2214.000000	28.091469
2213.000000	28.127848
2212.000000	28.184688
2211.000000	28.056690
2210.000000	27.968055
2209.000000	27.955177
2208.000000	27.936906
2207.000000	27.868735
2206.000000	27.801425
2205.000000	27.721839
2204.000000	27.913812
2203.000000	27.789470
2202.000000	27.720908
2201.000000	27.685397
2200.000000	27.674574
2199.000000	27.614501
2198.000000	27.720497
2197.000000	27.685202
2196.000000	27.668248
2195.000000	27.479359
2194.000000	27.458733
2193.000000	27.351383
2192.000000	27.181415
2191.000000	27.384053
2190.000000	27.304119
2189.000000	27.261630
2188.000000	27.264037
2187.000000	27.203451
2186.000000	27.372478
2185.000000	27.289056
2184.000000	27.292060
2183.000000	27.368057
2182.000000	27.368614
2181.000000	27.363093
2180.000000	27.345063
2179.000000	27.337292
2178.000000	27.056047
2177.000000	27.126477
2176.000000	27.407834
2175.000000	27.343743
2174.000000	27.240743
2173.000000	27.344443
2172.000000	27.492862
2171.000000	27.527702
2170.000000	27.474336
2169.000000	27.717374
2168.000000	27.690358
2167.000000	27.667497
2166.000000	27.709377
2165.000000	27.603280
2164.000000	27.818672
2163.000000	27.736290
2162.000000	27.843523
2161.000000	28.135328
2160.000000	28.133690
2159.000000	28.093281
2158.000000	27.971960
2157.000000	28.269003
2156.000000	28.446213
2155.000000	28.318098
2154.000000	28.561049
2153.000000	28.700993
2152.000000	28.682896
2151.000000	28.666660
2150.000000	28.839052
2149.000000	28.941297
2148.000000	28.969994
2147.000000	29.062967
2146.000000	28.918565
2145.000000	29.087721
2144.000000	29.284808
2143.000000	29.163957
2142.000000	29.226696
2141.000000	29.467517
2140.000000	29.379966
2139.000000	29.377132
2138.000000	29.601577
2137.000000	29.512264
2136.000000	29.669859
2135.000000	29.650556
2134.000000	29.716252
2133.000000	29.484559
2132.000000	29.854028
2131.000000	30.011134
2130.000000	29.993051
2129.000000	29.884027
2128.000000	29.838580
2127.000000	29.926876
2126.000000	29.964341
2125.000000	29.988797
2124.000000	30.148955
2123.000000	30.121209
2122.000000	30.116147
2121.000000	30.125346
2120.000000	29.984282
2119.000000	30.178285
2118.000000	30.144230
2117.000000	30.212612
2116.000000	30.169670
2115.000000	30.285965
2114.000000	30.310320
2113.000000	30.315861
2112.000000	30.259690
2111.000000	30.223424
2110.000000	30.254721
2109.000000	30.163345
2108.000000	30.334415
2107.000000	30.249465
2106.000000	30.274799
2105.000000	30.327038
2104.000000	30.213266
2103.000000	30.261040
2102.000000	30.224842
2101.000000	30.385251
2100.000000	30.286679
2099.000000	30.286736
2098.000000	30.286702
2097.000000	30.278644
2096.000000	30.310656
2095.000000	30.228794
2094.000000	30.284781
2093.000000	30.341017
2092.000000	30.323058
2091.000000	30.302388
2090.000000	30.216302
2089.000000	30.189261
2088.000000	30.318985
2087.000000	30.191475
2086.000000	30.224951
2085.000000	30.297108
2084.000000	30.204265
2083.000000	30.090964
2082.000000	30.109935
2081.000000	30.050837
2080.000000	30.004443
2079.000000	29.995605
2078.000000	29.877444
2077.000000	29.896277
2076.000000	29.857833
2075.000000	29.820412
2074.000000	29.744570
2073.000000	29.640775
2072.000000	29.622502
2071.000000	29.700896
2070.000000	29.552377
2069.000000	29.398228
2068.000000	29.282450
2067.000000	29.351934
2066.000000	29.231487
2065.000000	29.081620
2064.000000	29.112358
2063.000000	29.010761
2062.000000	28.965367
2061.000000	28.829561
2060.000000	28.827218
2059.000000	28.794379
2058.000000	28.678965
2057.000000	28.572929
2056.000000	28.515916
2055.000000	28.395794
2054.000000	28.333852
2053.000000	28.362645
2052.000000	28.250458
2051.000000	28.123472
2050.000000	28.067084
2049.000000	28.030979
2048.000000	28.008522
2047.000000	28.038138
2046.000000	28.012568
2045.000000	27.948928
2044.000000	27.912889
2043.000000	27.894047
2042.000000	27.904746
2041.000000	27.963052
2040.000000	27.984123
2039.000000	27.958235
2038.000000	27.983394
2037.000000	27.972116
2036.000000	28.023747
2035.000000	28.130098
2034.000000	28.175999
2033.000000	28.148620
2032.000000	28.175477
2031.000000	28.232105
2030.000000	28.307160
2029.000000	28.380393
2028.000000	28.448019
2027.000000	28.483346
2026.000000	28.524667
2025.000000	28.607722
2024.000000	28.617245
2023.000000	28.608377
2022.000000	28.600660
2021.000000	28.636867
2020.000000	28.670309
2019.000000	28.617206
2018.000000	28.605257
2017.000000	28.626523
2016.000000	28.604277
2015.000000	28.589069
2014.000000	28.613071
2013.000000	28.638271
2012.000000	28.586903
2011.000000	28.548544
2010.000000	28.496157
2009.000000	28.419146
2008.000000	28.376858
2007.000000	28.351252
2006.000000	28.294759
2005.000000	28.238750
2004.000000	28.181229
2003.000000	28.135544
2002.000000	28.110037
2001.000000	28.105065
2000.000000	28.062595
1999.000000	28.002225
1998.000000	27.942160
1997.000000	27.910236
1996.000000	27.834870
1995.000000	27.758587
1994.000000	27.696401
1993.000000	27.649882
1992.000000	27.603576
1991.000000	27.542143
1990.000000	27.540675
1989.000000	27.460812
1988.000000	27.358894
1987.000000	27.290002
1986.000000	27.260645
1985.000000	27.245700
1984.000000	27.150832
1983.000000	27.092768
1982.000000	27.048670
1981.000000	27.060265
1980.000000	27.052692
1979.000000	26.944914
1978.000000	26.906730
1977.000000	26.859693
1976.000000	26.773668
1975.000000	26.726099
1974.000000	26.701908
1973.000000	26.651059
1972.000000	26.631470
1971.000000	26.511501
1970.000000	26.457120
1969.000000	26.422578
1968.000000	26.407500
1967.000000	26.358347
1966.000000	26.355189
1965.000000	26.351313
1964.000000	26.210325
1963.000000	26.226933
1962.000000	26.207220
1961.000000	26.081995
1960.000000	26.079755
1959.000000	26.062628
1958.000000	26.037080
1957.000000	25.951447
1956.000000	25.905383
1955.000000	25.888371
1954.000000	25.881550
1953.000000	25.888054
1952.000000	25.865831
1951.000000	25.848610
1950.000000	25.830261
1949.000000	25.800221
1948.000000	25.828461
1947.000000	25.790351
1946.000000	25.727447
1945.000000	25.779774
1944.000000	25.784443
1943.000000	25.859140
1942.000000	25.804194
1941.000000	25.779401
1940.000000	25.854108
1939.000000	25.868038
1938.000000	25.942323
1937.000000	25.962826
1936.000000	25.974288
1935.000000	26.061830
1934.000000	26.137585
1933.000000	26.139764
1932.000000	26.197133
1931.000000	26.292025
1930.000000	26.300012
1929.000000	26.408737
1928.000000	26.539499
1927.000000	26.565626
1926.000000	26.721386
1925.000000	26.777281
1924.000000	26.826365
1923.000000	27.032713
1922.000000	27.054265
1921.000000	27.279071
1920.000000	27.374661
1919.000000	27.474726
1918.000000	27.689385
1917.000000	27.893101
1916.000000	27.885202
1915.000000	28.177175
1914.000000	28.459508
1913.000000	28.670019
1912.000000	28.789921
1911.000000	28.820114
1910.000000	29.031566
1909.000000	29.366825
1908.000000	29.556742
1907.000000	29.818970
1906.000000	30.006384
1905.000000	30.290970
1904.000000	30.538949
1903.000000	30.786154
1902.000000	31.131111
1901.000000	31.420625
1900.000000	31.657833
1899.000000	31.896246
1898.000000	32.270387
1897.000000	32.508022
1896.000000	32.780165
1895.000000	33.104999
1894.000000	33.363572
1893.000000	33.641742
1892.000000	33.898882
1891.000000	34.172862
1890.000000	34.459929
1889.000000	34.761240
1888.000000	35.024442
1887.000000	35.326821
1886.000000	35.598745
1885.000000	35.883115
1884.000000	36.128440
1883.000000	36.350894
1882.000000	36.663855
1881.000000	36.799584
1880.000000	37.044896
1879.000000	37.152308
1878.000000	37.326436
1877.000000	37.580922
1876.000000	37.771060
1875.000000	37.949269
1874.000000	38.048622
1873.000000	38.197203
1872.000000	38.368558
1871.000000	38.455651
1870.000000	38.587404
1869.000000	38.714740
1868.000000	38.826106
1867.000000	38.882624
1866.000000	38.891005
1865.000000	38.965373
1864.000000	39.051295
1863.000000	39.074240
1862.000000	39.143549
1861.000000	39.164746
1860.000000	39.252711
1859.000000	39.296974
1858.000000	39.277641
1857.000000	39.352000
1856.000000	39.404554
1855.000000	39.388368
1854.000000	39.452915
1853.000000	39.522746
1852.000000	39.521963
1851.000000	39.521790
1850.000000	39.507803
1849.000000	39.494917
1848.000000	39.531136
1847.000000	39.547089
1846.000000	39.555744
1845.000000	39.543435
1844.000000	39.504764
1843.000000	39.474804
1842.000000	39.459606
1841.000000	39.468846
1840.000000	39.455967
1839.000000	39.443618
1838.000000	39.434910
1837.000000	39.374853
1836.000000	39.303590
1835.000000	39.295862
1834.000000	39.285830
1833.000000	39.237888
1832.000000	39.210592
1831.000000	39.190144
1830.000000	39.168571
1829.000000	39.127284
1828.000000	39.105753
1827.000000	39.114345
1826.000000	39.091651
1825.000000	39.057828
1824.000000	39.037891
1823.000000	39.025296
1822.000000	38.982805
1821.000000	38.944229
1820.000000	38.929675
1819.000000	38.908902
1818.000000	38.895900
1817.000000	38.863796
1816.000000	38.845574
1815.000000	38.837483
1814.000000	38.812024
1813.000000	38.805495
1812.000000	38.785380
1811.000000	38.757901
1810.000000	38.762977
1809.000000	38.753088
1808.000000	38.739071
1807.000000	38.711607
1806.000000	38.686441
1805.000000	38.643370
1804.000000	38.646476
1803.000000	38.643046
1802.000000	38.615003
1801.000000	38.599557
1800.000000	38.600951
1799.000000	38.606273
1798.000000	38.590669
1797.000000	38.570287
1796.000000	38.547786
1795.000000	38.559678
1794.000000	38.585240
1793.000000	38.571220
1792.000000	38.528301
1791.000000	38.526367
1790.000000	38.542855
1789.000000	38.531181
1788.000000	38.538043
1787.000000	38.560375
1786.000000	38.531586
1785.000000	38.508469
1784.000000	38.509084
1783.000000	38.521932
1782.000000	38.500743
1781.000000	38.466462
1780.000000	38.431921
1779.000000	38.425752
1778.000000	38.401137
1777.000000	38.353272
1776.000000	38.348499
1775.000000	38.320623
1774.000000	38.286235
1773.000000	38.255624
1772.000000	38.214437
1771.000000	38.203145
1770.000000	38.190930
1769.000000	38.145094
1768.000000	38.094427
1767.000000	38.046299
1766.000000	38.010740
1765.000000	37.990549
1764.000000	38.003144
1763.000000	37.988570
1762.000000	37.956298
1761.000000	37.926862
1760.000000	37.891223
1759.000000	37.858877
1758.000000	37.831061
1757.000000	37.796474
1756.000000	37.791412
1755.000000	37.756219
1754.000000	37.725201
1753.000000	37.695679
1752.000000	37.669024
1751.000000	37.631234
1750.000000	37.637085
1749.000000	37.632209
1748.000000	37.593611
1747.000000	37.529295
1746.000000	37.495575
1745.000000	37.478413
1744.000000	37.413126
1743.000000	37.408995
1742.000000	37.391334
1741.000000	37.391888
1740.000000	37.347548
1739.000000	37.323098
1738.000000	37.278310
1737.000000	37.252936
1736.000000	37.254554
1735.000000	37.222825
1734.000000	37.246675
1733.000000	37.235447
1732.000000	37.199828
1731.000000	37.244557
1730.000000	37.246991
1729.000000	37.238924
1728.000000	37.276177
1727.000000	37.320614
1726.000000	37.389985
1725.000000	37.418983
1724.000000	37.457871
1723.000000	37.503269
1722.000000	37.576040
1721.000000	37.630597
1720.000000	37.680949
1719.000000	37.751485
1718.000000	37.800186
1717.000000	37.846881
1716.000000	37.894293
1715.000000	37.945693
1714.000000	38.009310
1713.000000	38.088256
1712.000000	38.067598
1711.000000	38.162549
1710.000000	38.204715
1709.000000	38.251336
1708.000000	38.294561
1707.000000	38.279719
1706.000000	38.336582
1705.000000	38.357263
1704.000000	38.372356
1703.000000	38.382435
1702.000000	38.382017
1701.000000	38.411272
1700.000000	38.409258
1699.000000	38.408196
1698.000000	38.407808
1697.000000	38.471356
1696.000000	38.493240
1695.000000	38.503244
1694.000000	38.517885
1693.000000	38.555462
1692.000000	38.579137
1691.000000	38.616374
1690.000000	38.658492
1689.000000	38.679076
1688.000000	38.756972
1687.000000	38.837658
1686.000000	38.890302
1685.000000	39.004146
1684.000000	39.080404
1683.000000	39.163076
1682.000000	39.255943
1681.000000	39.369946
1680.000000	39.443272
1679.000000	39.546352
1678.000000	39.653234
1677.000000	39.748166
1676.000000	39.851498
1675.000000	39.966036
1674.000000	40.061240
1673.000000	40.133438
1672.000000	40.225702
1671.000000	40.340233
1670.000000	40.433521
1669.000000	40.545294
1668.000000	40.625735
1667.000000	40.684208
1666.000000	40.741495
1665.000000	40.774639
1664.000000	40.839440
1663.000000	40.868757
1662.000000	40.924030
1661.000000	40.993195
1660.000000	41.038431
1659.000000	41.071069
1658.000000	41.106864
1657.000000	41.156946
1656.000000	41.161006
1655.000000	41.167561
1654.000000	41.242256
1653.000000	41.247777
1652.000000	41.222923
1651.000000	41.218116
1650.000000	41.194045
1649.000000	41.190316
1648.000000	41.162444
1647.000000	41.164899
1646.000000	41.170445
1645.000000	41.168687
1644.000000	41.179022
1643.000000	41.168442
1642.000000	41.145439
1641.000000	41.122305
1640.000000	41.095978
1639.000000	41.092800
1638.000000	41.068541
1637.000000	41.051369
1636.000000	41.007835
1635.000000	40.997566
1634.000000	41.003533
1633.000000	40.955885
1632.000000	40.923927
1631.000000	40.908727
1630.000000	40.891619
1629.000000	40.875685
1628.000000	40.817739
1627.000000	40.783278
1626.000000	40.762128
1625.000000	40.727579
1624.000000	40.716222
1623.000000	40.693874
1622.000000	40.672011
1621.000000	40.625715
1620.000000	40.577341
1619.000000	40.551831
1618.000000	40.529897
1617.000000	40.495060
1616.000000	40.461138
1615.000000	40.421633
1614.000000	40.389978
1613.000000	40.360344
1612.000000	40.329880
1611.000000	40.305402
1610.000000	40.269155
1609.000000	40.234458
1608.000000	40.192002
1607.000000	40.157786
1606.000000	40.124568
1605.000000	40.083671
1604.000000	40.044818
1603.000000	40.001155
1602.000000	39.962193
1601.000000	39.927320
1600.000000	39.905407
1599.000000	39.875819
1598.000000	39.840926
1597.000000	39.814593
1596.000000	39.781649
1595.000000	39.749857
1594.000000	39.710613
1593.000000	39.692114
1592.000000	39.668310
1591.000000	39.620776
1590.000000	39.587577
1589.000000	39.553033
1588.000000	39.522071
1587.000000	39.504472
1586.000000	39.483581
1585.000000	39.458127
1584.000000	39.429520
1583.000000	39.412173
1582.000000	39.397852
1581.000000	39.379436
1580.000000	39.335374
1579.000000	39.310195
1578.000000	39.294631
1577.000000	39.250943
1576.000000	39.221131
1575.000000	39.195088
1574.000000	39.156857
1573.000000	39.133627
1572.000000	39.103893
1571.000000	39.079738
1570.000000	39.060910
1569.000000	39.025084
1568.000000	39.001095
1567.000000	38.977358
1566.000000	38.959602
1565.000000	38.950646
1564.000000	38.936824
1563.000000	38.923219
1562.000000	38.890346
1561.000000	38.869177
1560.000000	38.854333
1559.000000	38.823363
1558.000000	38.802004
1557.000000	38.789910
1556.000000	38.775291
1555.000000	38.765231
1554.000000	38.737752
1553.000000	38.741750
1552.000000	38.704233
1551.000000	38.683520
1550.000000	38.660465
1549.000000	38.644994
1548.000000	38.609083
1547.000000	38.570616
1546.000000	38.543147
1545.000000	38.492583
1544.000000	38.455456
1543.000000	38.396454
1542.000000	38.374244
1541.000000	38.316227
1540.000000	38.261083
1539.000000	38.199234
1538.000000	38.155740
1537.000000	38.110355
1536.000000	38.060841
1535.000000	38.005295
1534.000000	37.953952
1533.000000	37.904388
1532.000000	37.870657
1531.000000	37.817328
1530.000000	37.783568
1529.000000	37.730607
1528.000000	37.685968
1527.000000	37.647189
1526.000000	37.614042
1525.000000	37.590314
1524.000000	37.553653
1523.000000	37.525897
1522.000000	37.502937
1521.000000	37.465523
1520.000000	37.450867
1519.000000	37.451416
1518.000000	37.428624
1517.000000	37.398149
1516.000000	37.389263
1515.000000	37.374523
1514.000000	37.340942
1513.000000	37.343686
1512.000000	37.346480
1511.000000	37.343612
1510.000000	37.324330
1509.000000	37.301233
1508.000000	37.298819
1507.000000	37.290763
1506.000000	37.285443
1505.000000	37.288191
1504.000000	37.269891
1503.000000	37.296362
1502.000000	37.294976
1501.000000	37.287200
1500.000000	37.279089
1499.000000	37.258744
1498.000000	37.267749
1497.000000	37.296345
1496.000000	37.275533
1495.000000	37.282863
1494.000000	37.282347
1493.000000	37.305252
1492.000000	37.317014
1491.000000	37.355980
1490.000000	37.364499
1489.000000	37.373059
1488.000000	37.382911
1487.000000	37.399882
1486.000000	37.410567
1485.000000	37.419983
1484.000000	37.445651
1483.000000	37.453311
1482.000000	37.452559
1481.000000	37.482842
1480.000000	37.510755
1479.000000	37.524137
1478.000000	37.538802
1477.000000	37.543222
1476.000000	37.547255
1475.000000	37.574883
1474.000000	37.592210
1473.000000	37.610092
1472.000000	37.615544
1471.000000	37.656008
1470.000000	37.654572
