PE UV       SUBTECH     SPECTRUM    ASCII       PEDS        4.00        
   -1
RTmsmeh81.Sample.asc
18/03/14
10:38:53.00
18/03/14
10:38:53.00
Administrator

200.000000
1
Lambda 750
750N8071901
PerkinElmer UV WinLab 6.0.4.0738 / 1.61.00 Lambda 900

0
0
3350/servo 860.8/2
0
0
UV/VIS
1
1
1
CommonBeamDepol,150mm sphere / downward view
0
0
0
0
Program
Program
3350/servo 860.8/2
3350/0.2 860.8/0.2
3350/0.2 860.8/0.2
0
1
 
 
 
0
 
860.8
319.2
860.8
Front
100
on
 
 
0
0
0
 
0
 
 
 
0
 
 
0
0
0
0
0
 
 
 
 
0
0


0
0
#HDR
-1
-1
#GR
nm
%R
1.0
0.0
2350.000000
-1.000000
2151
8
52.724587
7.035149
#DATA
2350.000000	21.946838
2349.000000	22.052380
2348.000000	22.192074
2347.000000	22.725968
2346.000000	22.225903
2345.000000	22.058648
2344.000000	22.555666
2343.000000	22.114806
2342.000000	22.458225
2341.000000	22.331487
2340.000000	22.362328
2339.000000	22.975699
2338.000000	22.972526
2337.000000	22.643034
2336.000000	23.233172
2335.000000	23.471471
2334.000000	23.178211
2333.000000	23.526827
2332.000000	23.434582
2331.000000	23.353383
2330.000000	23.260508
2329.000000	23.078073
2328.000000	23.071978
2327.000000	23.038594
2326.000000	23.159203
2325.000000	23.046128
2324.000000	22.936736
2323.000000	22.747207
2322.000000	22.858026
2321.000000	22.949728
2320.000000	22.838902
2319.000000	22.422688
2318.000000	22.316628
2317.000000	22.423874
2316.000000	22.409328
2315.000000	22.158606
2314.000000	22.201272
2313.000000	22.187845
2312.000000	22.220558
2311.000000	22.347605
2310.000000	22.085982
2309.000000	21.851169
2308.000000	21.932550
2307.000000	21.849887
2306.000000	21.722463
2305.000000	21.884361
2304.000000	22.132707
2303.000000	21.951874
2302.000000	21.775559
2301.000000	21.464503
2300.000000	21.597961
2299.000000	21.510952
2298.000000	21.539434
2297.000000	21.586817
2296.000000	21.566064
2295.000000	21.569410
2294.000000	21.545818
2293.000000	21.519554
2292.000000	21.414639
2291.000000	21.298244
2290.000000	21.225383
2289.000000	21.529212
2288.000000	21.639196
2287.000000	21.512637
2286.000000	21.432093
2285.000000	21.469800
2284.000000	21.369378
2283.000000	21.290672
2282.000000	21.341388
2281.000000	21.284522
2280.000000	21.387149
2279.000000	21.643885
2278.000000	21.551664
2277.000000	21.474181
2276.000000	21.558000
2275.000000	21.555058
2274.000000	21.764456
2273.000000	21.796852
2272.000000	21.764696
2271.000000	21.734213
2270.000000	21.799175
2269.000000	21.860675
2268.000000	21.901174
2267.000000	22.044708
2266.000000	22.285572
2265.000000	22.304374
2264.000000	22.400204
2263.000000	22.668647
2262.000000	22.872265
2261.000000	22.998165
2260.000000	23.018321
2259.000000	23.215759
2258.000000	23.525902
2257.000000	23.556344
2256.000000	23.733963
2255.000000	23.961312
2254.000000	24.095635
2253.000000	24.244984
2252.000000	24.489096
2251.000000	24.645096
2250.000000	24.998558
2249.000000	25.368033
2248.000000	25.384199
2247.000000	25.421582
2246.000000	25.567895
2245.000000	25.659987
2244.000000	25.852555
2243.000000	26.179543
2242.000000	26.357578
2241.000000	26.378067
2240.000000	26.494777
2239.000000	26.649277
2238.000000	26.743482
2237.000000	26.867360
2236.000000	27.041358
2235.000000	27.167626
2234.000000	27.218536
2233.000000	27.273693
2232.000000	27.273673
2231.000000	27.335754
2230.000000	27.372543
2229.000000	27.405717
2228.000000	27.520229
2227.000000	27.534793
2226.000000	27.523742
2225.000000	27.406141
2224.000000	27.416959
2223.000000	27.416002
2222.000000	27.424593
2221.000000	27.385679
2220.000000	27.398690
2219.000000	27.447776
2218.000000	27.344107
2217.000000	27.217756
2216.000000	27.168038
2215.000000	27.193431
2214.000000	27.180502
2213.000000	27.167184
2212.000000	27.133272
2211.000000	27.094847
2210.000000	26.985451
2209.000000	26.962146
2208.000000	26.853086
2207.000000	26.738348
2206.000000	26.750341
2205.000000	26.778243
2204.000000	26.647813
2203.000000	26.644254
2202.000000	26.658119
2201.000000	26.525898
2200.000000	26.367393
2199.000000	26.493911
2198.000000	26.426946
2197.000000	26.259266
2196.000000	26.088012
2195.000000	26.037102
2194.000000	25.913528
2193.000000	25.835391
2192.000000	25.654016
2191.000000	25.696746
2190.000000	25.761312
2189.000000	25.671153
2188.000000	25.513597
2187.000000	25.450436
2186.000000	25.505526
2185.000000	25.384612
2184.000000	25.351408
2183.000000	25.398754
2182.000000	25.345706
2181.000000	25.402716
2180.000000	25.409106
2179.000000	25.379149
2178.000000	25.252049
2177.000000	25.250765
2176.000000	25.189581
2175.000000	25.356443
2174.000000	25.268635
2173.000000	25.385616
2172.000000	25.430565
2171.000000	25.552657
2170.000000	25.457559
2169.000000	25.509369
2168.000000	25.635501
2167.000000	25.767842
2166.000000	25.883481
2165.000000	25.770881
2164.000000	25.752929
2163.000000	25.926824
2162.000000	26.048240
2161.000000	26.183082
2160.000000	26.397654
2159.000000	26.503409
2158.000000	26.580349
2157.000000	26.589719
2156.000000	26.855901
2155.000000	26.855016
2154.000000	27.026352
2153.000000	27.323738
2152.000000	27.227517
2151.000000	27.548144
2150.000000	27.673523
2149.000000	27.717947
2148.000000	27.891313
2147.000000	27.985890
2146.000000	28.143731
2145.000000	28.205611
2144.000000	28.336727
2143.000000	28.259955
2142.000000	28.459403
2141.000000	28.679798
2140.000000	28.650839
2139.000000	28.958507
2138.000000	29.036396
2137.000000	29.055086
2136.000000	29.494355
2135.000000	29.291513
2134.000000	29.213059
2133.000000	29.158201
2132.000000	29.618758
2131.000000	29.675495
2130.000000	29.830911
2129.000000	29.875771
2128.000000	29.862256
2127.000000	29.788383
2126.000000	29.982871
2125.000000	29.936005
2124.000000	30.070499
2123.000000	30.037499
2122.000000	30.134687
2121.000000	30.172947
2120.000000	30.214314
2119.000000	30.254942
2118.000000	30.227148
2117.000000	30.312609
2116.000000	30.372577
2115.000000	30.535918
2114.000000	30.556236
2113.000000	30.398270
2112.000000	30.428177
2111.000000	30.456420
2110.000000	30.371072
2109.000000	30.455620
2108.000000	30.526492
2107.000000	30.586834
2106.000000	30.618108
2105.000000	30.537194
2104.000000	30.539591
2103.000000	30.747339
2102.000000	30.755039
2101.000000	30.788069
2100.000000	30.781983
2099.000000	30.739116
2098.000000	30.756781
2097.000000	30.709130
2096.000000	30.733621
2095.000000	30.642372
2094.000000	30.661683
2093.000000	30.545961
2092.000000	30.745667
2091.000000	30.584477
2090.000000	30.410978
2089.000000	30.341907
2088.000000	30.487689
2087.000000	30.484741
2086.000000	30.532991
2085.000000	30.579415
2084.000000	30.476282
2083.000000	30.373170
2082.000000	30.284543
2081.000000	30.189338
2080.000000	30.076139
2079.000000	30.054102
2078.000000	29.967762
2077.000000	29.939676
2076.000000	29.778913
2075.000000	29.648284
2074.000000	29.581382
2073.000000	29.484257
2072.000000	29.345502
2071.000000	29.285409
2070.000000	29.145778
2069.000000	28.968571
2068.000000	28.812484
2067.000000	28.739318
2066.000000	28.491357
2065.000000	28.417838
2064.000000	28.309441
2063.000000	28.159460
2062.000000	28.080161
2061.000000	27.908168
2060.000000	27.733641
2059.000000	27.661811
2058.000000	27.539928
2057.000000	27.432586
2056.000000	27.339440
2055.000000	27.163825
2054.000000	27.051492
2053.000000	26.926529
2052.000000	26.853215
2051.000000	26.752709
2050.000000	26.647985
2049.000000	26.620601
2048.000000	26.596362
2047.000000	26.549291
2046.000000	26.460274
2045.000000	26.466862
2044.000000	26.416735
2043.000000	26.392221
2042.000000	26.475672
2041.000000	26.498035
2040.000000	26.481671
2039.000000	26.503153
2038.000000	26.563154
2037.000000	26.614229
2036.000000	26.640321
2035.000000	26.758959
2034.000000	26.844098
2033.000000	26.876337
2032.000000	27.040415
2031.000000	27.148052
2030.000000	27.212097
2029.000000	27.335814
2028.000000	27.414834
2027.000000	27.491869
2026.000000	27.582827
2025.000000	27.670917
2024.000000	27.742953
2023.000000	27.776591
2022.000000	27.817213
2021.000000	27.896865
2020.000000	27.947470
2019.000000	27.925900
2018.000000	27.948117
2017.000000	27.958273
2016.000000	27.907980
2015.000000	27.908815
2014.000000	27.888574
2013.000000	27.854157
2012.000000	27.830556
2011.000000	27.763877
2010.000000	27.703430
2009.000000	27.617077
2008.000000	27.543498
2007.000000	27.478459
2006.000000	27.385007
2005.000000	27.286687
2004.000000	27.225244
2003.000000	27.119934
2002.000000	27.020385
2001.000000	26.916411
2000.000000	26.796893
1999.000000	26.726896
1998.000000	26.645737
1997.000000	26.540326
1996.000000	26.431421
1995.000000	26.336141
1994.000000	26.217022
1993.000000	26.078245
1992.000000	25.959175
1991.000000	25.846266
1990.000000	25.753438
1989.000000	25.643745
1988.000000	25.559435
1987.000000	25.462888
1986.000000	25.339358
1985.000000	25.213471
1984.000000	25.101914
1983.000000	24.996655
1982.000000	24.908697
1981.000000	24.831424
1980.000000	24.722768
1979.000000	24.579393
1978.000000	24.466538
1977.000000	24.340966
1976.000000	24.245613
1975.000000	24.192814
1974.000000	24.073931
1973.000000	23.996386
1972.000000	23.883758
1971.000000	23.769356
1970.000000	23.646741
1969.000000	23.552545
1968.000000	23.483100
1967.000000	23.403742
1966.000000	23.269852
1965.000000	23.178819
1964.000000	23.075870
1963.000000	22.964575
1962.000000	22.872430
1961.000000	22.791239
1960.000000	22.731903
1959.000000	22.650739
1958.000000	22.528266
1957.000000	22.475642
1956.000000	22.416062
1955.000000	22.365584
1954.000000	22.264689
1953.000000	22.216886
1952.000000	22.149337
1951.000000	22.091407
1950.000000	22.036882
1949.000000	21.981770
1948.000000	21.923816
1947.000000	21.909586
1946.000000	21.876920
1945.000000	21.910718
1944.000000	21.859697
1943.000000	21.897954
1942.000000	21.901305
1941.000000	21.902699
1940.000000	21.906711
1939.000000	22.073553
1938.000000	22.131341
1937.000000	22.131766
1936.000000	22.226101
1935.000000	22.330805
1934.000000	22.384562
1933.000000	22.511125
1932.000000	22.518792
1931.000000	22.701711
1930.000000	22.829773
1929.000000	23.002730
1928.000000	23.161301
1927.000000	23.354275
1926.000000	23.514771
1925.000000	23.802353
1924.000000	24.007860
1923.000000	24.270576
1922.000000	24.446728
1921.000000	24.766933
1920.000000	25.032577
1919.000000	25.291681
1918.000000	25.543768
1917.000000	25.920630
1916.000000	26.130047
1915.000000	26.589257
1914.000000	26.919511
1913.000000	27.242424
1912.000000	27.580439
1911.000000	28.070979
1910.000000	28.405779
1909.000000	28.834181
1908.000000	29.321559
1907.000000	29.733777
1906.000000	30.130834
1905.000000	30.593959
1904.000000	31.098723
1903.000000	31.523157
1902.000000	31.986300
1901.000000	32.513438
1900.000000	32.953898
1899.000000	33.509528
1898.000000	33.962304
1897.000000	34.354857
1896.000000	34.937946
1895.000000	35.387296
1894.000000	35.882727
1893.000000	36.265391
1892.000000	36.695071
1891.000000	37.141931
1890.000000	37.559619
1889.000000	37.997825
1888.000000	38.382105
1887.000000	38.737467
1886.000000	39.149315
1885.000000	39.479345
1884.000000	39.874521
1883.000000	40.198988
1882.000000	40.542957
1881.000000	40.881966
1880.000000	41.153189
1879.000000	41.348963
1878.000000	41.651084
1877.000000	41.922075
1876.000000	42.150850
1875.000000	42.375907
1874.000000	42.610336
1873.000000	42.759890
1872.000000	42.903158
1871.000000	43.081247
1870.000000	43.251066
1869.000000	43.375044
1868.000000	43.464875
1867.000000	43.571261
1866.000000	43.691926
1865.000000	43.782686
1864.000000	43.859387
1863.000000	43.910708
1862.000000	43.979510
1861.000000	44.059593
1860.000000	44.147694
1859.000000	44.160726
1858.000000	44.167917
1857.000000	44.241614
1856.000000	44.273653
1855.000000	44.302899
1854.000000	44.352138
1853.000000	44.377760
1852.000000	44.370853
1851.000000	44.406770
1850.000000	44.397944
1849.000000	44.397161
1848.000000	44.424553
1847.000000	44.450441
1846.000000	44.447353
1845.000000	44.406453
1844.000000	44.357992
1843.000000	44.379458
1842.000000	44.393068
1841.000000	44.340707
1840.000000	44.301466
1839.000000	44.262941
1838.000000	44.229615
1837.000000	44.179672
1836.000000	44.119265
1835.000000	44.081490
1834.000000	44.058931
1833.000000	44.047537
1832.000000	44.028299
1831.000000	43.975199
1830.000000	43.955709
1829.000000	43.916261
1828.000000	43.891750
1827.000000	43.836389
1826.000000	43.787552
1825.000000	43.774257
1824.000000	43.779395
1823.000000	43.730252
1822.000000	43.670245
1821.000000	43.662253
1820.000000	43.637505
1819.000000	43.592255
1818.000000	43.586024
1817.000000	43.570641
1816.000000	43.528912
1815.000000	43.501268
1814.000000	43.485477
1813.000000	43.457400
1812.000000	43.436522
1811.000000	43.411062
1810.000000	43.385981
1809.000000	43.375979
1808.000000	43.353996
1807.000000	43.317993
1806.000000	43.305346
1805.000000	43.288575
1804.000000	43.263149
1803.000000	43.240983
1802.000000	43.206516
1801.000000	43.199778
1800.000000	43.208853
1799.000000	43.189118
1798.000000	43.167198
1797.000000	43.149351
1796.000000	43.106448
1795.000000	43.092962
1794.000000	43.124513
1793.000000	43.116407
1792.000000	43.084690
1791.000000	43.078576
1790.000000	43.063690
1789.000000	43.044329
1788.000000	43.054249
1787.000000	43.049437
1786.000000	43.018547
1785.000000	42.991014
1784.000000	42.958711
1783.000000	42.930317
1782.000000	42.920722
1781.000000	42.903394
1780.000000	42.879544
1779.000000	42.849724
1778.000000	42.791560
1777.000000	42.741869
1776.000000	42.702176
1775.000000	42.660129
1774.000000	42.593618
1773.000000	42.525430
1772.000000	42.492156
1771.000000	42.445899
1770.000000	42.386663
1769.000000	42.339500
1768.000000	42.292826
1767.000000	42.242985
1766.000000	42.199504
1765.000000	42.163745
1764.000000	42.127802
1763.000000	42.079514
1762.000000	42.039604
1761.000000	41.999945
1760.000000	41.943052
1759.000000	41.924704
1758.000000	41.870993
1757.000000	41.833851
1756.000000	41.797251
1755.000000	41.758240
1754.000000	41.708371
1753.000000	41.660261
1752.000000	41.621044
1751.000000	41.583504
1750.000000	41.536909
1749.000000	41.524472
1748.000000	41.451553
1747.000000	41.358283
1746.000000	41.331238
1745.000000	41.243352
1744.000000	41.184315
1743.000000	41.129511
1742.000000	41.056839
1741.000000	40.988225
1740.000000	40.940487
1739.000000	40.892875
1738.000000	40.846646
1737.000000	40.804620
1736.000000	40.763157
1735.000000	40.721390
1734.000000	40.724578
1733.000000	40.717528
1732.000000	40.701462
1731.000000	40.707420
1730.000000	40.708682
1729.000000	40.747182
1728.000000	40.774196
1727.000000	40.800397
1726.000000	40.855193
1725.000000	40.961410
1724.000000	41.015959
1723.000000	41.098208
1722.000000	41.190790
1721.000000	41.267434
1720.000000	41.364979
1719.000000	41.460474
1718.000000	41.542288
1717.000000	41.651930
1716.000000	41.750491
1715.000000	41.810420
1714.000000	41.945689
1713.000000	42.006496
1712.000000	42.081372
1711.000000	42.155257
1710.000000	42.231154
1709.000000	42.282862
1708.000000	42.338898
1707.000000	42.412943
1706.000000	42.449457
1705.000000	42.498725
1704.000000	42.561104
1703.000000	42.579538
1702.000000	42.624299
1701.000000	42.626378
1700.000000	42.697694
1699.000000	42.685572
1698.000000	42.755577
1697.000000	42.805470
1696.000000	42.837263
1695.000000	42.870421
1694.000000	42.941274
1693.000000	42.990363
1692.000000	43.023160
1691.000000	43.092871
1690.000000	43.174821
1689.000000	43.248948
1688.000000	43.345485
1687.000000	43.456733
1686.000000	43.556478
1685.000000	43.672549
1684.000000	43.772031
1683.000000	43.940532
1682.000000	44.057417
1681.000000	44.162463
1680.000000	44.302832
1679.000000	44.474388
1678.000000	44.588902
1677.000000	44.709934
1676.000000	44.879367
1675.000000	45.033229
1674.000000	45.157037
1673.000000	45.284132
1672.000000	45.405904
1671.000000	45.517735
1670.000000	45.644875
1669.000000	45.819203
1668.000000	45.914301
1667.000000	46.029478
1666.000000	46.098573
1665.000000	46.184914
1664.000000	46.241121
1663.000000	46.296409
1662.000000	46.377352
1661.000000	46.447837
1660.000000	46.494321
1659.000000	46.548798
1658.000000	46.592048
1657.000000	46.631738
1656.000000	46.663931
1655.000000	46.693028
1654.000000	46.724451
1653.000000	46.741200
1652.000000	46.756945
1651.000000	46.745578
1650.000000	46.762174
1649.000000	46.767216
1648.000000	46.749582
1647.000000	46.741524
1646.000000	46.745465
1645.000000	46.731476
1644.000000	46.727360
1643.000000	46.735937
1642.000000	46.713264
1641.000000	46.693410
1640.000000	46.661764
1639.000000	46.660636
1638.000000	46.648512
1637.000000	46.627243
1636.000000	46.577641
1635.000000	46.561937
1634.000000	46.543242
1633.000000	46.504691
1632.000000	46.479341
1631.000000	46.461834
1630.000000	46.450378
1629.000000	46.414020
1628.000000	46.369495
1627.000000	46.331527
1626.000000	46.291377
1625.000000	46.263994
1624.000000	46.235709
1623.000000	46.199971
1622.000000	46.181845
1621.000000	46.136741
1620.000000	46.091616
1619.000000	46.066293
1618.000000	46.016757
1617.000000	45.985754
1616.000000	45.935895
1615.000000	45.884799
1614.000000	45.852694
1613.000000	45.819091
1612.000000	45.775094
1611.000000	45.734588
1610.000000	45.697445
1609.000000	45.650771
1608.000000	45.598924
1607.000000	45.553765
1606.000000	45.505053
1605.000000	45.467990
1604.000000	45.422008
1603.000000	45.357326
1602.000000	45.320924
1601.000000	45.275770
1600.000000	45.225122
1599.000000	45.176193
1598.000000	45.123509
1597.000000	45.087351
1596.000000	45.063963
1595.000000	45.017605
1594.000000	44.971740
1593.000000	44.936859
1592.000000	44.902649
1591.000000	44.852952
1590.000000	44.816857
1589.000000	44.777073
1588.000000	44.729229
1587.000000	44.697973
1586.000000	44.663167
1585.000000	44.624623
1584.000000	44.595066
1583.000000	44.563536
1582.000000	44.526377
1581.000000	44.487677
1580.000000	44.449890
1579.000000	44.416540
1578.000000	44.400813
1577.000000	44.359742
1576.000000	44.304905
1575.000000	44.280479
1574.000000	44.241180
1573.000000	44.200229
1572.000000	44.160053
1571.000000	44.120864
1570.000000	44.097140
1569.000000	44.073158
1568.000000	44.035016
1567.000000	44.011277
1566.000000	43.980137
1565.000000	43.943659
1564.000000	43.918514
1563.000000	43.921330
1562.000000	43.892326
1561.000000	43.850413
1560.000000	43.820833
1559.000000	43.803212
1558.000000	43.782345
1557.000000	43.748019
1556.000000	43.743247
1555.000000	43.711071
1554.000000	43.679899
1553.000000	43.666424
1552.000000	43.626719
1551.000000	43.581386
1550.000000	43.548759
1549.000000	43.523480
1548.000000	43.486132
1547.000000	43.442799
1546.000000	43.388051
1545.000000	43.318078
1544.000000	43.255806
1543.000000	43.204136
1542.000000	43.143385
1541.000000	43.070283
1540.000000	43.006484
1539.000000	42.925352
1538.000000	42.866658
1537.000000	42.775654
1536.000000	42.703555
1535.000000	42.642835
1534.000000	42.582940
1533.000000	42.523092
1532.000000	42.449865
1531.000000	42.386957
1530.000000	42.324199
1529.000000	42.251309
1528.000000	42.192140
1527.000000	42.130937
1526.000000	42.098360
1525.000000	42.039592
1524.000000	41.986037
1523.000000	41.952061
1522.000000	41.907089
1521.000000	41.866305
1520.000000	41.852287
1519.000000	41.807246
1518.000000	41.772611
1517.000000	41.755226
1516.000000	41.717768
1515.000000	41.686010
1514.000000	41.661139
1513.000000	41.643408
1512.000000	41.653348
1511.000000	41.683932
1510.000000	41.666397
1509.000000	41.642085
1508.000000	41.624030
1507.000000	41.582790
1506.000000	41.569907
1505.000000	41.556584
1504.000000	41.534408
1503.000000	41.539367
1502.000000	41.517828
1501.000000	41.505268
1500.000000	41.492266
1499.000000	41.487737
1498.000000	41.496085
1497.000000	41.513577
1496.000000	41.512398
1495.000000	41.508389
1494.000000	41.526762
1493.000000	41.540464
1492.000000	41.556778
1491.000000	41.585355
1490.000000	41.588028
1489.000000	41.607829
1488.000000	41.623544
1487.000000	41.653105
1486.000000	41.686254
1485.000000	41.707386
1484.000000	41.729361
1483.000000	41.765123
1482.000000	41.755794
1481.000000	41.818508
1480.000000	41.829174
1479.000000	41.845800
1478.000000	41.871323
1477.000000	41.895230
1476.000000	41.920896
1475.000000	41.947263
1474.000000	41.951582
1473.000000	41.964874
1472.000000	42.013236
1471.000000	42.024131
1470.000000	42.062500
1469.000000	42.092439
