PE UV       SUBTECH     SPECTRUM    ASCII       PEDS        4.00        
   -1
RTmsfkat91.Sample.asc
18/03/14
11:35:50.00
18/03/14
11:35:50.00
Administrator

200.000000
1
Lambda 750
750N8071901
PerkinElmer UV WinLab 6.0.4.0738 / 1.61.00 Lambda 900

0
0
3350/servo 860.8/2
0
0
UV/VIS
1
1
1
CommonBeamDepol,150mm sphere / downward view
0
0
0
0
Program
Program
3350/servo 860.8/2
3350/0.2 860.8/0.2
3350/0.2 860.8/0.2
0
1
 
 
 
0
 
860.8
319.2
860.8
Front
100
on
 
 
0
0
0
 
0
 
 
 
0
 
 
0
0
0
0
0
 
 
 
 
0
0


0
0
#HDR
-1
-1
#GR
nm
%R
1.0
0.0
2350.000000
-1.000000
2151
8
50.553022
7.369942
#DATA
2350.000000	28.495538
2349.000000	28.259892
2348.000000	28.156992
2347.000000	28.814435
2346.000000	28.495599
2345.000000	28.512851
2344.000000	28.686724
2343.000000	28.105213
2342.000000	28.216910
2341.000000	28.570218
2340.000000	28.650746
2339.000000	29.063928
2338.000000	28.956913
2337.000000	28.758078
2336.000000	29.017988
2335.000000	29.126113
2334.000000	29.122241
2333.000000	29.224245
2332.000000	29.497466
2331.000000	29.397207
2330.000000	29.114042
2329.000000	29.123414
2328.000000	29.064878
2327.000000	28.883529
2326.000000	29.141939
2325.000000	29.142840
2324.000000	29.090593
2323.000000	28.794123
2322.000000	28.793857
2321.000000	28.854944
2320.000000	28.970345
2319.000000	28.679768
2318.000000	28.616951
2317.000000	28.720666
2316.000000	28.771207
2315.000000	28.766023
2314.000000	28.671148
2313.000000	28.346453
2312.000000	28.360452
2311.000000	28.486265
2310.000000	28.603777
2309.000000	28.562981
2308.000000	28.100922
2307.000000	28.096320
2306.000000	28.239293
2305.000000	28.166573
2304.000000	28.382682
2303.000000	28.189902
2302.000000	28.061591
2301.000000	28.025082
2300.000000	27.936568
2299.000000	27.653762
2298.000000	27.765230
2297.000000	27.802203
2296.000000	27.911820
2295.000000	27.799711
2294.000000	27.728322
2293.000000	27.540796
2292.000000	27.448674
2291.000000	27.484223
2290.000000	27.577133
2289.000000	27.405278
2288.000000	27.418106
2287.000000	27.445717
2286.000000	27.338316
2285.000000	27.292564
2284.000000	27.331986
2283.000000	27.235612
2282.000000	27.184099
2281.000000	27.259569
2280.000000	27.263489
2279.000000	27.327902
2278.000000	27.243890
2277.000000	27.394161
2276.000000	27.497741
2275.000000	27.515594
2274.000000	27.450635
2273.000000	27.448734
2272.000000	27.554329
2271.000000	27.472239
2270.000000	27.561873
2269.000000	27.779738
2268.000000	27.713609
2267.000000	27.635705
2266.000000	27.613465
2265.000000	27.826325
2264.000000	28.021387
2263.000000	28.124937
2262.000000	28.155032
2261.000000	28.192620
2260.000000	28.358488
2259.000000	28.483046
2258.000000	28.514053
2257.000000	28.721022
2256.000000	28.922546
2255.000000	28.956674
2254.000000	29.059351
2253.000000	29.075893
2252.000000	29.216878
2251.000000	29.355657
2250.000000	29.648819
2249.000000	29.897586
2248.000000	29.812926
2247.000000	29.907500
2246.000000	30.147543
2245.000000	30.293748
2244.000000	30.403559
2243.000000	30.541872
2242.000000	30.616626
2241.000000	30.734395
2240.000000	30.854379
2239.000000	30.861127
2238.000000	30.861541
2237.000000	30.998133
2236.000000	31.075520
2235.000000	31.140890
2234.000000	31.298860
2233.000000	31.272240
2232.000000	31.287155
2231.000000	31.320886
2230.000000	31.452474
2229.000000	31.533358
2228.000000	31.363203
2227.000000	31.390151
2226.000000	31.488246
2225.000000	31.401571
2224.000000	31.296904
2223.000000	31.356612
2222.000000	31.406229
2221.000000	31.382326
2220.000000	31.382884
2219.000000	31.389369
2218.000000	31.263288
2217.000000	31.186111
2216.000000	31.213438
2215.000000	31.196406
2214.000000	31.183620
2213.000000	31.198513
2212.000000	31.111406
2211.000000	31.067004
2210.000000	30.971938
2209.000000	30.940342
2208.000000	30.916905
2207.000000	31.012702
2206.000000	30.909847
2205.000000	30.803695
2204.000000	30.782649
2203.000000	30.769986
2202.000000	30.725640
2201.000000	30.682269
2200.000000	30.539077
2199.000000	30.420626
2198.000000	30.554115
2197.000000	30.523029
2196.000000	30.387861
2195.000000	30.346775
2194.000000	30.232281
2193.000000	30.029645
2192.000000	30.211572
2191.000000	30.231971
2190.000000	30.046035
2189.000000	30.090134
2188.000000	30.012419
2187.000000	29.985572
2186.000000	29.934475
2185.000000	29.989364
2184.000000	29.973728
2183.000000	30.011402
2182.000000	30.005360
2181.000000	29.978981
2180.000000	29.817574
2179.000000	29.919149
2178.000000	29.779190
2177.000000	29.915117
2176.000000	29.930869
2175.000000	30.003906
2174.000000	29.965433
2173.000000	29.901202
2172.000000	30.088093
2171.000000	30.132412
2170.000000	30.189620
2169.000000	30.242752
2168.000000	30.344377
2167.000000	30.377061
2166.000000	30.288762
2165.000000	30.330261
2164.000000	30.424252
2163.000000	30.449936
2162.000000	30.701763
2161.000000	30.904138
2160.000000	30.895484
2159.000000	30.819913
2158.000000	31.005458
2157.000000	30.905522
2156.000000	31.233913
2155.000000	31.427626
2154.000000	31.331351
2153.000000	31.480599
2152.000000	31.583783
2151.000000	31.624370
2150.000000	31.707526
2149.000000	31.839280
2148.000000	32.031609
2147.000000	32.133674
2146.000000	32.158911
2145.000000	32.357335
2144.000000	32.321806
2143.000000	32.427284
2142.000000	32.619050
2141.000000	32.646612
2140.000000	32.599547
2139.000000	32.791431
2138.000000	32.834717
2137.000000	32.912847
2136.000000	33.047278
2135.000000	32.922827
2134.000000	33.168386
2133.000000	33.108158
2132.000000	33.360436
2131.000000	33.366618
2130.000000	33.342699
2129.000000	33.407306
2128.000000	33.425250
2127.000000	33.398064
2126.000000	33.525977
2125.000000	33.569753
2124.000000	33.507936
2123.000000	33.312674
2122.000000	33.480343
2121.000000	33.530528
2120.000000	33.521819
2119.000000	33.572739
2118.000000	33.675167
2117.000000	33.659641
2116.000000	33.653041
2115.000000	33.696681
2114.000000	33.680697
2113.000000	33.823451
2112.000000	33.686011
2111.000000	33.824777
2110.000000	33.815792
2109.000000	33.723738
2108.000000	33.781211
2107.000000	33.782452
2106.000000	33.869355
2105.000000	33.766951
2104.000000	33.775625
2103.000000	33.819632
2102.000000	33.773904
2101.000000	33.879439
2100.000000	33.878817
2099.000000	33.865284
2098.000000	33.834408
2097.000000	33.715460
2096.000000	33.748160
2095.000000	33.646534
2094.000000	33.753089
2093.000000	33.824451
2092.000000	33.799613
2091.000000	33.678277
2090.000000	33.633013
2089.000000	33.652261
2088.000000	33.648275
2087.000000	33.624615
2086.000000	33.690174
2085.000000	33.587927
2084.000000	33.576729
2083.000000	33.549853
2082.000000	33.465459
2081.000000	33.398176
2080.000000	33.367195
2079.000000	33.296794
2078.000000	33.269720
2077.000000	33.239101
2076.000000	33.121098
2075.000000	32.948696
2074.000000	32.910040
2073.000000	32.935428
2072.000000	32.816636
2071.000000	32.817502
2070.000000	32.669538
2069.000000	32.545881
2068.000000	32.465773
2067.000000	32.363088
2066.000000	32.236535
2065.000000	32.160624
2064.000000	32.072815
2063.000000	31.871215
2062.000000	31.800633
2061.000000	31.740204
2060.000000	31.576355
2059.000000	31.514863
2058.000000	31.460798
2057.000000	31.358987
2056.000000	31.241395
2055.000000	31.095133
2054.000000	31.004752
2053.000000	30.967707
2052.000000	30.886380
2051.000000	30.769915
2050.000000	30.700343
2049.000000	30.686368
2048.000000	30.560761
2047.000000	30.461937
2046.000000	30.491083
2045.000000	30.458874
2044.000000	30.420856
2043.000000	30.467870
2042.000000	30.425184
2041.000000	30.440547
2040.000000	30.491075
2039.000000	30.429640
2038.000000	30.436739
2037.000000	30.517233
2036.000000	30.558527
2035.000000	30.635593
2034.000000	30.702513
2033.000000	30.686713
2032.000000	30.768834
2031.000000	30.866726
2030.000000	30.899525
2029.000000	31.008475
2028.000000	31.093638
2027.000000	31.120103
2026.000000	31.209077
2025.000000	31.243708
2024.000000	31.274731
2023.000000	31.330178
2022.000000	31.341103
2021.000000	31.323956
2020.000000	31.351396
2019.000000	31.374633
2018.000000	31.355402
2017.000000	31.356528
2016.000000	31.317072
2015.000000	31.265650
2014.000000	31.250734
2013.000000	31.239799
2012.000000	31.195901
2011.000000	31.174732
2010.000000	31.123759
2009.000000	31.010576
2008.000000	30.935876
2007.000000	30.872419
2006.000000	30.872083
2005.000000	30.803008
2004.000000	30.692499
2003.000000	30.641589
2002.000000	30.572166
2001.000000	30.489874
2000.000000	30.376348
1999.000000	30.304280
1998.000000	30.282978
1997.000000	30.205715
1996.000000	30.078382
1995.000000	30.012062
1994.000000	29.948613
1993.000000	29.865862
1992.000000	29.774080
1991.000000	29.714055
1990.000000	29.662785
1989.000000	29.585809
1988.000000	29.492007
1987.000000	29.424356
1986.000000	29.310985
1985.000000	29.230897
1984.000000	29.176743
1983.000000	29.074244
1982.000000	28.996607
1981.000000	28.967019
1980.000000	28.905637
1979.000000	28.801691
1978.000000	28.731295
1977.000000	28.626816
1976.000000	28.542496
1975.000000	28.478031
1974.000000	28.428203
1973.000000	28.387313
1972.000000	28.324280
1971.000000	28.243698
1970.000000	28.131973
1969.000000	28.104388
1968.000000	28.039883
1967.000000	27.944085
1966.000000	27.912913
1965.000000	27.839075
1964.000000	27.804928
1963.000000	27.750733
1962.000000	27.599833
1961.000000	27.512661
1960.000000	27.515172
1959.000000	27.421461
1958.000000	27.416101
1957.000000	27.397587
1956.000000	27.337501
1955.000000	27.263831
1954.000000	27.236518
1953.000000	27.217590
1952.000000	27.145760
1951.000000	27.120765
1950.000000	27.120781
1949.000000	27.059059
1948.000000	27.067809
1947.000000	27.009852
1946.000000	27.048854
1945.000000	27.057885
1944.000000	27.030114
1943.000000	27.080094
1942.000000	27.078894
1941.000000	27.067550
1940.000000	27.071559
1939.000000	27.155240
1938.000000	27.210154
1937.000000	27.288600
1936.000000	27.278937
1935.000000	27.278053
1934.000000	27.414465
1933.000000	27.477233
1932.000000	27.510602
1931.000000	27.669274
1930.000000	27.775064
1929.000000	27.867732
1928.000000	28.042930
1927.000000	28.134639
1926.000000	28.298459
1925.000000	28.445593
1924.000000	28.574202
1923.000000	28.811833
1922.000000	28.949102
1921.000000	29.168584
1920.000000	29.312773
1919.000000	29.480562
1918.000000	29.743202
1917.000000	29.957598
1916.000000	30.088597
1915.000000	30.399997
1914.000000	30.726029
1913.000000	31.107124
1912.000000	31.213234
1911.000000	31.517386
1910.000000	31.765190
1909.000000	32.076573
1908.000000	32.345361
1907.000000	32.735667
1906.000000	33.031417
1905.000000	33.441647
1904.000000	33.791649
1903.000000	34.117696
1902.000000	34.516250
1901.000000	34.910277
1900.000000	35.282690
1899.000000	35.680845
1898.000000	36.063439
1897.000000	36.377403
1896.000000	36.771639
1895.000000	37.122481
1894.000000	37.505670
1893.000000	37.887598
1892.000000	38.284505
1891.000000	38.569852
1890.000000	38.930835
1889.000000	39.255462
1888.000000	39.531210
1887.000000	39.858095
1886.000000	40.172548
1885.000000	40.489792
1884.000000	40.731782
1883.000000	41.041018
1882.000000	41.305447
1881.000000	41.596224
1880.000000	41.799994
1879.000000	42.000703
1878.000000	42.218511
1877.000000	42.532669
1876.000000	42.724405
1875.000000	42.971682
1874.000000	43.153389
1873.000000	43.301697
1872.000000	43.438719
1871.000000	43.588066
1870.000000	43.802781
1869.000000	43.946978
1868.000000	44.026994
1867.000000	44.129403
1866.000000	44.235692
1865.000000	44.307175
1864.000000	44.325504
1863.000000	44.412646
1862.000000	44.445781
1861.000000	44.507907
1860.000000	44.578037
1859.000000	44.617648
1858.000000	44.659865
1857.000000	44.691867
1856.000000	44.711980
1855.000000	44.711104
1854.000000	44.737802
1853.000000	44.781132
1852.000000	44.792561
1851.000000	44.835480
1850.000000	44.817657
1849.000000	44.819377
1848.000000	44.828558
1847.000000	44.852476
1846.000000	44.829290
1845.000000	44.824057
1844.000000	44.828067
1843.000000	44.808111
1842.000000	44.777735
1841.000000	44.762598
1840.000000	44.737510
1839.000000	44.707558
1838.000000	44.693801
1837.000000	44.661317
1836.000000	44.634757
1835.000000	44.574522
1834.000000	44.546284
1833.000000	44.531203
1832.000000	44.501875
1831.000000	44.461161
1830.000000	44.432480
1829.000000	44.384875
1828.000000	44.357820
1827.000000	44.343475
1826.000000	44.303156
1825.000000	44.260861
1824.000000	44.251136
1823.000000	44.227130
1822.000000	44.173953
1821.000000	44.154842
1820.000000	44.155094
1819.000000	44.100361
1818.000000	44.075659
1817.000000	44.072370
1816.000000	44.036021
1815.000000	43.988487
1814.000000	43.949773
1813.000000	43.934862
1812.000000	43.916721
1811.000000	43.896133
1810.000000	43.866358
1809.000000	43.835876
1808.000000	43.813907
1807.000000	43.777496
1806.000000	43.753592
1805.000000	43.734939
1804.000000	43.713168
1803.000000	43.700067
1802.000000	43.669662
1801.000000	43.642384
1800.000000	43.618471
1799.000000	43.599544
1798.000000	43.580001
1797.000000	43.564690
1796.000000	43.552135
1795.000000	43.529826
1794.000000	43.535339
1793.000000	43.499618
1792.000000	43.462564
1791.000000	43.478914
1790.000000	43.474002
1789.000000	43.461761
1788.000000	43.443188
1787.000000	43.440359
1786.000000	43.414160
1785.000000	43.395005
1784.000000	43.374793
1783.000000	43.348430
1782.000000	43.324391
1781.000000	43.299365
1780.000000	43.274404
1779.000000	43.256330
1778.000000	43.226708
1777.000000	43.197401
1776.000000	43.147563
1775.000000	43.107760
1774.000000	43.075754
1773.000000	43.058028
1772.000000	43.040020
1771.000000	42.984522
1770.000000	42.936587
1769.000000	42.903710
1768.000000	42.876717
1767.000000	42.834472
1766.000000	42.807316
1765.000000	42.792301
1764.000000	42.747033
1763.000000	42.695540
1762.000000	42.661999
1761.000000	42.636631
1760.000000	42.585036
1759.000000	42.556045
1758.000000	42.512144
1757.000000	42.490247
1756.000000	42.480682
1755.000000	42.441929
1754.000000	42.390186
1753.000000	42.373923
1752.000000	42.347687
1751.000000	42.304716
1750.000000	42.253897
1749.000000	42.257004
1748.000000	42.206428
1747.000000	42.150813
1746.000000	42.131134
1745.000000	42.051565
1744.000000	42.032747
1743.000000	42.009364
1742.000000	41.966827
1741.000000	41.925298
1740.000000	41.933783
1739.000000	41.900136
1738.000000	41.855190
1737.000000	41.838407
1736.000000	41.840473
1735.000000	41.795010
1734.000000	41.801753
1733.000000	41.799163
1732.000000	41.795235
1731.000000	41.805962
1730.000000	41.822361
1729.000000	41.849539
1728.000000	41.888014
1727.000000	41.914965
1726.000000	41.977270
1725.000000	42.029058
1724.000000	42.054935
1723.000000	42.100643
1722.000000	42.189756
1721.000000	42.259695
1720.000000	42.339066
1719.000000	42.416369
1718.000000	42.442416
1717.000000	42.518880
1716.000000	42.575320
1715.000000	42.652204
1714.000000	42.703640
1713.000000	42.777570
1712.000000	42.794903
1711.000000	42.879260
1710.000000	42.946582
1709.000000	42.947618
1708.000000	43.001395
1707.000000	43.019697
1706.000000	43.013101
1705.000000	43.066728
1704.000000	43.081529
1703.000000	43.077639
1702.000000	43.096216
1701.000000	43.104738
1700.000000	43.134396
1699.000000	43.110198
1698.000000	43.136601
1697.000000	43.170930
1696.000000	43.177414
1695.000000	43.202069
1694.000000	43.237661
1693.000000	43.282987
1692.000000	43.270304
1691.000000	43.319676
1690.000000	43.377966
1689.000000	43.426248
1688.000000	43.502319
1687.000000	43.575449
1686.000000	43.646888
1685.000000	43.732655
1684.000000	43.837907
1683.000000	43.927254
1682.000000	44.038661
1681.000000	44.147661
1680.000000	44.269474
1679.000000	44.378171
1678.000000	44.477686
1677.000000	44.569655
1676.000000	44.683905
1675.000000	44.811700
1674.000000	44.904152
1673.000000	45.032503
1672.000000	45.133155
1671.000000	45.237248
1670.000000	45.332524
1669.000000	45.454849
1668.000000	45.544523
1667.000000	45.621912
1666.000000	45.667096
1665.000000	45.742433
1664.000000	45.797178
1663.000000	45.823761
1662.000000	45.879413
1661.000000	45.942455
1660.000000	45.964518
1659.000000	46.003832
1658.000000	46.040105
1657.000000	46.076711
1656.000000	46.085049
1655.000000	46.122245
1654.000000	46.144205
1653.000000	46.133116
1652.000000	46.142110
1651.000000	46.127960
1650.000000	46.136390
1649.000000	46.133567
1648.000000	46.097229
1647.000000	46.107313
1646.000000	46.099360
1645.000000	46.079098
1644.000000	46.075264
1643.000000	46.059444
1642.000000	46.037397
1641.000000	46.010039
1640.000000	45.985628
1639.000000	45.964175
1638.000000	45.944519
1637.000000	45.930727
1636.000000	45.895863
1635.000000	45.881437
1634.000000	45.864547
1633.000000	45.814333
1632.000000	45.797391
1631.000000	45.759601
1630.000000	45.720520
1629.000000	45.679993
1628.000000	45.640446
1627.000000	45.622938
1626.000000	45.589710
1625.000000	45.556291
1624.000000	45.522344
1623.000000	45.480304
1622.000000	45.436955
1621.000000	45.398007
1620.000000	45.358695
1619.000000	45.307875
1618.000000	45.262062
1617.000000	45.223422
1616.000000	45.194785
1615.000000	45.150577
1614.000000	45.109468
1613.000000	45.057535
1612.000000	45.014168
1611.000000	44.981364
1610.000000	44.927200
1609.000000	44.877620
1608.000000	44.840905
1607.000000	44.786818
1606.000000	44.727238
1605.000000	44.687500
1604.000000	44.642564
1603.000000	44.590900
1602.000000	44.550500
1601.000000	44.511286
1600.000000	44.463354
1599.000000	44.408926
1598.000000	44.357713
1597.000000	44.320036
1596.000000	44.280752
1595.000000	44.241164
1594.000000	44.209327
1593.000000	44.168814
1592.000000	44.127916
1591.000000	44.074795
1590.000000	44.035118
1589.000000	44.006398
1588.000000	43.961617
1587.000000	43.924964
1586.000000	43.886705
1585.000000	43.853528
1584.000000	43.828475
1583.000000	43.795299
1582.000000	43.755665
1581.000000	43.712427
1580.000000	43.678956
1579.000000	43.651171
1578.000000	43.631047
1577.000000	43.585872
1576.000000	43.539362
1575.000000	43.515088
1574.000000	43.470211
1573.000000	43.421742
1572.000000	43.400925
1571.000000	43.373490
1570.000000	43.338211
1569.000000	43.320433
1568.000000	43.278602
1567.000000	43.252174
1566.000000	43.227173
1565.000000	43.193730
1564.000000	43.177620
1563.000000	43.156020
1562.000000	43.129506
1561.000000	43.102093
1560.000000	43.084313
1559.000000	43.066042
1558.000000	43.036383
1557.000000	43.002344
1556.000000	42.996550
1555.000000	42.982997
1554.000000	42.964012
1553.000000	42.945671
1552.000000	42.919066
1551.000000	42.887159
1550.000000	42.847524
1549.000000	42.815200
1548.000000	42.789974
1547.000000	42.739063
1546.000000	42.708594
1545.000000	42.660254
1544.000000	42.586647
1543.000000	42.522863
1542.000000	42.477309
1541.000000	42.409688
1540.000000	42.351104
1539.000000	42.297545
1538.000000	42.225774
1537.000000	42.168488
1536.000000	42.105514
1535.000000	42.047046
1534.000000	41.966619
1533.000000	41.918003
1532.000000	41.870402
1531.000000	41.808348
1530.000000	41.746075
1529.000000	41.677602
1528.000000	41.638982
1527.000000	41.592705
1526.000000	41.543340
1525.000000	41.502191
1524.000000	41.460113
1523.000000	41.433319
1522.000000	41.378923
1521.000000	41.350418
1520.000000	41.340925
1519.000000	41.313251
1518.000000	41.280990
1517.000000	41.257188
1516.000000	41.222451
1515.000000	41.193925
1514.000000	41.175142
1513.000000	41.153756
1512.000000	41.173164
1511.000000	41.196822
1510.000000	41.188660
1509.000000	41.188324
1508.000000	41.169006
1507.000000	41.129505
1506.000000	41.098919
1505.000000	41.077064
1504.000000	41.061304
1503.000000	41.071130
1502.000000	41.051763
1501.000000	41.021400
1500.000000	41.018665
1499.000000	41.015453
1498.000000	41.007963
1497.000000	41.013744
1496.000000	41.008171
1495.000000	41.015706
1494.000000	41.006703
1493.000000	41.021507
1492.000000	41.023073
1491.000000	41.036365
1490.000000	41.051239
1489.000000	41.068268
1488.000000	41.056857
1487.000000	41.080527
1486.000000	41.093120
1485.000000	41.101381
1484.000000	41.128208
1483.000000	41.153981
1482.000000	41.153759
1481.000000	41.183205
1480.000000	41.189772
1479.000000	41.202439
1478.000000	41.221551
1477.000000	41.243451
1476.000000	41.268863
1475.000000	41.288385
1474.000000	41.293653
1473.000000	41.304957
1472.000000	41.325815
1471.000000	41.372466
1470.000000	41.392534
