PE UV       SUBTECH     SPECTRUM    ASCII       PEDS        4.00        
   -1
RTmsfkat101.Sample.asc
18/03/14
14:36:52.00
18/03/14
14:36:52.00
Administrator

200.000000
1
Lambda 750
750N8071901
PerkinElmer UV WinLab 6.0.4.0738 / 1.61.00 Lambda 900

0
0
3350/servo 860.8/2
0
0
UV/VIS
1
1
1
CommonBeamDepol,150mm sphere / downward view
0
0
0
0
Program
Program
3350/servo 860.8/2
3350/0.2 860.8/0.2
3350/0.2 860.8/0.2
0
1
 
 
 
0
 
860.8
319.2
860.8
Front
100
on
 
 
0
0
0
 
0
 
 
 
0
 
 
0
0
0
0
0
 
 
 
 
0
0


0
0
#HDR
-1
-1
#GR
nm
%R
1.0
0.0
2350.000000
-1.000000
2151
8
46.074626
6.541354
#DATA
2350.000000	25.129215
2349.000000	25.304505
2348.000000	25.103182
2347.000000	25.619783
2346.000000	25.513438
2345.000000	25.723613
2344.000000	25.382264
2343.000000	25.027275
2342.000000	25.086301
2341.000000	25.473239
2340.000000	25.618742
2339.000000	25.973633
2338.000000	25.664467
2337.000000	25.891903
2336.000000	25.823627
2335.000000	25.993384
2334.000000	26.265619
2333.000000	26.559597
2332.000000	26.177879
2331.000000	25.976260
2330.000000	25.883956
2329.000000	25.973196
2328.000000	26.174058
2327.000000	26.095458
2326.000000	26.156985
2325.000000	26.258910
2324.000000	26.046870
2323.000000	25.782889
2322.000000	25.761660
2321.000000	25.711990
2320.000000	25.804037
2319.000000	25.877046
2318.000000	25.864633
2317.000000	25.762774
2316.000000	25.708488
2315.000000	25.593276
2314.000000	25.481754
2313.000000	25.349519
2312.000000	25.428636
2311.000000	25.572431
2310.000000	25.454400
2309.000000	25.756528
2308.000000	25.430663
2307.000000	25.270808
2306.000000	25.315475
2305.000000	25.408602
2304.000000	25.272353
2303.000000	25.238184
2302.000000	25.355638
2301.000000	25.337399
2300.000000	25.064366
2299.000000	25.017029
2298.000000	25.049342
2297.000000	25.105103
2296.000000	25.156017
2295.000000	24.966071
2294.000000	24.974362
2293.000000	24.961838
2292.000000	24.848048
2291.000000	24.837679
2290.000000	24.853251
2289.000000	24.943498
2288.000000	24.925257
2287.000000	25.009207
2286.000000	24.940147
2285.000000	24.820730
2284.000000	24.823295
2283.000000	24.757044
2282.000000	24.736795
2281.000000	24.959467
2280.000000	24.863770
2279.000000	24.945947
2278.000000	24.958705
2277.000000	24.878500
2276.000000	24.882769
2275.000000	24.914469
2274.000000	24.851929
2273.000000	24.916716
2272.000000	24.922236
2271.000000	24.911033
2270.000000	24.896170
2269.000000	24.823896
2268.000000	24.906072
2267.000000	25.223680
2266.000000	25.315970
2265.000000	25.346836
2264.000000	25.363325
2263.000000	25.408129
2262.000000	25.449259
2261.000000	25.428356
2260.000000	25.560169
2259.000000	25.766899
2258.000000	25.805509
2257.000000	25.845845
2256.000000	25.962237
2255.000000	26.094283
2254.000000	26.237132
2253.000000	26.264632
2252.000000	26.346764
2251.000000	26.456913
2250.000000	26.563523
2249.000000	26.839859
2248.000000	26.917247
2247.000000	26.815459
2246.000000	26.803253
2245.000000	26.996141
2244.000000	27.240071
2243.000000	27.434087
2242.000000	27.478689
2241.000000	27.433594
2240.000000	27.498464
2239.000000	27.596226
2238.000000	27.591410
2237.000000	27.626203
2236.000000	27.607017
2235.000000	27.614746
2234.000000	27.719423
2233.000000	27.713636
2232.000000	27.727014
2231.000000	27.803607
2230.000000	27.924814
2229.000000	28.012723
2228.000000	28.022577
2227.000000	27.944978
2226.000000	27.801172
2225.000000	27.809537
2224.000000	27.850886
2223.000000	27.822037
2222.000000	27.912543
2221.000000	27.950835
2220.000000	27.887331
2219.000000	27.856941
2218.000000	27.807479
2217.000000	27.849827
2216.000000	27.870751
2215.000000	27.902293
2214.000000	27.950154
2213.000000	27.886367
2212.000000	27.799668
2211.000000	27.713508
2210.000000	27.653306
2209.000000	27.704439
2208.000000	27.626983
2207.000000	27.635713
2206.000000	27.682513
2205.000000	27.597772
2204.000000	27.550263
2203.000000	27.472519
2202.000000	27.434127
2201.000000	27.358183
2200.000000	27.321688
2199.000000	27.313037
2198.000000	27.335657
2197.000000	27.337056
2196.000000	27.186014
2195.000000	27.218749
2194.000000	27.170769
2193.000000	27.152503
2192.000000	27.205554
2191.000000	27.108275
2190.000000	27.123289
2189.000000	27.175539
2188.000000	27.070532
2187.000000	27.022348
2186.000000	27.087532
2185.000000	26.986533
2184.000000	27.013396
2183.000000	27.155261
2182.000000	27.097884
2181.000000	27.161078
2180.000000	27.210950
2179.000000	27.132919
2178.000000	27.079949
2177.000000	27.024536
2176.000000	26.975890
2175.000000	27.016900
2174.000000	27.061653
2173.000000	27.123458
2172.000000	27.121582
2171.000000	27.162136
2170.000000	27.269189
2169.000000	27.309193
2168.000000	27.358241
2167.000000	27.364499
2166.000000	27.371905
2165.000000	27.357186
2164.000000	27.451830
2163.000000	27.666947
2162.000000	27.820339
2161.000000	27.629127
2160.000000	27.840185
2159.000000	27.922269
2158.000000	27.874005
2157.000000	28.029996
2156.000000	28.178763
2155.000000	28.220084
2154.000000	28.332102
2153.000000	28.482571
2152.000000	28.298200
2151.000000	28.377342
2150.000000	28.428666
2149.000000	28.506212
2148.000000	28.711018
2147.000000	28.670159
2146.000000	28.692954
2145.000000	28.780607
2144.000000	28.826923
2143.000000	28.877624
2142.000000	28.941210
2141.000000	29.277819
2140.000000	29.015653
2139.000000	29.165556
2138.000000	29.349972
2137.000000	29.265179
2136.000000	29.360685
2135.000000	29.416700
2134.000000	29.435482
2133.000000	29.288322
2132.000000	29.554255
2131.000000	29.730209
2130.000000	29.691632
2129.000000	29.649827
2128.000000	29.646854
2127.000000	29.587543
2126.000000	29.799794
2125.000000	29.728567
2124.000000	29.749627
2123.000000	29.799145
2122.000000	29.880871
2121.000000	29.853960
2120.000000	29.829012
2119.000000	29.870953
2118.000000	29.826346
2117.000000	29.875865
2116.000000	29.883545
2115.000000	29.981430
2114.000000	30.058059
2113.000000	29.868056
2112.000000	29.945721
2111.000000	29.868887
2110.000000	29.773373
2109.000000	29.995698
2108.000000	29.933807
2107.000000	29.999768
2106.000000	30.036440
2105.000000	29.962162
2104.000000	30.039568
2103.000000	30.029791
2102.000000	29.964835
2101.000000	29.979809
2100.000000	30.067934
2099.000000	30.142136
2098.000000	29.972508
2097.000000	29.983948
2096.000000	30.026123
2095.000000	30.035670
2094.000000	30.014945
2093.000000	29.971494
2092.000000	30.060732
2091.000000	29.958655
2090.000000	29.977244
2089.000000	29.918831
2088.000000	29.988538
2087.000000	30.030870
2086.000000	29.924075
2085.000000	29.978580
2084.000000	29.874333
2083.000000	29.860978
2082.000000	29.766779
2081.000000	29.826228
2080.000000	29.763302
2079.000000	29.752019
2078.000000	29.648922
2077.000000	29.644967
2076.000000	29.568696
2075.000000	29.516336
2074.000000	29.461489
2073.000000	29.420984
2072.000000	29.341163
2071.000000	29.285308
2070.000000	29.299995
2069.000000	29.201323
2068.000000	29.102502
2067.000000	29.032594
2066.000000	28.953711
2065.000000	28.917037
2064.000000	28.844079
2063.000000	28.701481
2062.000000	28.641637
2061.000000	28.531083
2060.000000	28.478743
2059.000000	28.464354
2058.000000	28.407742
2057.000000	28.256757
2056.000000	28.215509
2055.000000	28.183932
2054.000000	28.112397
2053.000000	28.063736
2052.000000	28.008365
2051.000000	27.934823
2050.000000	27.886804
2049.000000	27.837005
2048.000000	27.731487
2047.000000	27.721164
2046.000000	27.706153
2045.000000	27.681225
2044.000000	27.680668
2043.000000	27.668470
2042.000000	27.688030
2041.000000	27.703360
2040.000000	27.694595
2039.000000	27.676075
2038.000000	27.731033
2037.000000	27.769712
2036.000000	27.782676
2035.000000	27.840112
2034.000000	27.861664
2033.000000	27.879275
2032.000000	27.979675
2031.000000	28.019785
2030.000000	28.059767
2029.000000	28.108857
2028.000000	28.164816
2027.000000	28.239347
2026.000000	28.264500
2025.000000	28.275252
2024.000000	28.269005
2023.000000	28.310464
2022.000000	28.345012
2021.000000	28.355242
2020.000000	28.390386
2019.000000	28.417448
2018.000000	28.415029
2017.000000	28.443564
2016.000000	28.407852
2015.000000	28.343424
2014.000000	28.347888
2013.000000	28.336229
2012.000000	28.287948
2011.000000	28.317164
2010.000000	28.309145
2009.000000	28.247997
2008.000000	28.176949
2007.000000	28.107206
2006.000000	28.077399
2005.000000	28.063309
2004.000000	27.980246
2003.000000	27.909178
2002.000000	27.898754
2001.000000	27.838003
2000.000000	27.769287
1999.000000	27.749773
1998.000000	27.713946
1997.000000	27.651737
1996.000000	27.616265
1995.000000	27.557191
1994.000000	27.462777
1993.000000	27.388821
1992.000000	27.325623
1991.000000	27.303265
1990.000000	27.254279
1989.000000	27.200637
1988.000000	27.146293
1987.000000	27.101805
1986.000000	26.999398
1985.000000	26.953572
1984.000000	26.914976
1983.000000	26.884880
1982.000000	26.845481
1981.000000	26.812537
1980.000000	26.724902
1979.000000	26.704437
1978.000000	26.658612
1977.000000	26.585332
1976.000000	26.523295
1975.000000	26.525513
1974.000000	26.463102
1973.000000	26.420998
1972.000000	26.366223
1971.000000	26.311621
1970.000000	26.262374
1969.000000	26.207145
1968.000000	26.200968
1967.000000	26.173411
1966.000000	26.117754
1965.000000	26.093418
1964.000000	26.058236
1963.000000	26.010146
1962.000000	25.959759
1961.000000	25.921861
1960.000000	25.890204
1959.000000	25.869958
1958.000000	25.821849
1957.000000	25.815500
1956.000000	25.725051
1955.000000	25.663264
1954.000000	25.674293
1953.000000	25.671531
1952.000000	25.635254
1951.000000	25.673255
1950.000000	25.601181
1949.000000	25.607363
1948.000000	25.609746
1947.000000	25.600608
1946.000000	25.578723
1945.000000	25.557560
1944.000000	25.552867
1943.000000	25.659075
1942.000000	25.621400
1941.000000	25.609092
1940.000000	25.708610
1939.000000	25.696546
1938.000000	25.675177
1937.000000	25.742167
1936.000000	25.735358
1935.000000	25.751628
1934.000000	25.806070
1933.000000	25.978199
1932.000000	26.024614
1931.000000	25.989351
1930.000000	26.080145
1929.000000	26.162605
1928.000000	26.246112
1927.000000	26.297617
1926.000000	26.426190
1925.000000	26.499869
1924.000000	26.691760
1923.000000	26.753961
1922.000000	26.903276
1921.000000	27.102102
1920.000000	27.142172
1919.000000	27.242291
1918.000000	27.512363
1917.000000	27.595992
1916.000000	27.689231
1915.000000	27.879889
1914.000000	28.048525
1913.000000	28.344775
1912.000000	28.424650
1911.000000	28.669721
1910.000000	28.833758
1909.000000	29.045782
1908.000000	29.259551
1907.000000	29.568146
1906.000000	29.735530
1905.000000	29.966535
1904.000000	30.231134
1903.000000	30.568382
1902.000000	30.805508
1901.000000	31.113468
1900.000000	31.305400
1899.000000	31.613990
1898.000000	31.967016
1897.000000	32.219925
1896.000000	32.509722
1895.000000	32.775760
1894.000000	33.107728
1893.000000	33.339508
1892.000000	33.636676
1891.000000	33.963013
1890.000000	34.193301
1889.000000	34.470245
1888.000000	34.660464
1887.000000	34.952638
1886.000000	35.258847
1885.000000	35.537973
1884.000000	35.804831
1883.000000	36.055991
1882.000000	36.270018
1881.000000	36.465259
1880.000000	36.677518
1879.000000	36.849523
1878.000000	37.089141
1877.000000	37.266783
1876.000000	37.374146
1875.000000	37.583640
1874.000000	37.743357
1873.000000	37.831017
1872.000000	37.992837
1871.000000	38.149176
1870.000000	38.250071
1869.000000	38.319952
1868.000000	38.421461
1867.000000	38.505747
1866.000000	38.558238
1865.000000	38.636936
1864.000000	38.735633
1863.000000	38.772693
1862.000000	38.831623
1861.000000	38.820573
1860.000000	38.904189
1859.000000	38.934591
1858.000000	38.969011
1857.000000	39.047890
1856.000000	39.064161
1855.000000	39.091987
1854.000000	39.149620
1853.000000	39.159196
1852.000000	39.159372
1851.000000	39.200309
1850.000000	39.211661
1849.000000	39.182700
1848.000000	39.192294
1847.000000	39.178709
1846.000000	39.181892
1845.000000	39.193427
1844.000000	39.188889
1843.000000	39.183780
1842.000000	39.166609
1841.000000	39.137115
1840.000000	39.093810
1839.000000	39.071773
1838.000000	39.045224
1837.000000	39.017259
1836.000000	38.985882
1835.000000	38.936705
1834.000000	38.925094
1833.000000	38.882371
1832.000000	38.871673
1831.000000	38.852813
1830.000000	38.816787
1829.000000	38.815954
1828.000000	38.795040
1827.000000	38.752169
1826.000000	38.745182
1825.000000	38.719017
1824.000000	38.677606
1823.000000	38.649398
1822.000000	38.611908
1821.000000	38.602403
1820.000000	38.601902
1819.000000	38.561725
1818.000000	38.563467
1817.000000	38.547986
1816.000000	38.507873
1815.000000	38.500209
1814.000000	38.484930
1813.000000	38.483270
1812.000000	38.461398
1811.000000	38.427124
1810.000000	38.410471
1809.000000	38.397778
1808.000000	38.388841
1807.000000	38.376077
1806.000000	38.352132
1805.000000	38.329912
1804.000000	38.311725
1803.000000	38.298328
1802.000000	38.288529
1801.000000	38.279515
1800.000000	38.261900
1799.000000	38.256189
1798.000000	38.240328
1797.000000	38.230695
1796.000000	38.221327
1795.000000	38.223185
1794.000000	38.236681
1793.000000	38.216200
1792.000000	38.199411
1791.000000	38.204129
1790.000000	38.193390
1789.000000	38.187682
1788.000000	38.198204
1787.000000	38.195122
1786.000000	38.188620
1785.000000	38.172841
1784.000000	38.146343
1783.000000	38.136777
1782.000000	38.163912
1781.000000	38.165730
1780.000000	38.130579
1779.000000	38.096330
1778.000000	38.059286
1777.000000	38.062430
1776.000000	38.028859
1775.000000	37.986472
1774.000000	37.952878
1773.000000	37.948197
1772.000000	37.896938
1771.000000	37.867457
1770.000000	37.835639
1769.000000	37.806142
1768.000000	37.775756
1767.000000	37.740669
1766.000000	37.729197
1765.000000	37.698839
1764.000000	37.674916
1763.000000	37.639121
1762.000000	37.608990
1761.000000	37.591022
1760.000000	37.572209
1759.000000	37.519010
1758.000000	37.498060
1757.000000	37.477456
1756.000000	37.466181
1755.000000	37.430503
1754.000000	37.402855
1753.000000	37.379206
1752.000000	37.358431
1751.000000	37.316870
1750.000000	37.309927
1749.000000	37.290436
1748.000000	37.259633
1747.000000	37.207314
1746.000000	37.184685
1745.000000	37.150665
1744.000000	37.109188
1743.000000	37.070988
1742.000000	37.064716
1741.000000	37.049862
1740.000000	36.997420
1739.000000	36.973351
1738.000000	36.959908
1737.000000	36.957351
1736.000000	36.932870
1735.000000	36.924941
1734.000000	36.901846
1733.000000	36.906606
1732.000000	36.885526
1731.000000	36.903596
1730.000000	36.926089
1729.000000	36.942116
1728.000000	36.955234
1727.000000	36.982552
1726.000000	37.038506
1725.000000	37.090656
1724.000000	37.120536
1723.000000	37.174226
1722.000000	37.230818
1721.000000	37.263922
1720.000000	37.359126
1719.000000	37.410746
1718.000000	37.444939
1717.000000	37.494829
1716.000000	37.539057
1715.000000	37.626336
1714.000000	37.690515
1713.000000	37.735269
1712.000000	37.771806
1711.000000	37.816719
1710.000000	37.864750
1709.000000	37.909021
1708.000000	37.944250
1707.000000	37.946081
1706.000000	37.987245
1705.000000	37.993632
1704.000000	38.037674
1703.000000	38.035600
1702.000000	38.080149
1701.000000	38.074453
1700.000000	38.064622
1699.000000	38.074699
1698.000000	38.105949
1697.000000	38.113602
1696.000000	38.150352
1695.000000	38.146256
1694.000000	38.184589
1693.000000	38.221354
1692.000000	38.214808
1691.000000	38.280475
1690.000000	38.336339
1689.000000	38.362794
1688.000000	38.428707
1687.000000	38.478672
1686.000000	38.557952
1685.000000	38.643307
1684.000000	38.704705
1683.000000	38.805996
1682.000000	38.913053
1681.000000	39.009238
1680.000000	39.096001
1679.000000	39.179127
1678.000000	39.294444
1677.000000	39.367669
1676.000000	39.477910
1675.000000	39.588574
1674.000000	39.669497
1673.000000	39.806888
1672.000000	39.900938
1671.000000	39.988991
1670.000000	40.072726
1669.000000	40.181042
1668.000000	40.261935
1667.000000	40.356696
1666.000000	40.417229
1665.000000	40.467730
1664.000000	40.514131
1663.000000	40.557676
1662.000000	40.596899
1661.000000	40.671404
1660.000000	40.719981
1659.000000	40.756692
1658.000000	40.768080
1657.000000	40.799592
1656.000000	40.824456
1655.000000	40.852587
1654.000000	40.857856
1653.000000	40.875957
1652.000000	40.905223
1651.000000	40.871472
1650.000000	40.877151
1649.000000	40.889500
1648.000000	40.858958
1647.000000	40.856251
1646.000000	40.855245
1645.000000	40.853998
1644.000000	40.852315
1643.000000	40.831309
1642.000000	40.809987
1641.000000	40.778695
1640.000000	40.770724
1639.000000	40.768730
1638.000000	40.754282
1637.000000	40.736189
1636.000000	40.687612
1635.000000	40.690348
1634.000000	40.678777
1633.000000	40.636844
1632.000000	40.618619
1631.000000	40.597637
1630.000000	40.555775
1629.000000	40.531369
1628.000000	40.515116
1627.000000	40.481768
1626.000000	40.450907
1625.000000	40.429039
1624.000000	40.405081
1623.000000	40.375272
1622.000000	40.352498
1621.000000	40.328277
1620.000000	40.298456
1619.000000	40.261511
1618.000000	40.211246
1617.000000	40.182875
1616.000000	40.157643
1615.000000	40.116864
1614.000000	40.090946
1613.000000	40.068669
1612.000000	40.038112
1611.000000	40.006342
1610.000000	39.968270
1609.000000	39.931154
1608.000000	39.911911
1607.000000	39.877082
1606.000000	39.828696
1605.000000	39.795583
1604.000000	39.761770
1603.000000	39.717417
1602.000000	39.677425
1601.000000	39.652365
1600.000000	39.615793
1599.000000	39.565772
1598.000000	39.522190
1597.000000	39.493831
1596.000000	39.472397
1595.000000	39.447182
1594.000000	39.429026
1593.000000	39.402438
1592.000000	39.369720
1591.000000	39.332829
1590.000000	39.301946
1589.000000	39.270715
1588.000000	39.243308
1587.000000	39.221380
1586.000000	39.184685
1585.000000	39.154430
1584.000000	39.134007
1583.000000	39.117297
1582.000000	39.099695
1581.000000	39.077944
1580.000000	39.051831
1579.000000	39.016119
1578.000000	38.995739
1577.000000	38.962400
1576.000000	38.924229
1575.000000	38.906737
1574.000000	38.874884
1573.000000	38.846315
1572.000000	38.818612
1571.000000	38.786156
1570.000000	38.756690
1569.000000	38.739167
1568.000000	38.721781
1567.000000	38.698466
1566.000000	38.677797
1565.000000	38.663879
1564.000000	38.637468
1563.000000	38.618857
1562.000000	38.602415
1561.000000	38.579975
1560.000000	38.560090
1559.000000	38.538924
1558.000000	38.530331
1557.000000	38.506219
1556.000000	38.494495
1555.000000	38.475622
1554.000000	38.455954
1553.000000	38.448102
1552.000000	38.421738
1551.000000	38.398174
1550.000000	38.384163
1549.000000	38.344208
1548.000000	38.306564
1547.000000	38.275958
1546.000000	38.244125
1545.000000	38.211512
1544.000000	38.160313
1543.000000	38.113477
1542.000000	38.077299
1541.000000	38.037107
1540.000000	37.985181
1539.000000	37.922436
1538.000000	37.872601
1537.000000	37.821146
1536.000000	37.775688
1535.000000	37.723446
1534.000000	37.668974
1533.000000	37.632974
1532.000000	37.583204
1531.000000	37.534505
1530.000000	37.499823
1529.000000	37.457423
1528.000000	37.398605
1527.000000	37.362480
1526.000000	37.344331
1525.000000	37.299285
1524.000000	37.259403
1523.000000	37.236705
1522.000000	37.215058
1521.000000	37.192341
1520.000000	37.181766
1519.000000	37.153783
1518.000000	37.130309
1517.000000	37.113281
1516.000000	37.107266
1515.000000	37.089845
1514.000000	37.053435
1513.000000	37.041692
1512.000000	37.041617
1511.000000	37.052542
1510.000000	37.056952
1509.000000	37.064176
1508.000000	37.076219
1507.000000	37.078096
1506.000000	37.052733
1505.000000	37.029745
1504.000000	37.018048
1503.000000	37.010577
1502.000000	36.999291
1501.000000	36.992544
1500.000000	36.980101
1499.000000	36.979768
1498.000000	36.973357
1497.000000	36.969402
1496.000000	36.972936
1495.000000	36.994545
1494.000000	36.974726
1493.000000	37.000805
1492.000000	37.019476
1491.000000	37.015406
1490.000000	37.031449
1489.000000	37.047985
1488.000000	37.065643
1487.000000	37.083010
1486.000000	37.098556
1485.000000	37.104626
1484.000000	37.105129
1483.000000	37.125769
1482.000000	37.112111
1481.000000	37.159623
1480.000000	37.179869
1479.000000	37.185201
1478.000000	37.233753
1477.000000	37.236211
1476.000000	37.248668
1475.000000	37.263662
1474.000000	37.285865
1473.000000	37.307507
1472.000000	37.319403
1471.000000	37.342221
1470.000000	37.364840
