PE UV       SUBTECH     SPECTRUM    ASCII       PEDS        4.00        
   -1
RTms1240111.Sample.asc
18/03/14
12:27:37.00
18/03/14
12:27:37.00
Administrator

200.000000
1
Lambda 750
750N8071901
PerkinElmer UV WinLab 6.0.4.0738 / 1.61.00 Lambda 900

0
0
3350/servo 860.8/2
0
0
UV/VIS
1
1
1
CommonBeamDepol,150mm sphere / downward view
0
0
0
0
Program
Program
3350/servo 860.8/2
3350/0.2 860.8/0.2
3350/0.2 860.8/0.2
0
1
 
 
 
0
 
860.8
319.2
860.8
Front
100
on
 
 
0
0
0
 
0
 
 
 
0
 
 
0
0
0
0
0
 
 
 
 
0
0


0
0
#HDR
-1
-1
#GR
nm
%R
1.0
0.0
2350.000000
-1.000000
2151
8
48.739676
8.803376
#DATA
2350.000000	22.196423
2349.000000	22.592401
2348.000000	22.179814
2347.000000	22.926357
2346.000000	22.767482
2345.000000	22.447894
2344.000000	22.274802
2343.000000	22.355230
2342.000000	22.569698
2341.000000	22.633703
2340.000000	22.982963
2339.000000	22.966695
2338.000000	23.042083
2337.000000	23.089376
2336.000000	23.250283
2335.000000	23.385767
2334.000000	23.211037
2333.000000	23.284072
2332.000000	23.715813
2331.000000	23.487183
2330.000000	23.289458
2329.000000	22.976176
2328.000000	23.502988
2327.000000	23.226749
2326.000000	23.115262
2325.000000	23.131379
2324.000000	22.982729
2323.000000	22.927542
2322.000000	22.756629
2321.000000	22.824717
2320.000000	22.738416
2319.000000	22.632857
2318.000000	22.579705
2317.000000	22.827931
2316.000000	22.592565
2315.000000	22.479353
2314.000000	22.393265
2313.000000	22.459082
2312.000000	22.355350
2311.000000	22.477818
2310.000000	22.327322
2309.000000	22.282806
2308.000000	22.231321
2307.000000	22.300939
2306.000000	22.274651
2305.000000	22.172596
2304.000000	22.125529
2303.000000	22.119725
2302.000000	22.185943
2301.000000	21.774892
2300.000000	21.838618
2299.000000	21.990698
2298.000000	21.894981
2297.000000	22.056833
2296.000000	22.170571
2295.000000	22.054647
2294.000000	21.917395
2293.000000	21.874791
2292.000000	21.931995
2291.000000	22.104847
2290.000000	21.953443
2289.000000	21.929303
2288.000000	22.032058
2287.000000	22.079750
2286.000000	21.959306
2285.000000	21.860835
2284.000000	21.940037
2283.000000	22.053907
2282.000000	22.169499
2281.000000	22.018823
2280.000000	21.990618
2279.000000	22.274194
2278.000000	22.157048
2277.000000	21.971293
2276.000000	22.116166
2275.000000	21.981727
2274.000000	22.002521
2273.000000	22.290788
2272.000000	22.450985
2271.000000	22.508811
2270.000000	22.528409
2269.000000	22.526581
2268.000000	22.564435
2267.000000	22.738309
2266.000000	22.744585
2265.000000	22.852167
2264.000000	22.968662
2263.000000	22.993267
2262.000000	23.047882
2261.000000	23.217208
2260.000000	23.353371
2259.000000	23.424445
2258.000000	23.583451
2257.000000	23.683875
2256.000000	23.763301
2255.000000	24.043034
2254.000000	24.175929
2253.000000	24.173967
2252.000000	24.414999
2251.000000	24.550765
2250.000000	24.628116
2249.000000	24.856622
2248.000000	24.983688
2247.000000	25.036569
2246.000000	25.195498
2245.000000	25.429507
2244.000000	25.710222
2243.000000	25.881256
2242.000000	25.966246
2241.000000	26.076834
2240.000000	26.074111
2239.000000	25.967313
2238.000000	25.990049
2237.000000	26.110741
2236.000000	26.210168
2235.000000	26.340398
2234.000000	26.458850
2233.000000	26.399173
2232.000000	26.328701
2231.000000	26.513376
2230.000000	26.605027
2229.000000	26.510282
2228.000000	26.482476
2227.000000	26.516356
2226.000000	26.496117
2225.000000	26.562236
2224.000000	26.540098
2223.000000	26.425936
2222.000000	26.424706
2221.000000	26.494962
2220.000000	26.524903
2219.000000	26.523535
2218.000000	26.451870
2217.000000	26.387828
2216.000000	26.255440
2215.000000	26.271152
2214.000000	26.419746
2213.000000	26.412189
2212.000000	26.269811
2211.000000	26.208098
2210.000000	26.092312
2209.000000	26.018413
2208.000000	26.022306
2207.000000	25.966098
2206.000000	25.942141
2205.000000	25.969330
2204.000000	25.947527
2203.000000	25.935037
2202.000000	25.842875
2201.000000	25.760814
2200.000000	25.638588
2199.000000	25.563149
2198.000000	25.673444
2197.000000	25.632905
2196.000000	25.558535
2195.000000	25.484420
2194.000000	25.369933
2193.000000	25.288851
2192.000000	25.271635
2191.000000	25.171464
2190.000000	25.228913
2189.000000	25.140556
2188.000000	25.049993
2187.000000	25.069465
2186.000000	25.118054
2185.000000	25.163017
2184.000000	25.063862
2183.000000	25.036383
2182.000000	25.010978
2181.000000	24.956488
2180.000000	25.025247
2179.000000	25.029041
2178.000000	25.014144
2177.000000	25.033963
2176.000000	24.832218
2175.000000	25.059176
2174.000000	25.148266
2173.000000	25.134890
2172.000000	25.178006
2171.000000	25.270018
2170.000000	25.297564
2169.000000	25.306589
2168.000000	25.362212
2167.000000	25.398988
2166.000000	25.430763
2165.000000	25.471679
2164.000000	25.724919
2163.000000	25.790251
2162.000000	25.762668
2161.000000	25.792713
2160.000000	26.135797
2159.000000	26.248502
2158.000000	26.281147
2157.000000	26.161175
2156.000000	26.206897
2155.000000	26.304927
2154.000000	26.650578
2153.000000	26.653960
2152.000000	26.665028
2151.000000	26.836224
2150.000000	26.684248
2149.000000	27.002834
2148.000000	27.102809
2147.000000	27.131837
2146.000000	27.236047
2145.000000	27.526600
2144.000000	27.456086
2143.000000	27.652756
2142.000000	27.704374
2141.000000	27.815375
2140.000000	27.793906
2139.000000	27.852233
2138.000000	28.150597
2137.000000	28.120024
2136.000000	28.120565
2135.000000	28.109242
2134.000000	28.346606
2133.000000	28.161041
2132.000000	28.328396
2131.000000	28.462317
2130.000000	28.501062
2129.000000	28.684933
2128.000000	28.648127
2127.000000	28.509916
2126.000000	28.487242
2125.000000	28.477791
2124.000000	28.630504
2123.000000	28.605767
2122.000000	28.651087
2121.000000	28.669584
2120.000000	28.614165
2119.000000	28.869781
2118.000000	28.868871
2117.000000	28.888381
2116.000000	28.977919
2115.000000	28.857146
2114.000000	28.789898
2113.000000	28.881172
2112.000000	28.909381
2111.000000	28.816975
2110.000000	28.807346
2109.000000	28.959991
2108.000000	28.888333
2107.000000	28.894442
2106.000000	28.841013
2105.000000	28.843746
2104.000000	28.863507
2103.000000	28.936376
2102.000000	28.859175
2101.000000	28.955406
2100.000000	28.980465
2099.000000	29.021183
2098.000000	28.926238
2097.000000	28.900364
2096.000000	28.735734
2095.000000	28.781221
2094.000000	28.885853
2093.000000	28.817312
2092.000000	28.961061
2091.000000	28.815871
2090.000000	28.717601
2089.000000	28.722146
2088.000000	28.751910
2087.000000	28.724237
2086.000000	28.728944
2085.000000	28.694579
2084.000000	28.629876
2083.000000	28.654786
2082.000000	28.524123
2081.000000	28.456261
2080.000000	28.446819
2079.000000	28.416389
2078.000000	28.320319
2077.000000	28.251257
2076.000000	28.136634
2075.000000	28.080154
2074.000000	28.106733
2073.000000	27.981743
2072.000000	27.858983
2071.000000	27.826609
2070.000000	27.755604
2069.000000	27.579330
2068.000000	27.471155
2067.000000	27.345070
2066.000000	27.302909
2065.000000	27.190133
2064.000000	27.085017
2063.000000	26.987066
2062.000000	26.942760
2061.000000	26.758900
2060.000000	26.711434
2059.000000	26.659315
2058.000000	26.589283
2057.000000	26.491846
2056.000000	26.370644
2055.000000	26.289708
2054.000000	26.204769
2053.000000	26.152723
2052.000000	26.097104
2051.000000	25.979520
2050.000000	25.862494
2049.000000	25.815999
2048.000000	25.819835
2047.000000	25.776364
2046.000000	25.730276
2045.000000	25.688502
2044.000000	25.719365
2043.000000	25.702655
2042.000000	25.668646
2041.000000	25.724924
2040.000000	25.773676
2039.000000	25.760903
2038.000000	25.761887
2037.000000	25.828876
2036.000000	25.862201
2035.000000	25.924098
2034.000000	25.961796
2033.000000	25.994973
2032.000000	26.081838
2031.000000	26.138953
2030.000000	26.195319
2029.000000	26.257661
2028.000000	26.275348
2027.000000	26.329835
2026.000000	26.412178
2025.000000	26.456986
2024.000000	26.446442
2023.000000	26.511046
2022.000000	26.551833
2021.000000	26.532063
2020.000000	26.549777
2019.000000	26.518686
2018.000000	26.494129
2017.000000	26.510195
2016.000000	26.494629
2015.000000	26.480698
2014.000000	26.431585
2013.000000	26.357213
2012.000000	26.311079
2011.000000	26.319195
2010.000000	26.290196
2009.000000	26.194419
2008.000000	26.100690
2007.000000	26.021170
2006.000000	25.973890
2005.000000	25.922156
2004.000000	25.846730
2003.000000	25.776831
2002.000000	25.694421
2001.000000	25.613635
2000.000000	25.492806
1999.000000	25.413172
1998.000000	25.365629
1997.000000	25.275193
1996.000000	25.187694
1995.000000	25.121679
1994.000000	25.030153
1993.000000	24.907220
1992.000000	24.801951
1991.000000	24.747585
1990.000000	24.650651
1989.000000	24.517977
1988.000000	24.433265
1987.000000	24.350537
1986.000000	24.260712
1985.000000	24.205313
1984.000000	24.137508
1983.000000	24.028470
1982.000000	23.972750
1981.000000	23.903104
1980.000000	23.800251
1979.000000	23.678744
1978.000000	23.596605
1977.000000	23.508454
1976.000000	23.442798
1975.000000	23.350211
1974.000000	23.276696
1973.000000	23.205115
1972.000000	23.095017
1971.000000	23.003096
1970.000000	22.932437
1969.000000	22.838153
1968.000000	22.754408
1967.000000	22.718447
1966.000000	22.644937
1965.000000	22.577267
1964.000000	22.544978
1963.000000	22.404659
1962.000000	22.350948
1961.000000	22.244553
1960.000000	22.206128
1959.000000	22.161154
1958.000000	22.144460
1957.000000	22.064153
1956.000000	21.994815
1955.000000	21.949613
1954.000000	21.889175
1953.000000	21.809068
1952.000000	21.770241
1951.000000	21.775344
1950.000000	21.687794
1949.000000	21.653791
1948.000000	21.669037
1947.000000	21.695429
1946.000000	21.630093
1945.000000	21.675646
1944.000000	21.624476
1943.000000	21.697787
1942.000000	21.670609
1941.000000	21.707685
1940.000000	21.742076
1939.000000	21.788780
1938.000000	21.877754
1937.000000	21.955441
1936.000000	22.002959
1935.000000	22.089908
1934.000000	22.125199
1933.000000	22.270195
1932.000000	22.339899
1931.000000	22.454556
1930.000000	22.562676
1929.000000	22.667004
1928.000000	22.911892
1927.000000	23.036407
1926.000000	23.233324
1925.000000	23.438332
1924.000000	23.641869
1923.000000	23.753428
1922.000000	23.984465
1921.000000	24.306816
1920.000000	24.432538
1919.000000	24.604897
1918.000000	24.841450
1917.000000	25.131338
1916.000000	25.330494
1915.000000	25.605818
1914.000000	25.940331
1913.000000	26.201057
1912.000000	26.563301
1911.000000	26.809070
1910.000000	27.080380
1909.000000	27.472935
1908.000000	27.722210
1907.000000	28.150927
1906.000000	28.492957
1905.000000	28.901573
1904.000000	29.301416
1903.000000	29.603488
1902.000000	30.019629
1901.000000	30.346536
1900.000000	30.707223
1899.000000	31.076500
1898.000000	31.443554
1897.000000	31.740134
1896.000000	32.114684
1895.000000	32.504533
1894.000000	32.878106
1893.000000	33.213087
1892.000000	33.535337
1891.000000	33.825376
1890.000000	34.146416
1889.000000	34.431568
1888.000000	34.680196
1887.000000	34.884356
1886.000000	35.148919
1885.000000	35.408937
1884.000000	35.693995
1883.000000	35.896202
1882.000000	36.097879
1881.000000	36.334402
1880.000000	36.604729
1879.000000	36.835076
1878.000000	37.058431
1877.000000	37.283354
1876.000000	37.486252
1875.000000	37.742460
1874.000000	37.983973
1873.000000	38.113382
1872.000000	38.276268
1871.000000	38.464436
1870.000000	38.656709
1869.000000	38.705651
1868.000000	38.827318
1867.000000	38.873834
1866.000000	38.933751
1865.000000	38.978914
1864.000000	39.020578
1863.000000	39.052311
1862.000000	39.096851
1861.000000	39.121067
1860.000000	39.183633
1859.000000	39.217298
1858.000000	39.202555
1857.000000	39.205453
1856.000000	39.240523
1855.000000	39.220278
1854.000000	39.291009
1853.000000	39.289577
1852.000000	39.285288
1851.000000	39.321888
1850.000000	39.321388
1849.000000	39.307648
1848.000000	39.309484
1847.000000	39.365375
1846.000000	39.359166
1845.000000	39.365602
1844.000000	39.375726
1843.000000	39.368701
1842.000000	39.430195
1841.000000	39.421138
1840.000000	39.416749
1839.000000	39.431085
1838.000000	39.405191
1837.000000	39.381323
1836.000000	39.358598
1835.000000	39.330342
1834.000000	39.302719
1833.000000	39.284616
1832.000000	39.275745
1831.000000	39.203904
1830.000000	39.184359
1829.000000	39.167870
1828.000000	39.141986
1827.000000	39.141667
1826.000000	39.127482
1825.000000	39.076555
1824.000000	39.067653
1823.000000	39.056883
1822.000000	39.006999
1821.000000	38.980578
1820.000000	38.965531
1819.000000	38.943438
1818.000000	38.935201
1817.000000	38.919825
1816.000000	38.902415
1815.000000	38.902628
1814.000000	38.901904
1813.000000	38.872474
1812.000000	38.825498
1811.000000	38.787787
1810.000000	38.773717
1809.000000	38.778019
1808.000000	38.765630
1807.000000	38.720628
1806.000000	38.689989
1805.000000	38.676318
1804.000000	38.651038
1803.000000	38.628548
1802.000000	38.628183
1801.000000	38.615068
1800.000000	38.581281
1799.000000	38.582948
1798.000000	38.585700
1797.000000	38.567651
1796.000000	38.531665
1795.000000	38.514765
1794.000000	38.521045
1793.000000	38.498208
1792.000000	38.478607
1791.000000	38.479507
1790.000000	38.457162
1789.000000	38.440818
1788.000000	38.427976
1787.000000	38.432334
1786.000000	38.435422
1785.000000	38.412314
1784.000000	38.364677
1783.000000	38.346290
1782.000000	38.339478
1781.000000	38.311177
1780.000000	38.279374
1779.000000	38.264793
1778.000000	38.239085
1777.000000	38.213428
1776.000000	38.198414
1775.000000	38.156032
1774.000000	38.123968
1773.000000	38.096383
1772.000000	38.076380
1771.000000	38.074346
1770.000000	38.034127
1769.000000	37.995395
1768.000000	37.960549
1767.000000	37.904435
1766.000000	37.878792
1765.000000	37.839115
1764.000000	37.856679
1763.000000	37.810244
1762.000000	37.753229
1761.000000	37.733432
1760.000000	37.717464
1759.000000	37.690668
1758.000000	37.664206
1757.000000	37.642290
1756.000000	37.634376
1755.000000	37.608120
1754.000000	37.572345
1753.000000	37.530902
1752.000000	37.493193
1751.000000	37.480441
1750.000000	37.452919
1749.000000	37.439112
1748.000000	37.402129
1747.000000	37.347972
1746.000000	37.334095
1745.000000	37.275193
1744.000000	37.249646
1743.000000	37.232132
1742.000000	37.169769
1741.000000	37.132682
1740.000000	37.110885
1739.000000	37.061878
1738.000000	37.046809
1737.000000	37.035328
1736.000000	37.035501
1735.000000	37.008993
1734.000000	36.992185
1733.000000	36.993101
1732.000000	36.971706
1731.000000	37.011908
1730.000000	37.027886
1729.000000	37.060454
1728.000000	37.116162
1727.000000	37.147629
1726.000000	37.198730
1725.000000	37.239757
1724.000000	37.293209
1723.000000	37.370071
1722.000000	37.439979
1721.000000	37.494652
1720.000000	37.548022
1719.000000	37.667720
1718.000000	37.689811
1717.000000	37.787665
1716.000000	37.852119
1715.000000	37.921463
1714.000000	37.991667
1713.000000	38.045058
1712.000000	38.143726
1711.000000	38.183638
1710.000000	38.224493
1709.000000	38.281552
1708.000000	38.321633
1707.000000	38.329800
1706.000000	38.384735
1705.000000	38.439275
1704.000000	38.454683
1703.000000	38.505212
1702.000000	38.516778
1701.000000	38.556768
1700.000000	38.604846
1699.000000	38.563389
1698.000000	38.634862
1697.000000	38.668937
1696.000000	38.723318
1695.000000	38.733736
1694.000000	38.789631
1693.000000	38.846869
1692.000000	38.877473
1691.000000	38.941019
1690.000000	38.970407
1689.000000	39.033677
1688.000000	39.133899
1687.000000	39.214995
1686.000000	39.266945
1685.000000	39.342179
1684.000000	39.433705
1683.000000	39.530393
1682.000000	39.655711
1681.000000	39.774755
1680.000000	39.868311
1679.000000	39.922804
1678.000000	40.028245
1677.000000	40.108392
1676.000000	40.234412
1675.000000	40.344613
1674.000000	40.429163
1673.000000	40.516357
1672.000000	40.627525
1671.000000	40.707999
1670.000000	40.786309
1669.000000	40.874489
1668.000000	40.951229
1667.000000	41.026007
1666.000000	41.066876
1665.000000	41.109311
1664.000000	41.133545
1663.000000	41.179432
1662.000000	41.228264
1661.000000	41.282665
1660.000000	41.328814
1659.000000	41.368728
1658.000000	41.399146
1657.000000	41.431116
1656.000000	41.442140
1655.000000	41.479698
1654.000000	41.500919
1653.000000	41.514941
1652.000000	41.513574
1651.000000	41.511376
1650.000000	41.519651
1649.000000	41.526897
1648.000000	41.515464
1647.000000	41.529664
1646.000000	41.545524
1645.000000	41.524916
1644.000000	41.522753
1643.000000	41.518342
1642.000000	41.487577
1641.000000	41.490632
1640.000000	41.501963
1639.000000	41.486667
1638.000000	41.466886
1637.000000	41.448408
1636.000000	41.435845
1635.000000	41.424652
1634.000000	41.408947
1633.000000	41.385256
1632.000000	41.367954
1631.000000	41.347901
1630.000000	41.338127
1629.000000	41.315452
1628.000000	41.281854
1627.000000	41.272117
1626.000000	41.248513
1625.000000	41.219810
1624.000000	41.202741
1623.000000	41.180743
1622.000000	41.158879
1621.000000	41.130328
1620.000000	41.090537
1619.000000	41.075036
1618.000000	41.047579
1617.000000	41.023000
1616.000000	40.989721
1615.000000	40.943966
1614.000000	40.923517
1613.000000	40.906613
1612.000000	40.875627
1611.000000	40.836660
1610.000000	40.812167
1609.000000	40.780384
1608.000000	40.760592
1607.000000	40.721422
1606.000000	40.667387
1605.000000	40.632901
1604.000000	40.596527
1603.000000	40.561438
1602.000000	40.537808
1601.000000	40.507319
1600.000000	40.470351
1599.000000	40.434329
1598.000000	40.400308
1597.000000	40.370734
1596.000000	40.343328
1595.000000	40.325325
1594.000000	40.307113
1593.000000	40.278352
1592.000000	40.246347
1591.000000	40.200925
1590.000000	40.176463
1589.000000	40.158795
1588.000000	40.134297
1587.000000	40.113095
1586.000000	40.093730
1585.000000	40.076461
1584.000000	40.053875
1583.000000	40.026540
1582.000000	39.989710
1581.000000	39.968646
1580.000000	39.948031
1579.000000	39.923868
1578.000000	39.908519
1577.000000	39.886872
1576.000000	39.851185
1575.000000	39.841169
1574.000000	39.823706
1573.000000	39.788359
1572.000000	39.769345
1571.000000	39.743159
1570.000000	39.726668
1569.000000	39.723826
1568.000000	39.702822
1567.000000	39.681270
1566.000000	39.661531
1565.000000	39.655413
1564.000000	39.634070
1563.000000	39.639101
1562.000000	39.637468
1561.000000	39.600079
1560.000000	39.581133
1559.000000	39.580886
1558.000000	39.570750
1557.000000	39.553303
1556.000000	39.548417
1555.000000	39.549911
1554.000000	39.517734
1553.000000	39.504120
1552.000000	39.486205
1551.000000	39.462197
1550.000000	39.437635
1549.000000	39.420397
1548.000000	39.390387
1547.000000	39.371052
1546.000000	39.337332
1545.000000	39.297727
1544.000000	39.245507
1543.000000	39.208027
1542.000000	39.180237
1541.000000	39.120077
1540.000000	39.082205
1539.000000	39.032361
1538.000000	38.984000
1537.000000	38.933238
1536.000000	38.885020
1535.000000	38.843855
1534.000000	38.801697
1533.000000	38.751432
1532.000000	38.703756
1531.000000	38.653748
1530.000000	38.611715
1529.000000	38.567676
1528.000000	38.527705
1527.000000	38.482582
1526.000000	38.462068
1525.000000	38.410744
1524.000000	38.376561
1523.000000	38.344259
1522.000000	38.298932
1521.000000	38.282842
1520.000000	38.263840
1519.000000	38.230689
1518.000000	38.213598
1517.000000	38.190676
1516.000000	38.157663
1515.000000	38.124448
1514.000000	38.116471
1513.000000	38.095431
1512.000000	38.093039
1511.000000	38.103353
1510.000000	38.062457
1509.000000	38.032252
1508.000000	37.996395
1507.000000	37.962994
1506.000000	37.943976
1505.000000	37.916581
1504.000000	37.903802
1503.000000	37.904908
1502.000000	37.884319
1501.000000	37.872562
1500.000000	37.866632
1499.000000	37.857201
1498.000000	37.853598
1497.000000	37.860391
1496.000000	37.863815
1495.000000	37.858486
1494.000000	37.856984
1493.000000	37.866037
1492.000000	37.895582
1491.000000	37.902539
1490.000000	37.904326
1489.000000	37.934495
1488.000000	37.937041
1487.000000	37.978031
1486.000000	37.985573
1485.000000	37.995101
1484.000000	38.016428
1483.000000	38.045115
1482.000000	38.038600
1481.000000	38.068543
1480.000000	38.082137
1479.000000	38.103537
1478.000000	38.131288
1477.000000	38.145604
1476.000000	38.175705
1475.000000	38.196313
1474.000000	38.215830
1473.000000	38.247239
1472.000000	38.266631
1471.000000	38.292794
1470.000000	38.308340
