PE UV       SUBTECH     SPECTRUM    ASCII       PEDS        4.00        
   -1
RTmsmeh71.Sample.asc
18/03/14
09:38:15.00
18/03/14
09:38:15.00
Administrator

200.000000
1
Lambda 750
750N8071901
PerkinElmer UV WinLab 6.0.4.0738 / 1.61.00 Lambda 900

0
0
3350/servo 860.8/2
0
0
UV/VIS
1
1
1
CommonBeamDepol,150mm sphere / downward view
0
0
0
0
Program
Program
3350/servo 860.8/2
3350/0.2 860.8/0.2
3350/0.2 860.8/0.2
0
1
 
 
 
0
 
860.8
319.2
860.8
Front
100
on
 
 
0
0
0
 
0
 
 
 
0
 
 
0
0
0
0
0
 
 
 
 
0
0


0
0
#HDR
-1
-1
#GR
nm
%R
1.0
0.0
2350.000000
-1.000000
2151
8
62.605740
6.836033
#DATA
2350.000000	25.814341
2349.000000	26.015892
2348.000000	26.159373
2347.000000	26.668379
2346.000000	26.282866
2345.000000	26.294506
2344.000000	26.025131
2343.000000	26.054332
2342.000000	26.290730
2341.000000	26.189401
2340.000000	26.635702
2339.000000	27.020963
2338.000000	26.867494
2337.000000	27.072769
2336.000000	26.816851
2335.000000	26.942579
2334.000000	26.920416
2333.000000	27.446971
2332.000000	27.419558
2331.000000	27.114966
2330.000000	27.298367
2329.000000	27.265640
2328.000000	27.102690
2327.000000	27.193265
2326.000000	26.956711
2325.000000	26.737810
2324.000000	26.726454
2323.000000	26.750230
2322.000000	26.659180
2321.000000	26.523701
2320.000000	26.527614
2319.000000	26.409963
2318.000000	26.358406
2317.000000	26.306941
2316.000000	26.033669
2315.000000	25.936298
2314.000000	25.884059
2313.000000	25.957910
2312.000000	25.612406
2311.000000	25.641236
2310.000000	25.612320
2309.000000	25.452866
2308.000000	25.392698
2307.000000	25.313337
2306.000000	25.433591
2305.000000	25.624955
2304.000000	25.539248
2303.000000	25.583772
2302.000000	25.546733
2301.000000	25.340529
2300.000000	25.343193
2299.000000	25.322543
2298.000000	25.365495
2297.000000	25.406974
2296.000000	25.295666
2295.000000	25.275889
2294.000000	25.157824
2293.000000	25.231147
2292.000000	25.229470
2291.000000	25.160603
2290.000000	25.372442
2289.000000	25.476481
2288.000000	25.373563
2287.000000	25.404415
2286.000000	25.274214
2285.000000	25.377921
2284.000000	25.363280
2283.000000	25.314727
2282.000000	25.342424
2281.000000	25.322369
2280.000000	25.262172
2279.000000	25.437178
2278.000000	25.474470
2277.000000	25.424100
2276.000000	25.520991
2275.000000	25.612655
2274.000000	25.702900
2273.000000	25.864212
2272.000000	26.013416
2271.000000	25.893127
2270.000000	26.002811
2269.000000	26.135795
2268.000000	26.322782
2267.000000	26.429895
2266.000000	26.607179
2265.000000	26.709386
2264.000000	26.718140
2263.000000	26.945089
2262.000000	27.158994
2261.000000	27.297042
2260.000000	27.368306
2259.000000	27.578237
2258.000000	27.865034
2257.000000	27.942179
2256.000000	28.048879
2255.000000	28.335608
2254.000000	28.554707
2253.000000	28.692378
2252.000000	29.011089
2251.000000	29.314058
2250.000000	29.507626
2249.000000	29.692839
2248.000000	29.776553
2247.000000	29.860865
2246.000000	30.101145
2245.000000	30.312457
2244.000000	30.539114
2243.000000	30.844913
2242.000000	31.057709
2241.000000	31.103850
2240.000000	31.146396
2239.000000	31.266486
2238.000000	31.513809
2237.000000	31.567417
2236.000000	31.712797
2235.000000	31.925602
2234.000000	31.849582
2233.000000	31.874820
2232.000000	31.975703
2231.000000	32.079632
2230.000000	32.128451
2229.000000	32.047087
2228.000000	32.090691
2227.000000	32.125593
2226.000000	32.074854
2225.000000	32.061222
2224.000000	32.085624
2223.000000	32.190768
2222.000000	32.127173
2221.000000	31.968821
2220.000000	31.928786
2219.000000	32.026455
2218.000000	31.961230
2217.000000	31.846880
2216.000000	31.915848
2215.000000	31.849792
2214.000000	31.735335
2213.000000	31.719716
2212.000000	31.696425
2211.000000	31.634354
2210.000000	31.474120
2209.000000	31.409425
2208.000000	31.315999
2207.000000	31.255947
2206.000000	31.203940
2205.000000	31.205118
2204.000000	31.203469
2203.000000	31.104349
2202.000000	30.947703
2201.000000	30.927832
2200.000000	30.824679
2199.000000	30.747044
2198.000000	30.744917
2197.000000	30.601551
2196.000000	30.501566
2195.000000	30.565703
2194.000000	30.407282
2193.000000	30.310339
2192.000000	30.362665
2191.000000	30.321505
2190.000000	30.095582
2189.000000	30.128329
2188.000000	30.066883
2187.000000	29.874388
2186.000000	29.952051
2185.000000	29.872210
2184.000000	29.834346
2183.000000	29.885663
2182.000000	29.856973
2181.000000	29.769092
2180.000000	29.720220
2179.000000	29.686820
2178.000000	29.684694
2177.000000	29.703564
2176.000000	29.865472
2175.000000	29.932340
2174.000000	29.943741
2173.000000	29.914812
2172.000000	29.858210
2171.000000	29.916982
2170.000000	29.947165
2169.000000	30.211206
2168.000000	30.128505
2167.000000	30.247564
2166.000000	30.259824
2165.000000	30.290959
2164.000000	30.378107
2163.000000	30.381398
2162.000000	30.661241
2161.000000	30.793840
2160.000000	30.986801
2159.000000	31.064548
2158.000000	31.187475
2157.000000	31.217629
2156.000000	31.307568
2155.000000	31.575603
2154.000000	31.729970
2153.000000	32.006745
2152.000000	32.100841
2151.000000	31.941573
2150.000000	32.294467
2149.000000	32.482248
2148.000000	32.556204
2147.000000	32.806369
2146.000000	32.714077
2145.000000	33.056666
2144.000000	33.205869
2143.000000	33.393003
2142.000000	33.350657
2141.000000	33.604675
2140.000000	33.593437
2139.000000	33.842170
2138.000000	33.879568
2137.000000	33.956775
2136.000000	34.203327
2135.000000	34.300280
2134.000000	34.269636
2133.000000	34.190425
2132.000000	34.310271
2131.000000	34.735373
2130.000000	34.838515
2129.000000	34.813113
2128.000000	34.640990
2127.000000	34.849974
2126.000000	34.895929
2125.000000	34.896492
2124.000000	34.968074
2123.000000	35.018679
2122.000000	35.163348
2121.000000	35.164188
2120.000000	35.019598
2119.000000	35.251431
2118.000000	35.221517
2117.000000	35.290812
2116.000000	35.367373
2115.000000	35.382401
2114.000000	35.399181
2113.000000	35.328862
2112.000000	35.541375
2111.000000	35.588890
2110.000000	35.550665
2109.000000	35.509426
2108.000000	35.582379
2107.000000	35.484831
2106.000000	35.559866
2105.000000	35.561597
2104.000000	35.583066
2103.000000	35.632813
2102.000000	35.595163
2101.000000	35.657108
2100.000000	35.633719
2099.000000	35.717820
2098.000000	35.752990
2097.000000	35.648000
2096.000000	35.656954
2095.000000	35.615995
2094.000000	35.633060
2093.000000	35.578024
2092.000000	35.582301
2091.000000	35.509738
2090.000000	35.386810
2089.000000	35.452175
2088.000000	35.518454
2087.000000	35.393796
2086.000000	35.325924
2085.000000	35.325657
2084.000000	35.279559
2083.000000	35.183999
2082.000000	35.100857
2081.000000	35.035049
2080.000000	34.879278
2079.000000	34.827515
2078.000000	34.730163
2077.000000	34.633719
2076.000000	34.537920
2075.000000	34.315926
2074.000000	34.215849
2073.000000	34.134997
2072.000000	34.022925
2071.000000	33.897081
2070.000000	33.746733
2069.000000	33.619973
2068.000000	33.450640
2067.000000	33.299187
2066.000000	33.204963
2065.000000	33.012818
2064.000000	32.891994
2063.000000	32.733926
2062.000000	32.587427
2061.000000	32.436451
2060.000000	32.288851
2059.000000	32.149465
2058.000000	32.011124
2057.000000	31.884259
2056.000000	31.794329
2055.000000	31.629181
2054.000000	31.464232
2053.000000	31.398330
2052.000000	31.279453
2051.000000	31.200059
2050.000000	31.132651
2049.000000	31.062388
2048.000000	30.939675
2047.000000	30.916677
2046.000000	30.916688
2045.000000	30.857903
2044.000000	30.831965
2043.000000	30.852423
2042.000000	30.858010
2041.000000	30.932526
2040.000000	30.954139
2039.000000	30.943109
2038.000000	30.980691
2037.000000	31.053371
2036.000000	31.137339
2035.000000	31.200293
2034.000000	31.230822
2033.000000	31.332008
2032.000000	31.494189
2031.000000	31.598970
2030.000000	31.695511
2029.000000	31.818936
2028.000000	31.868400
2027.000000	31.915632
2026.000000	32.006470
2025.000000	32.077110
2024.000000	32.144368
2023.000000	32.199620
2022.000000	32.228732
2021.000000	32.254273
2020.000000	32.308197
2019.000000	32.324723
2018.000000	32.292466
2017.000000	32.282155
2016.000000	32.274898
2015.000000	32.211082
2014.000000	32.137478
2013.000000	32.107548
2012.000000	32.058244
2011.000000	31.995245
2010.000000	31.973421
2009.000000	31.883838
2008.000000	31.756678
2007.000000	31.687087
2006.000000	31.578553
2005.000000	31.467193
2004.000000	31.359570
2003.000000	31.279854
2002.000000	31.193550
2001.000000	31.065350
2000.000000	30.930049
1999.000000	30.852340
1998.000000	30.733731
1997.000000	30.568484
1996.000000	30.452959
1995.000000	30.395597
1994.000000	30.278017
1993.000000	30.150130
1992.000000	29.985940
1991.000000	29.836435
1990.000000	29.729009
1989.000000	29.614098
1988.000000	29.514615
1987.000000	29.393835
1986.000000	29.260600
1985.000000	29.170991
1984.000000	29.058866
1983.000000	28.915718
1982.000000	28.828601
1981.000000	28.741001
1980.000000	28.592350
1979.000000	28.482204
1978.000000	28.361959
1977.000000	28.241941
1976.000000	28.108145
1975.000000	28.001006
1974.000000	27.863689
1973.000000	27.806635
1972.000000	27.701991
1971.000000	27.576213
1970.000000	27.460856
1969.000000	27.344903
1968.000000	27.277023
1967.000000	27.195016
1966.000000	27.034850
1965.000000	26.926407
1964.000000	26.833789
1963.000000	26.802668
1962.000000	26.677304
1961.000000	26.586620
1960.000000	26.509539
1959.000000	26.417040
1958.000000	26.408207
1957.000000	26.294506
1956.000000	26.173854
1955.000000	26.135765
1954.000000	26.040183
1953.000000	26.005587
1952.000000	26.000875
1951.000000	25.937249
1950.000000	25.879277
1949.000000	25.798296
1948.000000	25.786622
1947.000000	25.755097
1946.000000	25.679762
1945.000000	25.750314
1944.000000	25.753458
1943.000000	25.792587
1942.000000	25.776547
1941.000000	25.814738
1940.000000	25.932781
1939.000000	25.955404
1938.000000	26.065170
1937.000000	26.151398
1936.000000	26.167678
1935.000000	26.208432
1934.000000	26.373369
1933.000000	26.529606
1932.000000	26.613505
1931.000000	26.691072
1930.000000	26.934735
1929.000000	27.129538
1928.000000	27.300566
1927.000000	27.442469
1926.000000	27.687444
1925.000000	27.887434
1924.000000	28.171906
1923.000000	28.429610
1922.000000	28.694827
1921.000000	29.047942
1920.000000	29.320867
1919.000000	29.601635
1918.000000	29.952511
1917.000000	30.278371
1916.000000	30.568066
1915.000000	31.070583
1914.000000	31.403417
1913.000000	31.790885
1912.000000	32.178190
1911.000000	32.634869
1910.000000	33.075926
1909.000000	33.561017
1908.000000	34.077423
1907.000000	34.575310
1906.000000	35.071781
1905.000000	35.582193
1904.000000	36.050780
1903.000000	36.684406
1902.000000	37.226404
1901.000000	37.761729
1900.000000	38.307753
1899.000000	38.877453
1898.000000	39.437964
1897.000000	39.996014
1896.000000	40.521313
1895.000000	41.041861
1894.000000	41.660930
1893.000000	42.176067
1892.000000	42.699689
1891.000000	43.161296
1890.000000	43.649128
1889.000000	44.151042
1888.000000	44.534615
1887.000000	45.051550
1886.000000	45.466902
1885.000000	45.926912
1884.000000	46.300085
1883.000000	46.754099
1882.000000	47.118841
1881.000000	47.459749
1880.000000	47.762265
1879.000000	48.088627
1878.000000	48.355957
1877.000000	48.662360
1876.000000	48.957066
1875.000000	49.241415
1874.000000	49.457805
1873.000000	49.694710
1872.000000	49.872320
1871.000000	50.092296
1870.000000	50.303741
1869.000000	50.432258
1868.000000	50.586462
1867.000000	50.708388
1866.000000	50.805745
1865.000000	50.960805
1864.000000	51.059702
1863.000000	51.151162
1862.000000	51.201106
1861.000000	51.272547
1860.000000	51.327084
1859.000000	51.361665
1858.000000	51.399597
1857.000000	51.482044
1856.000000	51.540158
1855.000000	51.535848
1854.000000	51.598999
1853.000000	51.639260
1852.000000	51.627211
1851.000000	51.646518
1850.000000	51.629744
1849.000000	51.633812
1848.000000	51.653904
1847.000000	51.674034
1846.000000	51.612192
1845.000000	51.596352
1844.000000	51.561291
1843.000000	51.571274
1842.000000	51.589152
1841.000000	51.554498
1840.000000	51.480314
1839.000000	51.445635
1838.000000	51.419043
1837.000000	51.350961
1836.000000	51.307032
1835.000000	51.264229
1834.000000	51.244726
1833.000000	51.203702
1832.000000	51.151768
1831.000000	51.119140
1830.000000	51.067598
1829.000000	51.023209
1828.000000	51.015385
1827.000000	50.966965
1826.000000	50.936771
1825.000000	50.894453
1824.000000	50.853689
1823.000000	50.830611
1822.000000	50.787145
1821.000000	50.756147
1820.000000	50.730803
1819.000000	50.685696
1818.000000	50.661828
1817.000000	50.646614
1816.000000	50.609797
1815.000000	50.561634
1814.000000	50.538874
1813.000000	50.512724
1812.000000	50.463331
1811.000000	50.424032
1810.000000	50.422622
1809.000000	50.413381
1808.000000	50.393666
1807.000000	50.349721
1806.000000	50.329596
1805.000000	50.323140
1804.000000	50.284316
1803.000000	50.267562
1802.000000	50.249823
1801.000000	50.207668
1800.000000	50.191730
1799.000000	50.178237
1798.000000	50.156969
1797.000000	50.144294
1796.000000	50.118519
1795.000000	50.101131
1794.000000	50.094163
1793.000000	50.070274
1792.000000	50.058618
1791.000000	50.059691
1790.000000	50.017595
1789.000000	49.986917
1788.000000	49.993660
1787.000000	49.990970
1786.000000	49.936905
1785.000000	49.912010
1784.000000	49.873999
1783.000000	49.837643
1782.000000	49.795072
1781.000000	49.759060
1780.000000	49.719957
1779.000000	49.673367
1778.000000	49.618548
1777.000000	49.567336
1776.000000	49.512681
1775.000000	49.449842
1774.000000	49.361986
1773.000000	49.308617
1772.000000	49.247486
1771.000000	49.173558
1770.000000	49.141948
1769.000000	49.065295
1768.000000	49.020306
1767.000000	48.969081
1766.000000	48.904406
1765.000000	48.834631
1764.000000	48.801197
1763.000000	48.741576
1762.000000	48.669497
1761.000000	48.629711
1760.000000	48.590811
1759.000000	48.562362
1758.000000	48.508799
1757.000000	48.455629
1756.000000	48.408083
1755.000000	48.387090
1754.000000	48.317676
1753.000000	48.259043
1752.000000	48.218528
1751.000000	48.166901
1750.000000	48.101453
1749.000000	48.054274
1748.000000	47.975846
1747.000000	47.897388
1746.000000	47.817836
1745.000000	47.736849
1744.000000	47.660729
1743.000000	47.588262
1742.000000	47.498852
1741.000000	47.432477
1740.000000	47.369734
1739.000000	47.284463
1738.000000	47.249877
1737.000000	47.201728
1736.000000	47.149976
1735.000000	47.085441
1734.000000	47.088465
1733.000000	47.078865
1732.000000	47.063959
1731.000000	47.088336
1730.000000	47.078470
1729.000000	47.118061
1728.000000	47.186354
1727.000000	47.205314
1726.000000	47.300979
1725.000000	47.387885
1724.000000	47.465678
1723.000000	47.545966
1722.000000	47.658975
1721.000000	47.745516
1720.000000	47.878900
1719.000000	48.040597
1718.000000	48.102749
1717.000000	48.255048
1716.000000	48.355411
1715.000000	48.461662
1714.000000	48.569120
1713.000000	48.670242
1712.000000	48.725447
1711.000000	48.873442
1710.000000	48.959363
1709.000000	49.040941
1708.000000	49.116569
1707.000000	49.173203
1706.000000	49.238524
1705.000000	49.268429
1704.000000	49.350863
1703.000000	49.385764
1702.000000	49.436265
1701.000000	49.488688
1700.000000	49.529585
1699.000000	49.559156
1698.000000	49.610461
1697.000000	49.695366
1696.000000	49.744481
1695.000000	49.802298
1694.000000	49.877410
1693.000000	49.958566
1692.000000	50.007451
1691.000000	50.072036
1690.000000	50.195492
1689.000000	50.294740
1688.000000	50.377028
1687.000000	50.538226
1686.000000	50.658568
1685.000000	50.799116
1684.000000	50.927745
1683.000000	51.103928
1682.000000	51.275648
1681.000000	51.419720
1680.000000	51.585988
1679.000000	51.743762
1678.000000	51.917990
1677.000000	52.065874
1676.000000	52.238382
1675.000000	52.425012
1674.000000	52.561835
1673.000000	52.727571
1672.000000	52.899199
1671.000000	53.026004
1670.000000	53.174131
1669.000000	53.324322
1668.000000	53.466226
1667.000000	53.590722
1666.000000	53.668057
1665.000000	53.751354
1664.000000	53.823211
1663.000000	53.899093
1662.000000	53.983312
1661.000000	54.054810
1660.000000	54.107622
1659.000000	54.174177
1658.000000	54.210336
1657.000000	54.274361
1656.000000	54.292024
1655.000000	54.313288
1654.000000	54.351035
1653.000000	54.371729
1652.000000	54.379826
1651.000000	54.359489
1650.000000	54.390010
1649.000000	54.398155
1648.000000	54.385451
1647.000000	54.371410
1646.000000	54.371667
1645.000000	54.361123
1644.000000	54.365648
1643.000000	54.338184
1642.000000	54.301600
1641.000000	54.281300
1640.000000	54.263655
1639.000000	54.239749
1638.000000	54.210685
1637.000000	54.193987
1636.000000	54.157119
1635.000000	54.126162
1634.000000	54.100090
1633.000000	54.061354
1632.000000	54.038860
1631.000000	54.017772
1630.000000	53.984983
1629.000000	53.935160
1628.000000	53.879735
1627.000000	53.854890
1626.000000	53.817834
1625.000000	53.776831
1624.000000	53.734706
1623.000000	53.693254
1622.000000	53.665490
1621.000000	53.613030
1620.000000	53.560412
1619.000000	53.509369
1618.000000	53.462624
1617.000000	53.427657
1616.000000	53.378912
1615.000000	53.326588
1614.000000	53.272696
1613.000000	53.224431
1612.000000	53.180520
1611.000000	53.122660
1610.000000	53.070344
1609.000000	53.021844
1608.000000	52.964660
1607.000000	52.903630
1606.000000	52.838837
1605.000000	52.790113
1604.000000	52.748416
1603.000000	52.688621
1602.000000	52.631600
1601.000000	52.574131
1600.000000	52.521382
1599.000000	52.457484
1598.000000	52.406519
1597.000000	52.363271
1596.000000	52.310480
1595.000000	52.261456
1594.000000	52.208030
1593.000000	52.154132
1592.000000	52.110539
1591.000000	52.065311
1590.000000	52.021854
1589.000000	51.973286
1588.000000	51.925917
1587.000000	51.881829
1586.000000	51.835867
1585.000000	51.802024
1584.000000	51.761122
1583.000000	51.719265
1582.000000	51.671513
1581.000000	51.625138
1580.000000	51.574426
1579.000000	51.531802
1578.000000	51.494410
1577.000000	51.440334
1576.000000	51.385269
1575.000000	51.356273
1574.000000	51.318152
1573.000000	51.282475
1572.000000	51.245280
1571.000000	51.190734
1570.000000	51.150596
1569.000000	51.117895
1568.000000	51.078213
1567.000000	51.043109
1566.000000	51.014820
1565.000000	50.987282
1564.000000	50.945764
1563.000000	50.929746
1562.000000	50.894835
1561.000000	50.854441
1560.000000	50.810891
1559.000000	50.795293
1558.000000	50.772239
1557.000000	50.745625
1556.000000	50.722850
1555.000000	50.697847
1554.000000	50.655689
1553.000000	50.611091
1552.000000	50.586707
1551.000000	50.548567
1550.000000	50.500159
1549.000000	50.449154
1548.000000	50.396372
1547.000000	50.338705
1546.000000	50.282466
1545.000000	50.217891
1544.000000	50.150204
1543.000000	50.077806
1542.000000	50.006429
1541.000000	49.914958
1540.000000	49.846710
1539.000000	49.764003
1538.000000	49.677179
1537.000000	49.597618
1536.000000	49.504197
1535.000000	49.431494
1534.000000	49.360749
1533.000000	49.265733
1532.000000	49.192417
1531.000000	49.104848
1530.000000	49.041930
1529.000000	48.966294
1528.000000	48.905479
1527.000000	48.833527
1526.000000	48.786856
1525.000000	48.724749
1524.000000	48.661546
1523.000000	48.606293
1522.000000	48.557163
1521.000000	48.497600
1520.000000	48.487334
1519.000000	48.423528
1518.000000	48.375422
1517.000000	48.348210
1516.000000	48.340231
1515.000000	48.318973
1514.000000	48.337494
1513.000000	48.328398
1512.000000	48.338448
1511.000000	48.304387
1510.000000	48.245531
1509.000000	48.209210
1508.000000	48.186182
1507.000000	48.155113
1506.000000	48.139743
1505.000000	48.110070
1504.000000	48.091230
1503.000000	48.107449
1502.000000	48.090357
1501.000000	48.068935
1500.000000	48.063314
1499.000000	48.053851
1498.000000	48.058498
1497.000000	48.069035
1496.000000	48.074236
1495.000000	48.066790
1494.000000	48.074080
1493.000000	48.088093
1492.000000	48.113145
1491.000000	48.138389
1490.000000	48.156782
1489.000000	48.187789
1488.000000	48.203230
1487.000000	48.237453
1486.000000	48.252954
1485.000000	48.290903
1484.000000	48.318250
1483.000000	48.354645
1482.000000	48.375455
1481.000000	48.414072
1480.000000	48.441223
1479.000000	48.446703
1478.000000	48.472884
1477.000000	48.497639
1476.000000	48.527258
1475.000000	48.553960
1474.000000	48.584102
1473.000000	48.604217
1472.000000	48.639176
1471.000000	48.673793
1470.000000	48.695044
1469.000000	48.727490
