PE UV       SUBTECH     SPECTRUM    ASCII       PEDS        4.00        
   -1
RTms1240121.Sample.asc
18/03/14
15:32:29.00
18/03/14
15:32:29.00
Administrator

200.000000
1
Lambda 750
750N8071901
PerkinElmer UV WinLab 6.0.4.0738 / 1.61.00 Lambda 900

0
0
3350/servo 860.8/2
0
0
UV/VIS
1
1
1
CommonBeamDepol,150mm sphere / downward view
0
0
0
0
Program
Program
3350/servo 860.8/2
3350/0.2 860.8/0.2
3350/0.2 860.8/0.2
0
1
 
 
 
0
 
860.8
319.2
860.8
Front
100
on
 
 
0
0
0
 
0
 
 
 
0
 
 
0
0
0
0
0
 
 
 
 
0
0


0
0
#HDR
-1
-1
#GR
nm
%R
1.0
0.0
2350.000000
-1.000000
2151
8
50.666083
6.424622
#DATA
2350.000000	24.553452
2349.000000	25.129205
2348.000000	24.746027
2347.000000	25.141830
2346.000000	25.148157
2345.000000	24.802348
2344.000000	25.186073
2343.000000	24.797761
2342.000000	24.935823
2341.000000	25.270754
2340.000000	25.448744
2339.000000	25.507378
2338.000000	25.932411
2337.000000	25.491658
2336.000000	25.893680
2335.000000	25.876625
2334.000000	26.022348
2333.000000	26.039033
2332.000000	26.065266
2331.000000	25.812079
2330.000000	25.856418
2329.000000	25.827874
2328.000000	25.790151
2327.000000	25.569695
2326.000000	25.854146
2325.000000	25.682104
2324.000000	25.730479
2323.000000	25.533553
2322.000000	25.315071
2321.000000	25.361920
2320.000000	25.361032
2319.000000	25.216356
2318.000000	25.251022
2317.000000	25.203646
2316.000000	25.103859
2315.000000	25.128253
2314.000000	25.093213
2313.000000	24.872962
2312.000000	24.894327
2311.000000	24.956731
2310.000000	24.697033
2309.000000	24.762448
2308.000000	24.641884
2307.000000	24.491948
2306.000000	24.602834
2305.000000	24.510682
2304.000000	24.785069
2303.000000	24.837319
2302.000000	24.491819
2301.000000	24.291931
2300.000000	24.328826
2299.000000	24.284424
2298.000000	24.326836
2297.000000	24.256584
2296.000000	24.352473
2295.000000	24.181852
2294.000000	24.055330
2293.000000	23.973057
2292.000000	23.969280
2291.000000	24.040068
2290.000000	23.845286
2289.000000	23.920953
2288.000000	24.233524
2287.000000	23.953093
2286.000000	23.870265
2285.000000	23.921623
2284.000000	24.063632
2283.000000	23.911062
2282.000000	23.945512
2281.000000	24.010236
2280.000000	23.980610
2279.000000	23.969965
2278.000000	23.959949
2277.000000	24.021157
2276.000000	24.015890
2275.000000	24.011939
2274.000000	24.035127
2273.000000	24.204500
2272.000000	24.291821
2271.000000	24.320484
2270.000000	24.332336
2269.000000	24.323253
2268.000000	24.406502
2267.000000	24.539892
2266.000000	24.707967
2265.000000	24.763724
2264.000000	24.814382
2263.000000	24.954247
2262.000000	25.091956
2261.000000	25.304734
2260.000000	25.439519
2259.000000	25.511906
2258.000000	25.573998
2257.000000	25.747542
2256.000000	25.928448
2255.000000	26.116055
2254.000000	26.233791
2253.000000	26.251076
2252.000000	26.483417
2251.000000	26.711565
2250.000000	26.833460
2249.000000	27.004588
2248.000000	27.205701
2247.000000	27.306588
2246.000000	27.394194
2245.000000	27.589279
2244.000000	27.844605
2243.000000	28.036628
2242.000000	28.073676
2241.000000	28.162281
2240.000000	28.326840
2239.000000	28.425337
2238.000000	28.454700
2237.000000	28.508488
2236.000000	28.606934
2235.000000	28.724903
2234.000000	28.927323
2233.000000	28.941062
2232.000000	28.895676
2231.000000	29.013035
2230.000000	29.151646
2229.000000	29.143272
2228.000000	29.074282
2227.000000	29.126296
2226.000000	29.043138
2225.000000	28.961273
2224.000000	29.064223
2223.000000	29.142463
2222.000000	29.016782
2221.000000	28.813638
2220.000000	28.893446
2219.000000	29.078159
2218.000000	28.912427
2217.000000	28.836888
2216.000000	28.905722
2215.000000	28.803352
2214.000000	28.797437
2213.000000	28.905404
2212.000000	28.795821
2211.000000	28.657033
2210.000000	28.556262
2209.000000	28.585716
2208.000000	28.487116
2207.000000	28.485907
2206.000000	28.302578
2205.000000	28.202333
2204.000000	28.236181
2203.000000	28.269300
2202.000000	28.162203
2201.000000	28.152774
2200.000000	28.116766
2199.000000	28.055787
2198.000000	28.082080
2197.000000	27.926328
2196.000000	27.841841
2195.000000	27.741992
2194.000000	27.660611
2193.000000	27.569757
2192.000000	27.616517
2191.000000	27.562616
2190.000000	27.426926
2189.000000	27.463825
2188.000000	27.466132
2187.000000	27.325329
2186.000000	27.371771
2185.000000	27.263123
2184.000000	27.281159
2183.000000	27.281606
2182.000000	27.164305
2181.000000	27.255675
2180.000000	27.336580
2179.000000	27.309840
2178.000000	27.199455
2177.000000	27.128597
2176.000000	27.171778
2175.000000	27.224028
2174.000000	27.211584
2173.000000	27.257440
2172.000000	27.306416
2171.000000	27.407190
2170.000000	27.223635
2169.000000	27.535154
2168.000000	27.626997
2167.000000	27.655011
2166.000000	27.631235
2165.000000	27.795458
2164.000000	27.869049
2163.000000	27.943716
2162.000000	27.962268
2161.000000	28.127780
2160.000000	28.168463
2159.000000	28.328650
2158.000000	28.512779
2157.000000	28.456629
2156.000000	28.440880
2155.000000	28.518048
2154.000000	28.870101
2153.000000	29.002771
2152.000000	29.044021
2151.000000	29.092282
2150.000000	29.288393
2149.000000	29.323757
2148.000000	29.492777
2147.000000	29.625660
2146.000000	29.534767
2145.000000	29.714725
2144.000000	29.966049
2143.000000	29.988724
2142.000000	29.898894
2141.000000	30.262190
2140.000000	30.152331
2139.000000	30.218709
2138.000000	30.295930
2137.000000	30.385706
2136.000000	30.546169
2135.000000	30.751149
2134.000000	30.878968
2133.000000	30.612544
2132.000000	30.700517
2131.000000	31.057147
2130.000000	31.117859
2129.000000	31.015258
2128.000000	31.000721
2127.000000	31.026460
2126.000000	30.897851
2125.000000	30.972089
2124.000000	31.162934
2123.000000	31.171817
2122.000000	31.134132
2121.000000	31.225210
2120.000000	31.205175
2119.000000	31.297212
2118.000000	31.380345
2117.000000	31.327786
2116.000000	31.356585
2115.000000	31.393229
2114.000000	31.386967
2113.000000	31.375382
2112.000000	31.397627
2111.000000	31.302569
2110.000000	31.417223
2109.000000	31.333855
2108.000000	31.391901
2107.000000	31.502692
2106.000000	31.446208
2105.000000	31.479421
2104.000000	31.433382
2103.000000	31.521261
2102.000000	31.576093
2101.000000	31.618529
2100.000000	31.599653
2099.000000	31.555420
2098.000000	31.489665
2097.000000	31.517198
2096.000000	31.559878
2095.000000	31.462065
2094.000000	31.450504
2093.000000	31.368358
2092.000000	31.368124
2091.000000	31.377273
2090.000000	31.348548
2089.000000	31.369724
2088.000000	31.396292
2087.000000	31.342346
2086.000000	31.341382
2085.000000	31.333006
2084.000000	31.206066
2083.000000	31.236756
2082.000000	31.135063
2081.000000	31.093833
2080.000000	30.954569
2079.000000	30.957623
2078.000000	30.889631
2077.000000	30.814314
2076.000000	30.702740
2075.000000	30.621689
2074.000000	30.490978
2073.000000	30.437595
2072.000000	30.398810
2071.000000	30.366099
2070.000000	30.248524
2069.000000	30.117992
2068.000000	29.980026
2067.000000	29.924140
2066.000000	29.701010
2065.000000	29.581930
2064.000000	29.513361
2063.000000	29.394861
2062.000000	29.356793
2061.000000	29.247229
2060.000000	29.035173
2059.000000	28.960704
2058.000000	28.904631
2057.000000	28.768795
2056.000000	28.650867
2055.000000	28.605332
2054.000000	28.455693
2053.000000	28.384681
2052.000000	28.328931
2051.000000	28.184603
2050.000000	28.066982
2049.000000	28.021579
2048.000000	27.942018
2047.000000	27.881673
2046.000000	27.850009
2045.000000	27.811036
2044.000000	27.828950
2043.000000	27.821180
2042.000000	27.809528
2041.000000	27.860915
2040.000000	27.865500
2039.000000	27.856128
2038.000000	27.878042
2037.000000	27.917016
2036.000000	27.962569
2035.000000	28.043113
2034.000000	28.149189
2033.000000	28.220634
2032.000000	28.266399
2031.000000	28.316466
2030.000000	28.436115
2029.000000	28.502053
2028.000000	28.521247
2027.000000	28.589262
2026.000000	28.682466
2025.000000	28.771529
2024.000000	28.785747
2023.000000	28.779552
2022.000000	28.810139
2021.000000	28.842874
2020.000000	28.883719
2019.000000	28.890772
2018.000000	28.904518
2017.000000	28.913364
2016.000000	28.853150
2015.000000	28.789471
2014.000000	28.784833
2013.000000	28.796025
2012.000000	28.753035
2011.000000	28.705295
2010.000000	28.650448
2009.000000	28.554343
2008.000000	28.455039
2007.000000	28.377176
2006.000000	28.322106
2005.000000	28.237535
2004.000000	28.159753
2003.000000	28.115279
2002.000000	28.036772
2001.000000	27.929321
2000.000000	27.797646
1999.000000	27.729005
1998.000000	27.635712
1997.000000	27.555776
1996.000000	27.483805
1995.000000	27.380829
1994.000000	27.267061
1993.000000	27.180864
1992.000000	27.065410
1991.000000	26.978000
1990.000000	26.883201
1989.000000	26.777827
1988.000000	26.697974
1987.000000	26.576658
1986.000000	26.466766
1985.000000	26.399014
1984.000000	26.292040
1983.000000	26.222091
1982.000000	26.157031
1981.000000	26.040949
1980.000000	25.946199
1979.000000	25.842228
1978.000000	25.753989
1977.000000	25.675966
1976.000000	25.550896
1975.000000	25.428476
1974.000000	25.319472
1973.000000	25.263901
1972.000000	25.207658
1971.000000	25.103515
1970.000000	25.039461
1969.000000	24.909992
1968.000000	24.811414
1967.000000	24.752735
1966.000000	24.669928
1965.000000	24.575345
1964.000000	24.505710
1963.000000	24.410704
1962.000000	24.315631
1961.000000	24.227176
1960.000000	24.175733
1959.000000	24.083396
1958.000000	24.033159
1957.000000	23.944794
1956.000000	23.917072
1955.000000	23.817532
1954.000000	23.771604
1953.000000	23.673073
1952.000000	23.619725
1951.000000	23.643866
1950.000000	23.590205
1949.000000	23.556635
1948.000000	23.482169
1947.000000	23.467646
1946.000000	23.453254
1945.000000	23.407499
1944.000000	23.426254
1943.000000	23.441139
1942.000000	23.434956
1941.000000	23.487826
1940.000000	23.505677
1939.000000	23.566059
1938.000000	23.545192
1937.000000	23.607446
1936.000000	23.736386
1935.000000	23.814737
1934.000000	23.890851
1933.000000	23.941930
1932.000000	24.036653
1931.000000	24.085432
1930.000000	24.264269
1929.000000	24.276570
1928.000000	24.526936
1927.000000	24.710905
1926.000000	24.862966
1925.000000	25.027211
1924.000000	25.266529
1923.000000	25.464579
1922.000000	25.623511
1921.000000	25.909944
1920.000000	26.161026
1919.000000	26.337131
1918.000000	26.688387
1917.000000	26.829251
1916.000000	27.082921
1915.000000	27.449476
1914.000000	27.806384
1913.000000	28.129867
1912.000000	28.440425
1911.000000	28.716953
1910.000000	29.044916
1909.000000	29.387864
1908.000000	29.753184
1907.000000	30.200720
1906.000000	30.537571
1905.000000	30.964930
1904.000000	31.344308
1903.000000	31.788086
1902.000000	32.149203
1901.000000	32.635491
1900.000000	32.965731
1899.000000	33.439799
1898.000000	33.962203
1897.000000	34.319856
1896.000000	34.742097
1895.000000	35.089138
1894.000000	35.559961
1893.000000	35.941294
1892.000000	36.330311
1891.000000	36.716057
1890.000000	37.044996
1889.000000	37.434972
1888.000000	37.734392
1887.000000	38.092179
1886.000000	38.443125
1885.000000	38.789769
1884.000000	39.034350
1883.000000	39.404390
1882.000000	39.651919
1881.000000	39.942601
1880.000000	40.172468
1879.000000	40.355441
1878.000000	40.648667
1877.000000	40.889328
1876.000000	41.023028
1875.000000	41.275385
1874.000000	41.474327
1873.000000	41.619421
1872.000000	41.774683
1871.000000	41.961680
1870.000000	42.122480
1869.000000	42.225420
1868.000000	42.325082
1867.000000	42.413349
1866.000000	42.503949
1865.000000	42.574037
1864.000000	42.661406
1863.000000	42.743731
1862.000000	42.796395
1861.000000	42.823243
1860.000000	42.902482
1859.000000	42.925653
1858.000000	42.946232
1857.000000	42.964534
1856.000000	43.016785
1855.000000	43.029491
1854.000000	43.115407
1853.000000	43.111855
1852.000000	43.103403
1851.000000	43.130143
1850.000000	43.146184
1849.000000	43.150515
1848.000000	43.153843
1847.000000	43.177734
1846.000000	43.149028
1845.000000	43.142628
1844.000000	43.163607
1843.000000	43.147964
1842.000000	43.129811
1841.000000	43.116980
1840.000000	43.088954
1839.000000	43.077971
1838.000000	43.060051
1837.000000	43.004172
1836.000000	42.995557
1835.000000	42.973886
1834.000000	42.951137
1833.000000	42.918580
1832.000000	42.879314
1831.000000	42.835823
1830.000000	42.817775
1829.000000	42.795938
1828.000000	42.768223
1827.000000	42.742374
1826.000000	42.721930
1825.000000	42.699212
1824.000000	42.689532
1823.000000	42.655404
1822.000000	42.609989
1821.000000	42.592428
1820.000000	42.572852
1819.000000	42.536847
1818.000000	42.520152
1817.000000	42.510649
1816.000000	42.489465
1815.000000	42.475870
1814.000000	42.451098
1813.000000	42.424556
1812.000000	42.412199
1811.000000	42.381855
1810.000000	42.356226
1809.000000	42.353827
1808.000000	42.336048
1807.000000	42.296908
1806.000000	42.286705
1805.000000	42.298221
1804.000000	42.260313
1803.000000	42.231363
1802.000000	42.215436
1801.000000	42.187847
1800.000000	42.191296
1799.000000	42.180647
1798.000000	42.164444
1797.000000	42.157751
1796.000000	42.126463
1795.000000	42.117749
1794.000000	42.134716
1793.000000	42.110264
1792.000000	42.081895
1791.000000	42.084881
1790.000000	42.065190
1789.000000	42.065657
1788.000000	42.077542
1787.000000	42.066500
1786.000000	42.054063
1785.000000	42.025919
1784.000000	41.998570
1783.000000	42.000998
1782.000000	41.999483
1781.000000	41.970264
1780.000000	41.953505
1779.000000	41.934077
1778.000000	41.889624
1777.000000	41.838412
1776.000000	41.792642
1775.000000	41.750771
1774.000000	41.733906
1773.000000	41.737742
1772.000000	41.721333
1771.000000	41.663269
1770.000000	41.632977
1769.000000	41.593237
1768.000000	41.542297
1767.000000	41.495844
1766.000000	41.481853
1765.000000	41.442179
1764.000000	41.445481
1763.000000	41.412669
1762.000000	41.363854
1761.000000	41.329280
1760.000000	41.291331
1759.000000	41.276521
1758.000000	41.235725
1757.000000	41.203220
1756.000000	41.188584
1755.000000	41.153975
1754.000000	41.111859
1753.000000	41.064124
1752.000000	41.060497
1751.000000	41.022820
1750.000000	40.982892
1749.000000	40.962929
1748.000000	40.904490
1747.000000	40.856398
1746.000000	40.828236
1745.000000	40.788034
1744.000000	40.759897
1743.000000	40.716661
1742.000000	40.654778
1741.000000	40.611226
1740.000000	40.582147
1739.000000	40.557527
1738.000000	40.524492
1737.000000	40.514815
1736.000000	40.490760
1735.000000	40.469639
1734.000000	40.498072
1733.000000	40.464433
1732.000000	40.494631
1731.000000	40.487955
1730.000000	40.466561
1729.000000	40.498946
1728.000000	40.521600
1727.000000	40.583303
1726.000000	40.626924
1725.000000	40.694042
1724.000000	40.748281
1723.000000	40.812957
1722.000000	40.894740
1721.000000	40.920122
1720.000000	41.026832
1719.000000	41.108072
1718.000000	41.134641
1717.000000	41.213892
1716.000000	41.317496
1715.000000	41.383292
1714.000000	41.432919
1713.000000	41.503229
1712.000000	41.529828
1711.000000	41.592055
1710.000000	41.668467
1709.000000	41.700339
1708.000000	41.741798
1707.000000	41.797978
1706.000000	41.833910
1705.000000	41.874561
1704.000000	41.912626
1703.000000	41.925306
1702.000000	41.942788
1701.000000	41.966630
1700.000000	41.979322
1699.000000	41.956339
1698.000000	42.030121
1697.000000	42.075160
1696.000000	42.115404
1695.000000	42.116509
1694.000000	42.156250
1693.000000	42.213211
1692.000000	42.206411
1691.000000	42.269902
1690.000000	42.330816
1689.000000	42.397419
1688.000000	42.453249
1687.000000	42.520489
1686.000000	42.588315
1685.000000	42.684195
1684.000000	42.785504
1683.000000	42.864122
1682.000000	42.998737
1681.000000	43.098687
1680.000000	43.199981
1679.000000	43.309244
1678.000000	43.408819
1677.000000	43.507121
1676.000000	43.616773
1675.000000	43.743188
1674.000000	43.823794
1673.000000	43.939812
1672.000000	44.047026
1671.000000	44.134763
1670.000000	44.227337
1669.000000	44.329669
1668.000000	44.415631
1667.000000	44.497003
1666.000000	44.530443
1665.000000	44.608318
1664.000000	44.656015
1663.000000	44.682963
1662.000000	44.756694
1661.000000	44.817503
1660.000000	44.836013
1659.000000	44.884011
1658.000000	44.919402
1657.000000	44.939502
1656.000000	44.968619
1655.000000	44.986455
1654.000000	45.016236
1653.000000	45.031129
1652.000000	45.036947
1651.000000	45.019044
1650.000000	45.019664
1649.000000	45.039930
1648.000000	45.024190
1647.000000	45.024362
1646.000000	45.020426
1645.000000	45.011119
1644.000000	45.019953
1643.000000	45.006906
1642.000000	44.995684
1641.000000	44.958644
1640.000000	44.956484
1639.000000	44.951243
1638.000000	44.940350
1637.000000	44.928251
1636.000000	44.888393
1635.000000	44.886222
1634.000000	44.875179
1633.000000	44.831985
1632.000000	44.814794
1631.000000	44.804951
1630.000000	44.774096
1629.000000	44.755975
1628.000000	44.736530
1627.000000	44.701590
1626.000000	44.664150
1625.000000	44.628253
1624.000000	44.617391
1623.000000	44.592371
1622.000000	44.570501
1621.000000	44.529599
1620.000000	44.499958
1619.000000	44.465075
1618.000000	44.433224
1617.000000	44.406898
1616.000000	44.370000
1615.000000	44.319626
1614.000000	44.286520
1613.000000	44.273285
1612.000000	44.247366
1611.000000	44.208690
1610.000000	44.177723
1609.000000	44.140431
1608.000000	44.104159
1607.000000	44.069610
1606.000000	44.015566
1605.000000	43.985109
1604.000000	43.954802
1603.000000	43.903284
1602.000000	43.870844
1601.000000	43.836867
1600.000000	43.798123
1599.000000	43.760066
1598.000000	43.730269
1597.000000	43.697757
1596.000000	43.666704
1595.000000	43.654857
1594.000000	43.619614
1593.000000	43.575688
1592.000000	43.536509
1591.000000	43.503053
1590.000000	43.486747
1589.000000	43.443181
1588.000000	43.404294
1587.000000	43.381265
1586.000000	43.358699
1585.000000	43.347434
1584.000000	43.322142
1583.000000	43.287395
1582.000000	43.251512
1581.000000	43.221352
1580.000000	43.182957
1579.000000	43.154359
1578.000000	43.141132
1577.000000	43.097101
1576.000000	43.065251
1575.000000	43.050607
1574.000000	43.022640
1573.000000	42.991431
1572.000000	42.964143
1571.000000	42.929725
1570.000000	42.918846
1569.000000	42.900723
1568.000000	42.864898
1567.000000	42.824520
1566.000000	42.792265
1565.000000	42.775831
1564.000000	42.758766
1563.000000	42.757059
1562.000000	42.728955
1561.000000	42.704137
1560.000000	42.682335
1559.000000	42.675787
1558.000000	42.653428
1557.000000	42.621558
1556.000000	42.621176
1555.000000	42.603264
1554.000000	42.575085
1553.000000	42.549247
1552.000000	42.531168
1551.000000	42.510073
1550.000000	42.489111
1549.000000	42.452657
1548.000000	42.420128
1547.000000	42.392055
1546.000000	42.364612
1545.000000	42.297575
1544.000000	42.250802
1543.000000	42.206475
1542.000000	42.155256
1541.000000	42.113965
1540.000000	42.063458
1539.000000	42.000194
1538.000000	41.940509
1537.000000	41.890718
1536.000000	41.825422
1535.000000	41.773094
1534.000000	41.713631
1533.000000	41.671897
1532.000000	41.617070
1531.000000	41.572612
1530.000000	41.516001
1529.000000	41.443603
1528.000000	41.408524
1527.000000	41.357102
1526.000000	41.336727
1525.000000	41.290856
1524.000000	41.239678
1523.000000	41.209135
1522.000000	41.174886
1521.000000	41.134444
1520.000000	41.111020
1519.000000	41.069696
1518.000000	41.060646
1517.000000	41.014751
1516.000000	41.004876
1515.000000	40.968695
1514.000000	40.956297
1513.000000	40.929843
1512.000000	40.943454
1511.000000	40.960663
1510.000000	40.962401
1509.000000	40.983469
1508.000000	40.976585
1507.000000	40.962612
1506.000000	40.941247
1505.000000	40.905307
1504.000000	40.888852
1503.000000	40.882397
1502.000000	40.866491
1501.000000	40.847787
1500.000000	40.826835
1499.000000	40.822954
1498.000000	40.822942
1497.000000	40.824648
1496.000000	40.833782
1495.000000	40.847495
1494.000000	40.850260
1493.000000	40.850749
1492.000000	40.853847
1491.000000	40.873826
1490.000000	40.879094
1489.000000	40.897224
1488.000000	40.913059
1487.000000	40.935508
1486.000000	40.951951
1485.000000	40.958792
1484.000000	40.966401
1483.000000	40.951178
1482.000000	40.951291
1481.000000	41.005956
1480.000000	41.000188
1479.000000	41.020472
1478.000000	41.057691
1477.000000	41.083922
1476.000000	41.090116
1475.000000	41.107523
1474.000000	41.133953
1473.000000	41.155386
1472.000000	41.174101
1471.000000	41.208993
1470.000000	41.246655
