PE UV       SUBTECH     SPECTRUM    ASCII       PEDS        4.00        
   -1
TDmsmeh81.Sample.asc
18/03/14
10:05:53.00
18/03/14
10:05:53.00
Administrator

200.000000
1
Lambda 750
750N8071901
PerkinElmer UV WinLab 6.0.4.0738 / 1.61.00 Lambda 900

0
0
3350/servo 860.8/2
0
0
UV/VIS
1
1
1
CommonBeamDepol,150mm sphere / downward view
0
0
0
0
Program
Program
3350/servo 860.8/2
3350/0.2 860.8/0.2
3350/0.2 860.8/0.2
0
1
 
 
 
0
 
860.8
319.2
860.8
Front
100
on
 
 
0
0
0
 
0
 
 
 
0
 
 
0
0
0
0
0
 
 
 
 
0
0


0
0
#HDR
-1
-1
#GR
nm
%T
1.0
0.0
2350.000000
-1.000000
2151
8
15.067609
-0.001958
#DATA
2350.000000	9.478376
2349.000000	9.184987
2348.000000	8.917831
2347.000000	9.829784
2346.000000	9.338949
2345.000000	9.593711
2344.000000	8.924655
2343.000000	9.205832
2342.000000	9.260803
2341.000000	9.704883
2340.000000	9.712608
2339.000000	10.206128
2338.000000	9.829254
2337.000000	9.885101
2336.000000	10.080098
2335.000000	10.376220
2334.000000	10.013483
2333.000000	10.011547
2332.000000	10.108810
2331.000000	10.397647
2330.000000	10.363871
2329.000000	9.978722
2328.000000	10.281976
2327.000000	10.162195
2326.000000	9.991464
2325.000000	10.032298
2324.000000	10.010290
2323.000000	9.758978
2322.000000	9.705375
2321.000000	9.788533
2320.000000	9.996005
2319.000000	9.565859
2318.000000	9.930438
2317.000000	9.759022
2316.000000	9.644683
2315.000000	9.691675
2314.000000	9.639130
2313.000000	9.473818
2312.000000	9.310833
2311.000000	9.481944
2310.000000	9.521517
2309.000000	9.381899
2308.000000	9.434355
2307.000000	9.433998
2306.000000	9.383863
2305.000000	9.426347
2304.000000	9.508712
2303.000000	9.573059
2302.000000	9.403280
2301.000000	9.360845
2300.000000	9.368954
2299.000000	9.066764
2298.000000	8.996026
2297.000000	9.018474
2296.000000	9.241412
2295.000000	9.085514
2294.000000	9.038410
2293.000000	9.055214
2292.000000	9.216396
2291.000000	9.324486
2290.000000	9.259744
2289.000000	9.088333
2288.000000	9.019342
2287.000000	9.111743
2286.000000	9.095060
2285.000000	9.141655
2284.000000	9.015434
2283.000000	8.973603
2282.000000	9.121160
2281.000000	9.114135
2280.000000	9.067707
2279.000000	9.151375
2278.000000	9.060325
2277.000000	8.947096
2276.000000	9.059375
2275.000000	9.066510
2274.000000	9.015156
2273.000000	9.100329
2272.000000	9.201545
2271.000000	9.178638
2270.000000	9.086865
2269.000000	9.194211
2268.000000	9.154726
2267.000000	9.140545
2266.000000	9.362655
2265.000000	9.438069
2264.000000	9.498469
2263.000000	9.443743
2262.000000	9.404501
2261.000000	9.470891
2260.000000	9.547759
2259.000000	9.682543
2258.000000	9.740038
2257.000000	9.787879
2256.000000	9.830365
2255.000000	9.830622
2254.000000	9.896854
2253.000000	9.993030
2252.000000	10.018170
2251.000000	10.097529
2250.000000	10.103450
2249.000000	10.219812
2248.000000	10.394655
2247.000000	10.449168
2246.000000	10.423364
2245.000000	10.469171
2244.000000	10.639243
2243.000000	10.674701
2242.000000	10.667085
2241.000000	10.763385
2240.000000	10.825572
2239.000000	10.822400
2238.000000	10.829221
2237.000000	10.867251
2236.000000	10.904912
2235.000000	11.031119
2234.000000	11.101545
2233.000000	10.962125
2232.000000	10.871278
2231.000000	10.906465
2230.000000	10.931943
2229.000000	10.878965
2228.000000	10.837118
2227.000000	10.995435
2226.000000	11.068400
2225.000000	10.982197
2224.000000	11.061705
2223.000000	11.050688
2222.000000	10.953522
2221.000000	10.889766
2220.000000	10.942217
2219.000000	10.859733
2218.000000	10.846385
2217.000000	10.842317
2216.000000	10.936011
2215.000000	10.959930
2214.000000	10.906428
2213.000000	10.837718
2212.000000	10.856872
2211.000000	10.789867
2210.000000	10.744084
2209.000000	10.760362
2208.000000	10.676355
2207.000000	10.684063
2206.000000	10.621259
2205.000000	10.591194
2204.000000	10.610942
2203.000000	10.667926
2202.000000	10.630322
2201.000000	10.560701
2200.000000	10.569082
2199.000000	10.534685
2198.000000	10.618787
2197.000000	10.588009
2196.000000	10.527322
2195.000000	10.538003
2194.000000	10.363269
2193.000000	10.283977
2192.000000	10.345172
2191.000000	10.189427
2190.000000	10.143635
2189.000000	10.169253
2188.000000	10.105119
2187.000000	10.064874
2186.000000	10.156069
2185.000000	10.182563
2184.000000	10.095872
2183.000000	10.097592
2182.000000	10.280492
2181.000000	10.192282
2180.000000	10.179578
2179.000000	10.149803
2178.000000	10.148905
2177.000000	10.144635
2176.000000	10.181053
2175.000000	10.162402
2174.000000	10.043062
2173.000000	10.056759
2172.000000	10.122722
2171.000000	10.149098
2170.000000	10.267315
2169.000000	10.408201
2168.000000	10.378445
2167.000000	10.275256
2166.000000	10.411308
2165.000000	10.141932
2164.000000	10.187361
2163.000000	10.281318
2162.000000	10.427562
2161.000000	10.423720
2160.000000	10.466313
2159.000000	10.474766
2158.000000	10.485760
2157.000000	10.671663
2156.000000	10.808488
2155.000000	10.769249
2154.000000	10.829823
2153.000000	10.763527
2152.000000	10.750949
2151.000000	10.869062
2150.000000	10.928225
2149.000000	10.912944
2148.000000	10.981573
2147.000000	10.972660
2146.000000	11.147628
2145.000000	11.176821
2144.000000	11.143142
2143.000000	11.099018
2142.000000	11.030603
2141.000000	11.219769
2140.000000	11.210918
2139.000000	11.071193
2138.000000	11.469812
2137.000000	11.530961
2136.000000	11.291734
2135.000000	11.388744
2134.000000	11.521731
2133.000000	11.295826
2132.000000	11.455876
2131.000000	11.635523
2130.000000	11.516360
2129.000000	11.535232
2128.000000	11.520164
2127.000000	11.620016
2126.000000	11.524561
2125.000000	11.535850
2124.000000	11.345929
2123.000000	11.551352
2122.000000	11.500820
2121.000000	11.497846
2120.000000	11.612845
2119.000000	11.629968
2118.000000	11.539216
2117.000000	11.559985
2116.000000	11.625140
2115.000000	11.671541
2114.000000	11.665201
2113.000000	11.626515
2112.000000	11.620089
2111.000000	11.558724
2110.000000	11.611095
2109.000000	11.617647
2108.000000	11.576428
2107.000000	11.640929
2106.000000	11.450205
2105.000000	11.606079
2104.000000	11.589538
2103.000000	11.621647
2102.000000	11.634486
2101.000000	11.641173
2100.000000	11.577738
2099.000000	11.656761
2098.000000	11.722605
2097.000000	11.653694
2096.000000	11.533281
2095.000000	11.639376
2094.000000	11.627360
2093.000000	11.586723
2092.000000	11.534482
2091.000000	11.481008
2090.000000	11.459544
2089.000000	11.416213
2088.000000	11.432556
2087.000000	11.505574
2086.000000	11.632471
2085.000000	11.509695
2084.000000	11.498060
2083.000000	11.467914
2082.000000	11.414961
2081.000000	11.321229
2080.000000	11.314766
2079.000000	11.269303
2078.000000	11.200228
2077.000000	11.269276
2076.000000	11.232148
2075.000000	11.251405
2074.000000	11.198127
2073.000000	11.216735
2072.000000	11.147327
2071.000000	11.109854
2070.000000	10.992421
2069.000000	10.962462
2068.000000	10.903214
2067.000000	10.783621
2066.000000	10.748036
2065.000000	10.737440
2064.000000	10.706292
2063.000000	10.578604
2062.000000	10.499104
2061.000000	10.469464
2060.000000	10.471511
2059.000000	10.445978
2058.000000	10.400330
2057.000000	10.378246
2056.000000	10.376155
2055.000000	10.338675
2054.000000	10.271808
2053.000000	10.256392
2052.000000	10.148795
2051.000000	10.078733
2050.000000	10.028376
2049.000000	10.054594
2048.000000	10.015302
2047.000000	9.982554
2046.000000	9.993823
2045.000000	9.946136
2044.000000	9.938233
2043.000000	9.950054
2042.000000	9.918509
2041.000000	9.996744
2040.000000	10.030642
2039.000000	9.992782
2038.000000	9.993347
2037.000000	9.966434
2036.000000	9.962060
2035.000000	9.997704
2034.000000	10.039082
2033.000000	10.083898
2032.000000	10.136262
2031.000000	10.172415
2030.000000	10.206724
2029.000000	10.235432
2028.000000	10.285013
2027.000000	10.310210
2026.000000	10.340513
2025.000000	10.350389
2024.000000	10.367832
2023.000000	10.380058
2022.000000	10.318046
2021.000000	10.324194
2020.000000	10.371837
2019.000000	10.360880
2018.000000	10.323396
2017.000000	10.306950
2016.000000	10.348574
2015.000000	10.378294
2014.000000	10.340022
2013.000000	10.276910
2012.000000	10.229668
2011.000000	10.234792
2010.000000	10.233938
2009.000000	10.205206
2008.000000	10.164576
2007.000000	10.123248
2006.000000	10.092545
2005.000000	10.046747
2004.000000	10.018943
2003.000000	10.013436
2002.000000	9.993322
2001.000000	9.947581
2000.000000	9.862289
1999.000000	9.841174
1998.000000	9.823448
1997.000000	9.717455
1996.000000	9.733033
1995.000000	9.722383
1994.000000	9.662994
1993.000000	9.582951
1992.000000	9.527227
1991.000000	9.495434
1990.000000	9.458576
1989.000000	9.433517
1988.000000	9.429291
1987.000000	9.405597
1986.000000	9.376818
1985.000000	9.268847
1984.000000	9.248058
1983.000000	9.221783
1982.000000	9.169460
1981.000000	9.148991
1980.000000	9.130242
1979.000000	9.043507
1978.000000	9.060948
1977.000000	8.982735
1976.000000	8.953513
1975.000000	8.940069
1974.000000	8.904253
1973.000000	8.876656
1972.000000	8.837226
1971.000000	8.798496
1970.000000	8.727057
1969.000000	8.702309
1968.000000	8.645649
1967.000000	8.650895
1966.000000	8.657863
1965.000000	8.594979
1964.000000	8.541526
1963.000000	8.541105
1962.000000	8.448945
1961.000000	8.419405
1960.000000	8.400749
1959.000000	8.387551
1958.000000	8.394621
1957.000000	8.310971
1956.000000	8.296380
1955.000000	8.239995
1954.000000	8.286010
1953.000000	8.272262
1952.000000	8.262907
1951.000000	8.255331
1950.000000	8.214245
1949.000000	8.204028
1948.000000	8.202348
1947.000000	8.111131
1946.000000	8.133761
1945.000000	8.174341
1944.000000	8.203285
1943.000000	8.281376
1942.000000	8.308488
1941.000000	8.280833
1940.000000	8.261327
1939.000000	8.315735
1938.000000	8.381711
1937.000000	8.362965
1936.000000	8.426385
1935.000000	8.446582
1934.000000	8.449488
1933.000000	8.471345
1932.000000	8.450884
1931.000000	8.567990
1930.000000	8.593123
1929.000000	8.597229
1928.000000	8.799792
1927.000000	8.792707
1926.000000	8.895199
1925.000000	8.922459
1924.000000	9.089907
1923.000000	9.200751
1922.000000	9.211018
1921.000000	9.240564
1920.000000	9.427621
1919.000000	9.432922
1918.000000	9.556342
1917.000000	9.631182
1916.000000	9.703586
1915.000000	9.940735
1914.000000	10.062754
1913.000000	10.160438
1912.000000	10.348454
1911.000000	10.360459
1910.000000	10.375756
1909.000000	10.611711
1908.000000	10.715565
1907.000000	10.795836
1906.000000	11.012766
1905.000000	11.098589
1904.000000	11.278555
1903.000000	11.416720
1902.000000	11.486867
1901.000000	11.707704
1900.000000	11.799393
1899.000000	11.941181
1898.000000	12.122304
1897.000000	12.242503
1896.000000	12.370269
1895.000000	12.499734
1894.000000	12.584033
1893.000000	12.721982
1892.000000	12.838172
1891.000000	12.970184
1890.000000	13.054547
1889.000000	13.177191
1888.000000	13.264801
1887.000000	13.437331
1886.000000	13.526431
1885.000000	13.640735
1884.000000	13.728110
1883.000000	13.847276
1882.000000	13.932767
1881.000000	14.013525
1880.000000	14.114662
1879.000000	14.152283
1878.000000	14.216891
1877.000000	14.250711
1876.000000	14.297791
1875.000000	14.423274
1874.000000	14.517701
1873.000000	14.515868
1872.000000	14.554158
1871.000000	14.640400
1870.000000	14.719803
1869.000000	14.693430
1868.000000	14.726304
1867.000000	14.740349
1866.000000	14.771706
1865.000000	14.753091
1864.000000	14.775000
1863.000000	14.761840
1862.000000	14.796763
1861.000000	14.790807
1860.000000	14.795190
1859.000000	14.803187
1858.000000	14.832421
1857.000000	14.832371
1856.000000	14.796997
1855.000000	14.799655
1854.000000	14.833096
1853.000000	14.842179
1852.000000	14.835187
1851.000000	14.833014
1850.000000	14.852596
1849.000000	14.843902
1848.000000	14.836943
1847.000000	14.805966
1846.000000	14.807227
1845.000000	14.801242
1844.000000	14.805533
1843.000000	14.797633
1842.000000	14.797858
1841.000000	14.816623
1840.000000	14.795255
1839.000000	14.763410
1838.000000	14.763489
1837.000000	14.739701
1836.000000	14.730656
1835.000000	14.703402
1834.000000	14.701177
1833.000000	14.704359
1832.000000	14.670637
1831.000000	14.622785
1830.000000	14.608655
1829.000000	14.600833
1828.000000	14.571241
1827.000000	14.549456
1826.000000	14.578509
1825.000000	14.553998
1824.000000	14.528411
1823.000000	14.519821
1822.000000	14.499319
1821.000000	14.503087
1820.000000	14.482259
1819.000000	14.449494
1818.000000	14.457907
1817.000000	14.450024
1816.000000	14.435234
1815.000000	14.428017
1814.000000	14.418081
1813.000000	14.391227
1812.000000	14.381146
1811.000000	14.384072
1810.000000	14.372694
1809.000000	14.369815
1808.000000	14.361451
1807.000000	14.327217
1806.000000	14.310028
1805.000000	14.294288
1804.000000	14.298517
1803.000000	14.296490
1802.000000	14.278443
1801.000000	14.265772
1800.000000	14.258165
1799.000000	14.264229
1798.000000	14.262653
1797.000000	14.256974
1796.000000	14.251041
1795.000000	14.250838
1794.000000	14.267474
1793.000000	14.233549
1792.000000	14.220461
1791.000000	14.219554
1790.000000	14.219348
1789.000000	14.234658
1788.000000	14.224848
1787.000000	14.208649
1786.000000	14.213156
1785.000000	14.220017
1784.000000	14.199096
1783.000000	14.196662
1782.000000	14.212210
1781.000000	14.216845
1780.000000	14.221945
1779.000000	14.197607
1778.000000	14.170354
1777.000000	14.154940
1776.000000	14.164154
1775.000000	14.157371
1774.000000	14.140876
1773.000000	14.138629
1772.000000	14.117154
1771.000000	14.112495
1770.000000	14.084734
1769.000000	14.051603
1768.000000	14.045951
1767.000000	14.026136
1766.000000	13.997333
1765.000000	13.996598
1764.000000	13.998174
1763.000000	13.969362
1762.000000	13.938986
1761.000000	13.921169
1760.000000	13.913157
1759.000000	13.906251
1758.000000	13.898201
1757.000000	13.879765
1756.000000	13.858227
1755.000000	13.845127
1754.000000	13.840580
1753.000000	13.830104
1752.000000	13.809258
1751.000000	13.785180
1750.000000	13.771335
1749.000000	13.797713
1748.000000	13.783378
1747.000000	13.736065
1746.000000	13.725214
1745.000000	13.694917
1744.000000	13.689094
1743.000000	13.692090
1742.000000	13.653164
1741.000000	13.624052
1740.000000	13.608230
1739.000000	13.606080
1738.000000	13.581680
1737.000000	13.599749
1736.000000	13.580485
1735.000000	13.566192
1734.000000	13.584120
1733.000000	13.566324
1732.000000	13.538833
1731.000000	13.540304
1730.000000	13.567837
1729.000000	13.576614
1728.000000	13.578656
1727.000000	13.593541
1726.000000	13.613293
1725.000000	13.634667
1724.000000	13.629570
1723.000000	13.663991
1722.000000	13.657332
1721.000000	13.682517
1720.000000	13.708394
1719.000000	13.736359
1718.000000	13.750839
1717.000000	13.770107
1716.000000	13.777669
1715.000000	13.797236
1714.000000	13.817530
1713.000000	13.844246
1712.000000	13.888959
1711.000000	13.869696
1710.000000	13.905818
1709.000000	13.901262
1708.000000	13.908897
1707.000000	13.928672
1706.000000	13.935580
1705.000000	13.942575
1704.000000	13.954248
1703.000000	13.930899
1702.000000	13.963725
1701.000000	13.926893
1700.000000	13.953564
1699.000000	13.915943
1698.000000	13.987909
1697.000000	14.004947
1696.000000	13.998399
1695.000000	13.975554
1694.000000	14.001249
1693.000000	14.020694
1692.000000	14.010954
1691.000000	14.045525
1690.000000	14.029683
1689.000000	14.056106
1688.000000	14.076569
1687.000000	14.092021
1686.000000	14.125324
1685.000000	14.188265
1684.000000	14.196600
1683.000000	14.212969
1682.000000	14.272317
1681.000000	14.290465
1680.000000	14.293666
1679.000000	14.344896
1678.000000	14.379478
1677.000000	14.409631
1676.000000	14.416727
1675.000000	14.469267
1674.000000	14.492351
1673.000000	14.535186
1672.000000	14.561346
1671.000000	14.601333
1670.000000	14.618566
1669.000000	14.615083
1668.000000	14.631823
1667.000000	14.694655
1666.000000	14.675065
1665.000000	14.676925
1664.000000	14.695719
1663.000000	14.675791
1662.000000	14.695340
1661.000000	14.743317
1660.000000	14.750600
1659.000000	14.767490
1658.000000	14.779360
1657.000000	14.786449
1656.000000	14.808905
1655.000000	14.826668
1654.000000	14.816184
1653.000000	14.818218
1652.000000	14.824120
1651.000000	14.814218
1650.000000	14.806875
1649.000000	14.796420
1648.000000	14.782677
1647.000000	14.790977
1646.000000	14.790596
1645.000000	14.766491
1644.000000	14.783577
1643.000000	14.757416
1642.000000	14.753786
1641.000000	14.754170
1640.000000	14.761939
1639.000000	14.733765
1638.000000	14.727115
1637.000000	14.720847
1636.000000	14.700454
1635.000000	14.697615
1634.000000	14.681835
1633.000000	14.658321
1632.000000	14.670855
1631.000000	14.644430
1630.000000	14.639728
1629.000000	14.637470
1628.000000	14.607427
1627.000000	14.593347
1626.000000	14.580003
1625.000000	14.573458
1624.000000	14.570238
1623.000000	14.564432
1622.000000	14.549308
1621.000000	14.528404
1620.000000	14.517595
1619.000000	14.514387
1618.000000	14.506536
1617.000000	14.481876
1616.000000	14.458040
1615.000000	14.449566
1614.000000	14.429645
1613.000000	14.420834
1612.000000	14.423349
1611.000000	14.391784
1610.000000	14.368932
1609.000000	14.349188
1608.000000	14.343599
1607.000000	14.341430
1606.000000	14.319632
1605.000000	14.308043
1604.000000	14.296728
1603.000000	14.276742
1602.000000	14.263543
1601.000000	14.240617
1600.000000	14.216296
1599.000000	14.203612
1598.000000	14.182667
1597.000000	14.168690
1596.000000	14.176591
1595.000000	14.168615
1594.000000	14.142880
1593.000000	14.138287
1592.000000	14.133091
1591.000000	14.109323
1590.000000	14.093268
1589.000000	14.084580
1588.000000	14.066295
1587.000000	14.052512
1586.000000	14.040934
1585.000000	14.029729
1584.000000	14.025254
1583.000000	14.018507
1582.000000	14.002546
1581.000000	13.990545
1580.000000	13.977375
1579.000000	13.958726
1578.000000	13.951401
1577.000000	13.935637
1576.000000	13.911825
1575.000000	13.915093
1574.000000	13.910561
1573.000000	13.894394
1572.000000	13.883046
1571.000000	13.876945
1570.000000	13.867203
1569.000000	13.852374
1568.000000	13.846880
1567.000000	13.838443
1566.000000	13.825231
1565.000000	13.806250
1564.000000	13.792007
1563.000000	13.796739
1562.000000	13.804083
1561.000000	13.795712
1560.000000	13.789252
1559.000000	13.763822
1558.000000	13.745883
1557.000000	13.732883
1556.000000	13.736939
1555.000000	13.735587
1554.000000	13.724462
1553.000000	13.710512
1552.000000	13.693981
1551.000000	13.676660
1550.000000	13.669830
1549.000000	13.664762
1548.000000	13.653833
1547.000000	13.641647
1546.000000	13.620434
1545.000000	13.588822
1544.000000	13.570501
1543.000000	13.534020
1542.000000	13.518743
1541.000000	13.505091
1540.000000	13.479374
1539.000000	13.444343
1538.000000	13.435083
1537.000000	13.422340
1536.000000	13.405008
1535.000000	13.374942
1534.000000	13.350010
1533.000000	13.321684
1532.000000	13.302141
1531.000000	13.279131
1530.000000	13.274147
1529.000000	13.238094
1528.000000	13.216066
1527.000000	13.207746
1526.000000	13.191749
1525.000000	13.182877
1524.000000	13.167645
1523.000000	13.146048
1522.000000	13.129425
1521.000000	13.116685
1520.000000	13.104805
1519.000000	13.095544
1518.000000	13.090793
1517.000000	13.077306
1516.000000	13.063816
1515.000000	13.048291
1514.000000	13.037759
1513.000000	13.038718
1512.000000	13.033231
1511.000000	13.032004
1510.000000	13.032175
1509.000000	13.005645
1508.000000	13.000851
1507.000000	12.998109
1506.000000	12.985748
1505.000000	12.977850
1504.000000	12.968231
1503.000000	12.993526
1502.000000	12.980348
1501.000000	12.983096
1500.000000	13.003137
1499.000000	13.011524
1498.000000	12.999553
1497.000000	12.987755
1496.000000	12.999315
1495.000000	12.984442
1494.000000	12.972316
1493.000000	12.975242
1492.000000	12.972169
1491.000000	12.972694
1490.000000	12.973665
1489.000000	12.970446
1488.000000	12.981243
1487.000000	12.975676
1486.000000	12.986358
1485.000000	12.993455
1484.000000	12.992886
1483.000000	13.017448
1482.000000	12.987958
1481.000000	13.019751
1480.000000	13.032287
1479.000000	13.020447
1478.000000	13.021652
1477.000000	13.017657
1476.000000	13.031042
1475.000000	13.020891
1474.000000	13.019924
1473.000000	13.037226
1472.000000	13.017274
1471.000000	13.024809
1470.000000	13.024860
1469.000000	13.037079
1468.000000	13.032961
1467.000000	13.038087
1466.000000	13.068111
1465.000000	13.084168
1464.000000	13.080504
1463.000000	13.068021
1462.000000	13.089644
1461.000000	13.106772
