PE UV       SUBTECH     SPECTRUM    ASCII       PEDS        4.00        
   -1
TDmsfkat91.Sample.asc
18/03/14
11:12:47.00
18/03/14
11:12:47.00
Administrator

200.000000
1
Lambda 750
750N8071901
PerkinElmer UV WinLab 6.0.4.0738 / 1.61.00 Lambda 900

0
0
3350/servo 860.8/2
0
0
UV/VIS
1
1
1
CommonBeamDepol,150mm sphere / downward view
0
0
0
0
Program
Program
3350/servo 860.8/2
3350/0.2 860.8/0.2
3350/0.2 860.8/0.2
0
1
 
 
 
0
 
860.8
319.2
860.8
Front
100
on
 
 
0
0
0
 
0
 
 
 
0
 
 
0
0
0
0
0
 
 
 
 
0
0


0
0
#HDR
-1
-1
#GR
nm
%T
1.0
0.0
2350.000000
-1.000000
2151
8
14.967725
0.033472
#DATA
2350.000000	5.209910
2349.000000	5.508128
2348.000000	5.182271
2347.000000	6.078494
2346.000000	5.863235
2345.000000	5.688434
2344.000000	5.394738
2343.000000	5.328028
2342.000000	5.728549
2341.000000	5.740484
2340.000000	5.634873
2339.000000	6.230665
2338.000000	5.917754
2337.000000	6.069755
2336.000000	6.256064
2335.000000	6.273928
2334.000000	6.164444
2333.000000	6.246269
2332.000000	6.316568
2331.000000	6.232451
2330.000000	6.054670
2329.000000	6.200560
2328.000000	6.107627
2327.000000	6.079068
2326.000000	6.242241
2325.000000	6.212943
2324.000000	6.132225
2323.000000	6.166936
2322.000000	6.112063
2321.000000	6.154530
2320.000000	6.249886
2319.000000	6.078200
2318.000000	6.112699
2317.000000	5.952176
2316.000000	5.916055
2315.000000	5.916717
2314.000000	5.872440
2313.000000	5.886563
2312.000000	5.605079
2311.000000	5.658848
2310.000000	5.688867
2309.000000	5.644343
2308.000000	5.744903
2307.000000	5.747094
2306.000000	5.680414
2305.000000	5.613971
2304.000000	5.684644
2303.000000	5.648733
2302.000000	5.842198
2301.000000	5.641427
2300.000000	5.576845
2299.000000	5.553613
2298.000000	5.404505
2297.000000	5.506667
2296.000000	5.521538
2295.000000	5.497128
2294.000000	5.448755
2293.000000	5.443602
2292.000000	5.357298
2291.000000	5.145063
2290.000000	5.228386
2289.000000	5.400167
2288.000000	5.339002
2287.000000	5.287351
2286.000000	5.167478
2285.000000	5.232119
2284.000000	5.259434
2283.000000	5.319380
2282.000000	5.227774
2281.000000	5.189568
2280.000000	5.088938
2279.000000	5.063932
2278.000000	5.192039
2277.000000	5.237499
2276.000000	5.408025
2275.000000	5.385179
2274.000000	5.251698
2273.000000	5.154506
2272.000000	5.397395
2271.000000	5.279068
2270.000000	5.211400
2269.000000	5.215151
2268.000000	5.297396
2267.000000	5.301458
2266.000000	5.307347
2265.000000	5.462851
2264.000000	5.562841
2263.000000	5.660658
2262.000000	5.634709
2261.000000	5.609797
2260.000000	5.600076
2259.000000	5.721765
2258.000000	5.867164
2257.000000	5.925924
2256.000000	5.893910
2255.000000	5.970252
2254.000000	6.043273
2253.000000	6.037194
2252.000000	6.060401
2251.000000	6.117221
2250.000000	6.288910
2249.000000	6.561825
2248.000000	6.512237
2247.000000	6.553314
2246.000000	6.608624
2245.000000	6.598652
2244.000000	6.688524
2243.000000	6.787263
2242.000000	6.860546
2241.000000	6.832790
2240.000000	6.852626
2239.000000	6.912119
2238.000000	6.953514
2237.000000	7.054230
2236.000000	7.039376
2235.000000	7.027285
2234.000000	7.141656
2233.000000	7.184308
2232.000000	7.138874
2231.000000	7.215054
2230.000000	7.288164
2229.000000	7.250890
2228.000000	7.246683
2227.000000	7.095085
2226.000000	7.070127
2225.000000	7.236956
2224.000000	7.264335
2223.000000	7.136822
2222.000000	7.114192
2221.000000	7.107329
2220.000000	7.069207
2219.000000	6.967045
2218.000000	7.083752
2217.000000	7.080105
2216.000000	7.015308
2215.000000	7.061036
2214.000000	7.053925
2213.000000	6.987981
2212.000000	6.980762
2211.000000	7.047949
2210.000000	6.845241
2209.000000	6.914368
2208.000000	6.995234
2207.000000	6.900349
2206.000000	6.795821
2205.000000	6.789709
2204.000000	6.659651
2203.000000	6.626013
2202.000000	6.667968
2201.000000	6.632005
2200.000000	6.623495
2199.000000	6.671718
2198.000000	6.752694
2197.000000	6.717465
2196.000000	6.614312
2195.000000	6.430668
2194.000000	6.347232
2193.000000	6.426072
2192.000000	6.390072
2191.000000	6.352286
2190.000000	6.307052
2189.000000	6.244089
2188.000000	6.188431
2187.000000	6.266660
2186.000000	6.271963
2185.000000	6.270144
2184.000000	6.329828
2183.000000	6.412078
2182.000000	6.258902
2181.000000	6.262544
2180.000000	6.088620
2179.000000	6.157017
2178.000000	6.182891
2177.000000	6.208908
2176.000000	6.315056
2175.000000	6.367980
2174.000000	6.225873
2173.000000	6.157755
2172.000000	6.232949
2171.000000	6.233267
2170.000000	6.214753
2169.000000	6.470619
2168.000000	6.461634
2167.000000	6.345442
2166.000000	6.378083
2165.000000	6.507569
2164.000000	6.510976
2163.000000	6.447512
2162.000000	6.404353
2161.000000	6.349353
2160.000000	6.492902
2159.000000	6.649646
2158.000000	6.635599
2157.000000	6.768618
2156.000000	6.885081
2155.000000	6.851377
2154.000000	6.844041
2153.000000	6.923161
2152.000000	6.979131
2151.000000	6.873270
2150.000000	7.137414
2149.000000	7.048798
2148.000000	6.812289
2147.000000	7.006335
2146.000000	7.013800
2145.000000	7.211800
2144.000000	7.120418
2143.000000	7.264536
2142.000000	7.327935
2141.000000	7.431262
2140.000000	7.480314
2139.000000	7.351653
2138.000000	7.623403
2137.000000	7.461701
2136.000000	7.517944
2135.000000	7.525287
2134.000000	7.526266
2133.000000	7.344061
2132.000000	7.563456
2131.000000	7.735418
2130.000000	7.719266
2129.000000	7.620076
2128.000000	7.717286
2127.000000	7.490205
2126.000000	7.508255
2125.000000	7.527826
2124.000000	7.717439
2123.000000	7.835489
2122.000000	7.773482
2121.000000	7.857383
2120.000000	7.786734
2119.000000	7.794612
2118.000000	7.857539
2117.000000	7.760599
2116.000000	7.689913
2115.000000	7.695662
2114.000000	7.841982
2113.000000	7.839161
2112.000000	7.736133
2111.000000	7.743741
2110.000000	7.738409
2109.000000	7.780192
2108.000000	7.668868
2107.000000	7.750093
2106.000000	7.883400
2105.000000	7.860658
2104.000000	7.800354
2103.000000	7.854699
2102.000000	7.818562
2101.000000	7.878170
2100.000000	7.955432
2099.000000	7.959363
2098.000000	7.934003
2097.000000	7.856155
2096.000000	7.781176
2095.000000	7.808663
2094.000000	7.760151
2093.000000	7.718932
2092.000000	7.839003
2091.000000	7.813345
2090.000000	7.794495
2089.000000	7.738299
2088.000000	7.771708
2087.000000	7.670719
2086.000000	7.808254
2085.000000	7.805101
2084.000000	7.868814
2083.000000	7.751566
2082.000000	7.560961
2081.000000	7.638440
2080.000000	7.549001
2079.000000	7.460838
2078.000000	7.364849
2077.000000	7.383159
2076.000000	7.412812
2075.000000	7.354451
2074.000000	7.321472
2073.000000	7.286523
2072.000000	7.253679
2071.000000	7.306831
2070.000000	7.300609
2069.000000	7.208139
2068.000000	7.044228
2067.000000	6.925271
2066.000000	6.894111
2065.000000	6.888230
2064.000000	6.863525
2063.000000	6.761534
2062.000000	6.741954
2061.000000	6.689043
2060.000000	6.600229
2059.000000	6.629786
2058.000000	6.473904
2057.000000	6.437399
2056.000000	6.479756
2055.000000	6.432323
2054.000000	6.287734
2053.000000	6.255042
2052.000000	6.204822
2051.000000	6.180153
2050.000000	6.129822
2049.000000	6.031685
2048.000000	6.104875
2047.000000	6.129341
2046.000000	6.075127
2045.000000	6.088481
2044.000000	6.058151
2043.000000	5.946868
2042.000000	5.962730
2041.000000	5.985264
2040.000000	5.930121
2039.000000	5.941946
2038.000000	6.001367
2037.000000	6.034718
2036.000000	6.083088
2035.000000	6.067968
2034.000000	6.055722
2033.000000	6.126763
2032.000000	6.173205
2031.000000	6.159083
2030.000000	6.193923
2029.000000	6.295484
2028.000000	6.306622
2027.000000	6.316178
2026.000000	6.363867
2025.000000	6.356192
2024.000000	6.392683
2023.000000	6.423788
2022.000000	6.423796
2021.000000	6.405523
2020.000000	6.406748
2019.000000	6.418473
2018.000000	6.441100
2017.000000	6.434845
2016.000000	6.408324
2015.000000	6.397885
2014.000000	6.387576
2013.000000	6.377606
2012.000000	6.369777
2011.000000	6.384873
2010.000000	6.364616
2009.000000	6.307579
2008.000000	6.268678
2007.000000	6.191577
2006.000000	6.158191
2005.000000	6.131328
2004.000000	6.091273
2003.000000	6.063265
2002.000000	6.013301
2001.000000	5.973981
2000.000000	5.935644
1999.000000	5.905880
1998.000000	5.881077
1997.000000	5.860245
1996.000000	5.835036
1995.000000	5.805637
1994.000000	5.736700
1993.000000	5.673520
1992.000000	5.639134
1991.000000	5.577760
1990.000000	5.571540
1989.000000	5.563442
1988.000000	5.514157
1987.000000	5.479517
1986.000000	5.451217
1985.000000	5.387146
1984.000000	5.356784
1983.000000	5.360090
1982.000000	5.286868
1981.000000	5.290847
1980.000000	5.260761
1979.000000	5.165241
1978.000000	5.156499
1977.000000	5.125156
1976.000000	5.083277
1975.000000	5.043347
1974.000000	5.005689
1973.000000	4.969273
1972.000000	4.946367
1971.000000	4.931806
1970.000000	4.902602
1969.000000	4.865568
1968.000000	4.877683
1967.000000	4.864690
1966.000000	4.873907
1965.000000	4.752405
1964.000000	4.766067
1963.000000	4.688715
1962.000000	4.702261
1961.000000	4.658990
1960.000000	4.634263
1959.000000	4.608575
1958.000000	4.597852
1957.000000	4.561855
1956.000000	4.539500
1955.000000	4.529789
1954.000000	4.498360
1953.000000	4.531891
1952.000000	4.543272
1951.000000	4.496912
1950.000000	4.497833
1949.000000	4.518875
1948.000000	4.488255
1947.000000	4.453742
1946.000000	4.485819
1945.000000	4.441549
1944.000000	4.488143
1943.000000	4.559659
1942.000000	4.525605
1941.000000	4.558038
1940.000000	4.579917
1939.000000	4.573285
1938.000000	4.576801
1937.000000	4.645170
1936.000000	4.654418
1935.000000	4.647163
1934.000000	4.675113
1933.000000	4.707360
1932.000000	4.737534
1931.000000	4.763085
1930.000000	4.838796
1929.000000	4.918293
1928.000000	4.912767
1927.000000	4.984658
1926.000000	5.098901
1925.000000	5.139146
1924.000000	5.252614
1923.000000	5.313490
1922.000000	5.409418
1921.000000	5.504212
1920.000000	5.491706
1919.000000	5.657123
1918.000000	5.731295
1917.000000	5.890818
1916.000000	5.931104
1915.000000	5.986457
1914.000000	6.257046
1913.000000	6.307064
1912.000000	6.507337
1911.000000	6.617210
1910.000000	6.731868
1909.000000	6.835057
1908.000000	7.025461
1907.000000	7.156719
1906.000000	7.294863
1905.000000	7.515028
1904.000000	7.681208
1903.000000	7.834417
1902.000000	8.002671
1901.000000	8.182327
1900.000000	8.406930
1899.000000	8.560687
1898.000000	8.756886
1897.000000	8.881642
1896.000000	9.136584
1895.000000	9.332077
1894.000000	9.494266
1893.000000	9.656925
1892.000000	9.817640
1891.000000	9.963945
1890.000000	10.252269
1889.000000	10.448987
1888.000000	10.596845
1887.000000	10.720225
1886.000000	10.925066
1885.000000	11.101976
1884.000000	11.240667
1883.000000	11.474604
1882.000000	11.542235
1881.000000	11.655251
1880.000000	11.823549
1879.000000	11.968940
1878.000000	12.083458
1877.000000	12.236951
1876.000000	12.310191
1875.000000	12.437020
1874.000000	12.523069
1873.000000	12.615052
1872.000000	12.718165
1871.000000	12.755404
1870.000000	12.847550
1869.000000	12.872494
1868.000000	12.979544
1867.000000	13.030053
1866.000000	13.063812
1865.000000	13.087662
1864.000000	13.143538
1863.000000	13.157195
1862.000000	13.140201
1861.000000	13.157102
1860.000000	13.228055
1859.000000	13.240412
1858.000000	13.247434
1857.000000	13.283723
1856.000000	13.285643
1855.000000	13.272495
1854.000000	13.288117
1853.000000	13.291355
1852.000000	13.260526
1851.000000	13.268154
1850.000000	13.306410
1849.000000	13.309684
1848.000000	13.309525
1847.000000	13.324157
1846.000000	13.298478
1845.000000	13.303910
1844.000000	13.301840
1843.000000	13.291990
1842.000000	13.297191
1841.000000	13.288051
1840.000000	13.239993
1839.000000	13.230651
1838.000000	13.196962
1837.000000	13.158988
1836.000000	13.145250
1835.000000	13.128247
1834.000000	13.091872
1833.000000	13.085365
1832.000000	13.083990
1831.000000	13.050970
1830.000000	13.000123
1829.000000	12.969487
1828.000000	12.987817
1827.000000	12.965457
1826.000000	12.907301
1825.000000	12.889198
1824.000000	12.886225
1823.000000	12.876113
1822.000000	12.867835
1821.000000	12.840231
1820.000000	12.793663
1819.000000	12.761611
1818.000000	12.763126
1817.000000	12.745444
1816.000000	12.719676
1815.000000	12.711151
1814.000000	12.693338
1813.000000	12.687585
1812.000000	12.684038
1811.000000	12.652889
1810.000000	12.624856
1809.000000	12.606639
1808.000000	12.590231
1807.000000	12.572326
1806.000000	12.562962
1805.000000	12.529919
1804.000000	12.502395
1803.000000	12.496958
1802.000000	12.483752
1801.000000	12.481562
1800.000000	12.471256
1799.000000	12.459041
1798.000000	12.452646
1797.000000	12.450009
1796.000000	12.445886
1795.000000	12.440221
1794.000000	12.435640
1793.000000	12.422349
1792.000000	12.424293
1791.000000	12.404594
1790.000000	12.405193
1789.000000	12.409663
1788.000000	12.412644
1787.000000	12.397805
1786.000000	12.378628
1785.000000	12.382634
1784.000000	12.353857
1783.000000	12.342891
1782.000000	12.362836
1781.000000	12.352816
1780.000000	12.339338
1779.000000	12.322700
1778.000000	12.314053
1777.000000	12.277444
1776.000000	12.251688
1775.000000	12.238764
1774.000000	12.237888
1773.000000	12.215863
1772.000000	12.184466
1771.000000	12.159114
1770.000000	12.146104
1769.000000	12.133715
1768.000000	12.112831
1767.000000	12.049984
1766.000000	12.037079
1765.000000	12.028875
1764.000000	12.025459
1763.000000	11.990128
1762.000000	11.949977
1761.000000	11.933518
1760.000000	11.909000
1759.000000	11.856091
1758.000000	11.862361
1757.000000	11.854483
1756.000000	11.845468
1755.000000	11.796086
1754.000000	11.760750
1753.000000	11.774094
1752.000000	11.767032
1751.000000	11.766656
1750.000000	11.718742
1749.000000	11.706505
1748.000000	11.670987
1747.000000	11.629954
1746.000000	11.628912
1745.000000	11.595285
1744.000000	11.543372
1743.000000	11.523792
1742.000000	11.539628
1741.000000	11.509048
1740.000000	11.481913
1739.000000	11.460645
1738.000000	11.448588
1737.000000	11.447200
1736.000000	11.427780
1735.000000	11.417027
1734.000000	11.442140
1733.000000	11.413498
1732.000000	11.410904
1731.000000	11.443419
1730.000000	11.415408
1729.000000	11.413372
1728.000000	11.421902
1727.000000	11.433659
1726.000000	11.477543
1725.000000	11.502516
1724.000000	11.549084
1723.000000	11.531802
1722.000000	11.539663
1721.000000	11.576953
1720.000000	11.628004
1719.000000	11.690503
1718.000000	11.716151
1717.000000	11.744892
1716.000000	11.767807
1715.000000	11.774641
1714.000000	11.852433
1713.000000	11.842029
1712.000000	11.870922
1711.000000	11.896914
1710.000000	11.925459
1709.000000	11.959924
1708.000000	11.965409
1707.000000	11.989088
1706.000000	11.961003
1705.000000	11.966477
1704.000000	11.987318
1703.000000	12.017475
1702.000000	11.994735
1701.000000	12.032007
1700.000000	12.039864
1699.000000	11.986222
1698.000000	12.002814
1697.000000	12.072423
1696.000000	12.086315
1695.000000	12.055500
1694.000000	12.059070
1693.000000	12.072031
1692.000000	12.056411
1691.000000	12.099073
1690.000000	12.144509
1689.000000	12.181627
1688.000000	12.184635
1687.000000	12.214565
1686.000000	12.268564
1685.000000	12.310078
1684.000000	12.352665
1683.000000	12.435372
1682.000000	12.485578
1681.000000	12.529299
1680.000000	12.604055
1679.000000	12.656491
1678.000000	12.723002
1677.000000	12.762669
1676.000000	12.829816
1675.000000	12.891897
1674.000000	12.957206
1673.000000	12.990332
1672.000000	13.042266
1671.000000	13.119932
1670.000000	13.163631
1669.000000	13.184214
1668.000000	13.202771
1667.000000	13.284896
1666.000000	13.298556
1665.000000	13.294060
1664.000000	13.337447
1663.000000	13.362790
1662.000000	13.394923
1661.000000	13.422616
1660.000000	13.434755
1659.000000	13.471079
1658.000000	13.485921
1657.000000	13.501213
1656.000000	13.518527
1655.000000	13.529490
1654.000000	13.544648
1653.000000	13.556561
1652.000000	13.543391
1651.000000	13.546466
1650.000000	13.536059
1649.000000	13.526690
1648.000000	13.514135
1647.000000	13.521844
1646.000000	13.515510
1645.000000	13.495474
1644.000000	13.491343
1643.000000	13.467254
1642.000000	13.451898
1641.000000	13.446790
1640.000000	13.422938
1639.000000	13.406792
1638.000000	13.401291
1637.000000	13.385968
1636.000000	13.356957
1635.000000	13.355260
1634.000000	13.353930
1633.000000	13.300399
1632.000000	13.273515
1631.000000	13.268542
1630.000000	13.245781
1629.000000	13.233457
1628.000000	13.185092
1627.000000	13.167354
1626.000000	13.162891
1625.000000	13.138197
1624.000000	13.106224
1623.000000	13.089034
1622.000000	13.083234
1621.000000	13.052050
1620.000000	13.039193
1619.000000	13.013556
1618.000000	12.971013
1617.000000	12.946779
1616.000000	12.927397
1615.000000	12.912449
1614.000000	12.886567
1613.000000	12.839671
1612.000000	12.802924
1611.000000	12.796389
1610.000000	12.787816
1609.000000	12.754969
1608.000000	12.730214
1607.000000	12.695497
1606.000000	12.658255
1605.000000	12.641106
1604.000000	12.604015
1603.000000	12.564895
1602.000000	12.546423
1601.000000	12.524226
1600.000000	12.501811
1599.000000	12.471462
1598.000000	12.444763
1597.000000	12.433014
1596.000000	12.416597
1595.000000	12.378899
1594.000000	12.358345
1593.000000	12.343312
1592.000000	12.307823
1591.000000	12.289775
1590.000000	12.267355
1589.000000	12.234878
1588.000000	12.215336
1587.000000	12.206691
1586.000000	12.188810
1585.000000	12.153251
1584.000000	12.132534
1583.000000	12.126581
1582.000000	12.104023
1581.000000	12.081234
1580.000000	12.048875
1579.000000	12.032138
1578.000000	12.034380
1577.000000	12.013875
1576.000000	11.979031
1575.000000	11.953758
1574.000000	11.923989
1573.000000	11.907614
1572.000000	11.890639
1571.000000	11.879189
1570.000000	11.864154
1569.000000	11.827351
1568.000000	11.823123
1567.000000	11.800126
1566.000000	11.782528
1565.000000	11.773462
1564.000000	11.752017
1563.000000	11.746832
1562.000000	11.728103
1561.000000	11.709733
1560.000000	11.695829
1559.000000	11.674430
1558.000000	11.653805
1557.000000	11.632943
1556.000000	11.625043
1555.000000	11.623767
1554.000000	11.610420
1553.000000	11.591287
1552.000000	11.576895
1551.000000	11.542944
1550.000000	11.536764
1549.000000	11.508537
1548.000000	11.496920
1547.000000	11.458243
1546.000000	11.435639
1545.000000	11.391384
1544.000000	11.373989
1543.000000	11.337021
1542.000000	11.298388
1541.000000	11.261802
1540.000000	11.229335
1539.000000	11.190778
1538.000000	11.147700
1537.000000	11.110796
1536.000000	11.071757
1535.000000	11.052123
1534.000000	11.014510
1533.000000	10.970674
1532.000000	10.939433
1531.000000	10.908194
1530.000000	10.874263
1529.000000	10.823279
1528.000000	10.801528
1527.000000	10.777804
1526.000000	10.758271
1525.000000	10.729992
1524.000000	10.697097
1523.000000	10.671114
1522.000000	10.655064
1521.000000	10.635670
1520.000000	10.620410
1519.000000	10.607844
1518.000000	10.585298
1517.000000	10.578506
1516.000000	10.562919
1515.000000	10.552220
1514.000000	10.515011
1513.000000	10.512783
1512.000000	10.510670
1511.000000	10.489369
1510.000000	10.497041
1509.000000	10.468697
1508.000000	10.465354
1507.000000	10.464536
1506.000000	10.460173
1505.000000	10.448795
1504.000000	10.429955
1503.000000	10.444055
1502.000000	10.434562
1501.000000	10.421543
1500.000000	10.427506
1499.000000	10.437957
1498.000000	10.456759
1497.000000	10.450812
1496.000000	10.434431
1495.000000	10.442037
1494.000000	10.437230
1493.000000	10.414183
1492.000000	10.410689
1491.000000	10.411453
1490.000000	10.420348
1489.000000	10.430313
1488.000000	10.415354
1487.000000	10.432897
1486.000000	10.453615
1485.000000	10.461177
1484.000000	10.465957
1483.000000	10.481755
1482.000000	10.459448
1481.000000	10.505165
1480.000000	10.476500
1479.000000	10.485764
1478.000000	10.485821
1477.000000	10.485549
1476.000000	10.494470
1475.000000	10.502984
1474.000000	10.512286
1473.000000	10.501389
1472.000000	10.535798
1471.000000	10.543662
1470.000000	10.552221
1469.000000	10.556135
1468.000000	10.569544
1467.000000	10.603346
1466.000000	10.614659
1465.000000	10.630741
1464.000000	10.650456
1463.000000	10.642540
1462.000000	10.639422
1461.000000	10.666072
1460.000000	10.706313
1459.000000	10.704563
1458.000000	10.700490
1457.000000	10.708850
1456.000000	10.737525
1455.000000	10.768611
1454.000000	10.762501
1453.000000	10.780022
1452.000000	10.803355
1451.000000	10.834473
1450.000000	10.873609
1449.000000	10.885872
