PE UV       SUBTECH     SPECTRUM    ASCII       PEDS        4.00        
   -1
TDms1240111.Sample.asc
18/03/14
12:05:55.00
18/03/14
12:05:55.00
Administrator

200.000000
1
Lambda 750
750N8071901
PerkinElmer UV WinLab 6.0.4.0738 / 1.61.00 Lambda 900

0
0
3350/servo 860.8/2
0
0
UV/VIS
1
1
1
CommonBeamDepol,150mm sphere / downward view
0
0
0
0
Program
Program
3350/servo 860.8/2
3350/0.2 860.8/0.2
3350/0.2 860.8/0.2
0
1
 
 
 
0
 
860.8
319.2
860.8
Front
100
on
 
 
0
0
0
 
0
 
 
 
0
 
 
0
0
0
0
0
 
 
 
 
0
0


0
0
#HDR
-1
-1
#GR
nm
%T
1.0
0.0
2350.000000
-1.000000
2151
8
23.448116
0.194414
#DATA
2350.000000	17.949568
2349.000000	17.565389
2348.000000	17.566238
2347.000000	18.133019
2346.000000	17.803457
2345.000000	17.578642
2344.000000	17.735875
2343.000000	17.637860
2342.000000	17.594649
2341.000000	18.134855
2340.000000	18.020208
2339.000000	18.307682
2338.000000	18.536126
2337.000000	18.054330
2336.000000	18.450135
2335.000000	18.511233
2334.000000	18.447415
2333.000000	18.567978
2332.000000	18.602579
2331.000000	18.519491
2330.000000	18.419516
2329.000000	18.562295
2328.000000	18.429522
2327.000000	18.328148
2326.000000	18.308122
2325.000000	18.125405
2324.000000	18.188039
2323.000000	18.288347
2322.000000	18.291551
2321.000000	18.249749
2320.000000	17.886956
2319.000000	18.057028
2318.000000	18.086521
2317.000000	17.995629
2316.000000	17.709195
2315.000000	17.856864
2314.000000	17.854960
2313.000000	17.711069
2312.000000	17.722247
2311.000000	17.895128
2310.000000	17.687943
2309.000000	17.344044
2308.000000	17.429783
2307.000000	17.467666
2306.000000	17.416406
2305.000000	17.576887
2304.000000	17.576297
2303.000000	17.497466
2302.000000	17.348435
2301.000000	17.265870
2300.000000	17.255993
2299.000000	17.240637
2298.000000	17.340656
2297.000000	17.191263
2296.000000	17.396534
2295.000000	17.356424
2294.000000	17.323855
2293.000000	17.089804
2292.000000	16.885777
2291.000000	16.731130
2290.000000	16.728795
2289.000000	16.862023
2288.000000	16.881647
2287.000000	16.934355
2286.000000	16.909817
2285.000000	16.856221
2284.000000	16.881756
2283.000000	16.753848
2282.000000	16.804331
2281.000000	16.828951
2280.000000	16.892378
2279.000000	16.917326
2278.000000	16.872153
2277.000000	16.959064
2276.000000	16.998279
2275.000000	16.950692
2274.000000	17.073299
2273.000000	17.043081
2272.000000	17.146412
2271.000000	17.055599
2270.000000	17.084378
2269.000000	17.199738
2268.000000	17.133275
2267.000000	17.223895
2266.000000	17.427218
2265.000000	17.358349
2264.000000	17.330592
2263.000000	17.451849
2262.000000	17.528396
2261.000000	17.549189
2260.000000	17.578741
2259.000000	17.722092
2258.000000	17.870121
2257.000000	17.843107
2256.000000	17.788155
2255.000000	17.831161
2254.000000	17.981789
2253.000000	18.073545
2252.000000	18.314919
2251.000000	18.416946
2250.000000	18.383841
2249.000000	18.441189
2248.000000	18.483710
2247.000000	18.620427
2246.000000	18.755787
2245.000000	18.733566
2244.000000	18.797122
2243.000000	18.917388
2242.000000	18.997502
2241.000000	19.116001
2240.000000	19.086357
2239.000000	19.064289
2238.000000	19.106977
2237.000000	19.125460
2236.000000	19.119810
2235.000000	19.174331
2234.000000	19.260775
2233.000000	19.314653
2232.000000	19.263986
2231.000000	19.272263
2230.000000	19.372696
2229.000000	19.384637
2228.000000	19.312222
2227.000000	19.190144
2226.000000	19.220950
2225.000000	19.335191
2224.000000	19.318265
2223.000000	19.360940
2222.000000	19.322558
2221.000000	19.241995
2220.000000	19.404000
2219.000000	19.390130
2218.000000	19.182931
2217.000000	19.124215
2216.000000	19.221134
2215.000000	19.206175
2214.000000	19.235726
2213.000000	19.181513
2212.000000	19.128523
2211.000000	19.103272
2210.000000	19.224907
2209.000000	19.091898
2208.000000	19.003084
2207.000000	18.995194
2206.000000	18.941689
2205.000000	18.989931
2204.000000	18.902672
2203.000000	18.917162
2202.000000	18.828565
2201.000000	18.734292
2200.000000	18.823951
2199.000000	18.811418
2198.000000	18.783134
2197.000000	18.798818
2196.000000	18.615753
2195.000000	18.605576
2194.000000	18.597423
2193.000000	18.466130
2192.000000	18.525847
2191.000000	18.464073
2190.000000	18.450109
2189.000000	18.451861
2188.000000	18.355821
2187.000000	18.360289
2186.000000	18.443873
2185.000000	18.448978
2184.000000	18.497155
2183.000000	18.469076
2182.000000	18.323066
2181.000000	18.345038
2180.000000	18.415121
2179.000000	18.350344
2178.000000	18.339611
2177.000000	18.460591
2176.000000	18.472554
2175.000000	18.451465
2174.000000	18.379776
2173.000000	18.348657
2172.000000	18.437217
2171.000000	18.468350
2170.000000	18.550836
2169.000000	18.654556
2168.000000	18.710695
2167.000000	18.670090
2166.000000	18.737289
2165.000000	18.688993
2164.000000	18.785843
2163.000000	18.640148
2162.000000	18.736064
2161.000000	18.678221
2160.000000	18.708959
2159.000000	18.833530
2158.000000	18.910530
2157.000000	19.052900
2156.000000	19.188191
2155.000000	19.171972
2154.000000	19.195175
2153.000000	19.389408
2152.000000	19.302812
2151.000000	19.466060
2150.000000	19.377929
2149.000000	19.456667
2148.000000	19.522449
2147.000000	19.584849
2146.000000	19.601816
2145.000000	19.658422
2144.000000	19.649797
2143.000000	19.770149
2142.000000	19.584015
2141.000000	19.895253
2140.000000	19.840378
2139.000000	19.838888
2138.000000	19.928714
2137.000000	19.854242
2136.000000	19.993246
2135.000000	19.915421
2134.000000	19.920386
2133.000000	19.627100
2132.000000	20.143959
2131.000000	20.175729
2130.000000	20.155896
2129.000000	20.050827
2128.000000	20.033469
2127.000000	20.081786
2126.000000	20.125032
2125.000000	20.076890
2124.000000	20.058716
2123.000000	20.060046
2122.000000	20.158174
2121.000000	20.166160
2120.000000	20.120910
2119.000000	20.106131
2118.000000	20.138585
2117.000000	20.080582
2116.000000	19.972435
2115.000000	20.206387
2114.000000	20.074470
2113.000000	20.084343
2112.000000	20.157186
2111.000000	20.199852
2110.000000	20.128037
2109.000000	20.092105
2108.000000	20.039243
2107.000000	20.106416
2106.000000	20.140311
2105.000000	20.030379
2104.000000	20.082867
2103.000000	20.196012
2102.000000	20.063394
2101.000000	20.069989
2100.000000	20.134112
2099.000000	19.997112
2098.000000	19.995437
2097.000000	20.031499
2096.000000	19.962829
2095.000000	20.007947
2094.000000	19.957557
2093.000000	19.879718
2092.000000	19.925996
2091.000000	19.986057
2090.000000	19.991386
2089.000000	20.028172
2088.000000	19.950620
2087.000000	19.996570
2086.000000	19.877611
2085.000000	19.927839
2084.000000	19.833723
2083.000000	19.769448
2082.000000	19.740502
2081.000000	19.591604
2080.000000	19.572751
2079.000000	19.598402
2078.000000	19.622423
2077.000000	19.568656
2076.000000	19.508941
2075.000000	19.448525
2074.000000	19.440396
2073.000000	19.356893
2072.000000	19.287508
2071.000000	19.336352
2070.000000	19.310942
2069.000000	19.257819
2068.000000	19.171330
2067.000000	19.158097
2066.000000	19.007398
2065.000000	18.920420
2064.000000	18.913533
2063.000000	18.810401
2062.000000	18.745333
2061.000000	18.720190
2060.000000	18.643411
2059.000000	18.576126
2058.000000	18.484099
2057.000000	18.450046
2056.000000	18.378046
2055.000000	18.330306
2054.000000	18.279862
2053.000000	18.219569
2052.000000	18.185495
2051.000000	18.054742
2050.000000	18.018699
2049.000000	18.078578
2048.000000	18.008785
2047.000000	17.990086
2046.000000	17.931198
2045.000000	17.857525
2044.000000	17.862940
2043.000000	17.889014
2042.000000	17.925285
2041.000000	17.890464
2040.000000	17.860646
2039.000000	17.846159
2038.000000	17.879639
2037.000000	17.943505
2036.000000	18.008397
2035.000000	18.027000
2034.000000	17.989310
2033.000000	17.965298
2032.000000	18.017470
2031.000000	18.030154
2030.000000	18.039852
2029.000000	18.068809
2028.000000	18.101712
2027.000000	18.153006
2026.000000	18.163114
2025.000000	18.185599
2024.000000	18.200228
2023.000000	18.192180
2022.000000	18.223790
2021.000000	18.224299
2020.000000	18.225277
2019.000000	18.234356
2018.000000	18.190948
2017.000000	18.174178
2016.000000	18.132279
2015.000000	18.084055
2014.000000	18.086409
2013.000000	18.094252
2012.000000	18.038944
2011.000000	18.017160
2010.000000	18.020602
2009.000000	17.944355
2008.000000	17.885683
2007.000000	17.805430
2006.000000	17.762733
2005.000000	17.719567
2004.000000	17.676138
2003.000000	17.639584
2002.000000	17.579439
2001.000000	17.521198
2000.000000	17.507042
1999.000000	17.456677
1998.000000	17.389582
1997.000000	17.333179
1996.000000	17.312853
1995.000000	17.247241
1994.000000	17.180807
1993.000000	17.122004
1992.000000	17.076652
1991.000000	16.993959
1990.000000	16.930937
1989.000000	16.857117
1988.000000	16.802318
1987.000000	16.771750
1986.000000	16.707657
1985.000000	16.630750
1984.000000	16.602474
1983.000000	16.521182
1982.000000	16.474022
1981.000000	16.453920
1980.000000	16.426504
1979.000000	16.348397
1978.000000	16.289520
1977.000000	16.229778
1976.000000	16.147118
1975.000000	16.127393
1974.000000	16.071867
1973.000000	16.030239
1972.000000	15.967542
1971.000000	15.947952
1970.000000	15.905679
1969.000000	15.816236
1968.000000	15.761826
1967.000000	15.724974
1966.000000	15.751109
1965.000000	15.662559
1964.000000	15.611236
1963.000000	15.573417
1962.000000	15.515313
1961.000000	15.430137
1960.000000	15.410479
1959.000000	15.342345
1958.000000	15.350887
1957.000000	15.296035
1956.000000	15.280289
1955.000000	15.220426
1954.000000	15.214925
1953.000000	15.195332
1952.000000	15.203235
1951.000000	15.174787
1950.000000	15.102929
1949.000000	15.102015
1948.000000	15.135868
1947.000000	15.078131
1946.000000	15.052114
1945.000000	15.079177
1944.000000	15.079082
1943.000000	15.139909
1942.000000	15.098922
1941.000000	15.121332
1940.000000	15.180562
1939.000000	15.195758
1938.000000	15.267607
1937.000000	15.320294
1936.000000	15.311519
1935.000000	15.371898
1934.000000	15.403010
1933.000000	15.502978
1932.000000	15.491061
1931.000000	15.512588
1930.000000	15.705228
1929.000000	15.707756
1928.000000	15.894967
1927.000000	15.996982
1926.000000	16.069771
1925.000000	16.121932
1924.000000	16.136777
1923.000000	16.259782
1922.000000	16.395716
1921.000000	16.519412
1920.000000	16.564350
1919.000000	16.711930
1918.000000	16.826381
1917.000000	16.996322
1916.000000	17.022259
1915.000000	17.369347
1914.000000	17.386939
1913.000000	17.578348
1912.000000	17.667439
1911.000000	17.847968
1910.000000	17.987347
1909.000000	18.177763
1908.000000	18.381938
1907.000000	18.426580
1906.000000	18.625127
1905.000000	18.855806
1904.000000	18.988501
1903.000000	19.183538
1902.000000	19.292334
1901.000000	19.580343
1900.000000	19.698859
1899.000000	19.885944
1898.000000	20.051142
1897.000000	20.242758
1896.000000	20.339957
1895.000000	20.514552
1894.000000	20.643467
1893.000000	20.790303
1892.000000	20.919280
1891.000000	21.055723
1890.000000	21.247511
1889.000000	21.354919
1888.000000	21.476918
1887.000000	21.555568
1886.000000	21.754968
1885.000000	21.882575
1884.000000	21.995617
1883.000000	22.119618
1882.000000	22.274039
1881.000000	22.384587
1880.000000	22.492797
1879.000000	22.560951
1878.000000	22.657785
1877.000000	22.749727
1876.000000	22.792153
1875.000000	22.922844
1874.000000	22.987766
1873.000000	23.077622
1872.000000	23.119806
1871.000000	23.169079
1870.000000	23.194349
1869.000000	23.257284
1868.000000	23.294249
1867.000000	23.267981
1866.000000	23.305116
1865.000000	23.350766
1864.000000	23.343151
1863.000000	23.353089
1862.000000	23.375126
1861.000000	23.347185
1860.000000	23.337416
1859.000000	23.366498
1858.000000	23.375323
1857.000000	23.389095
1856.000000	23.409208
1855.000000	23.412685
1854.000000	23.419976
1853.000000	23.448116
1852.000000	23.422559
1851.000000	23.443377
1850.000000	23.435678
1849.000000	23.434571
1848.000000	23.436515
1847.000000	23.428496
1846.000000	23.424723
1845.000000	23.421482
1844.000000	23.390661
1843.000000	23.366858
1842.000000	23.371002
1841.000000	23.363505
1840.000000	23.357534
1839.000000	23.352119
1838.000000	23.335267
1837.000000	23.292330
1836.000000	23.253667
1835.000000	23.227723
1834.000000	23.214929
1833.000000	23.183777
1832.000000	23.171735
1831.000000	23.129809
1830.000000	23.112196
1829.000000	23.090042
1828.000000	23.064949
1827.000000	23.029463
1826.000000	23.030402
1825.000000	23.044725
1824.000000	23.009728
1823.000000	22.971915
1822.000000	22.924887
1821.000000	22.932289
1820.000000	22.914400
1819.000000	22.875335
1818.000000	22.875193
1817.000000	22.850126
1816.000000	22.825789
1815.000000	22.830083
1814.000000	22.830722
1813.000000	22.805775
1812.000000	22.788274
1811.000000	22.769993
1810.000000	22.740832
1809.000000	22.743331
1808.000000	22.742943
1807.000000	22.712924
1806.000000	22.693513
1805.000000	22.671391
1804.000000	22.658183
1803.000000	22.651048
1802.000000	22.648733
1801.000000	22.643449
1800.000000	22.627255
1799.000000	22.614338
1798.000000	22.610588
1797.000000	22.596595
1796.000000	22.578375
1795.000000	22.588049
1794.000000	22.602760
1793.000000	22.591067
1792.000000	22.570595
1791.000000	22.577053
1790.000000	22.557016
1789.000000	22.555298
1788.000000	22.565105
1787.000000	22.556203
1786.000000	22.551359
1785.000000	22.553613
1784.000000	22.553683
1783.000000	22.561449
1782.000000	22.539771
1781.000000	22.525659
1780.000000	22.523126
1779.000000	22.525150
1778.000000	22.515544
1777.000000	22.500535
1776.000000	22.468409
1775.000000	22.454770
1774.000000	22.443176
1773.000000	22.445465
1772.000000	22.433607
1771.000000	22.414846
1770.000000	22.389686
1769.000000	22.328850
1768.000000	22.315464
1767.000000	22.316482
1766.000000	22.314616
1765.000000	22.284669
1764.000000	22.276600
1763.000000	22.254817
1762.000000	22.225186
1761.000000	22.215325
1760.000000	22.198182
1759.000000	22.181664
1758.000000	22.176059
1757.000000	22.143902
1756.000000	22.148066
1755.000000	22.110472
1754.000000	22.087072
1753.000000	22.100383
1752.000000	22.106027
1751.000000	22.083891
1750.000000	22.057866
1749.000000	22.036179
1748.000000	22.014682
1747.000000	22.003320
1746.000000	21.984949
1745.000000	21.934238
1744.000000	21.934679
1743.000000	21.922921
1742.000000	21.898928
1741.000000	21.864293
1740.000000	21.825328
1739.000000	21.824994
1738.000000	21.818361
1737.000000	21.815591
1736.000000	21.805728
1735.000000	21.798051
1734.000000	21.810756
1733.000000	21.781965
1732.000000	21.777817
1731.000000	21.760913
1730.000000	21.766515
1729.000000	21.790604
1728.000000	21.774807
1727.000000	21.751735
1726.000000	21.800659
1725.000000	21.837173
1724.000000	21.857218
1723.000000	21.840490
1722.000000	21.869170
1721.000000	21.865629
1720.000000	21.927043
1719.000000	21.959941
1718.000000	21.977767
1717.000000	22.008769
1716.000000	22.027279
1715.000000	22.032286
1714.000000	22.045587
1713.000000	22.079446
1712.000000	22.065721
1711.000000	22.102699
1710.000000	22.139733
1709.000000	22.163660
1708.000000	22.139925
1707.000000	22.138753
1706.000000	22.150077
1705.000000	22.188194
1704.000000	22.219000
1703.000000	22.202531
1702.000000	22.206956
1701.000000	22.207859
1700.000000	22.202022
1699.000000	22.158485
1698.000000	22.196397
1697.000000	22.234218
1696.000000	22.214834
1695.000000	22.227133
1694.000000	22.249273
1693.000000	22.269545
1692.000000	22.257117
1691.000000	22.254227
1690.000000	22.292032
1689.000000	22.323133
1688.000000	22.340272
1687.000000	22.376996
1686.000000	22.420589
1685.000000	22.451677
1684.000000	22.462384
1683.000000	22.504062
1682.000000	22.551966
1681.000000	22.588484
1680.000000	22.628267
1679.000000	22.671233
1678.000000	22.678586
1677.000000	22.682353
1676.000000	22.761668
1675.000000	22.777685
1674.000000	22.810979
1673.000000	22.836617
1672.000000	22.874105
1671.000000	22.900378
1670.000000	22.909140
1669.000000	22.916694
1668.000000	22.919555
1667.000000	22.950443
1666.000000	22.942836
1665.000000	22.951414
1664.000000	22.947370
1663.000000	22.950170
1662.000000	22.985043
1661.000000	23.013933
1660.000000	23.004752
1659.000000	23.042188
1658.000000	23.057487
1657.000000	23.075692
1656.000000	23.070486
1655.000000	23.066441
1654.000000	23.086743
1653.000000	23.086821
1652.000000	23.091519
1651.000000	23.063474
1650.000000	23.065662
1649.000000	23.061819
1648.000000	23.038383
1647.000000	23.045147
1646.000000	23.042031
1645.000000	23.026023
1644.000000	23.021570
1643.000000	22.998866
1642.000000	22.990837
1641.000000	22.973667
1640.000000	22.952955
1639.000000	22.961118
1638.000000	22.943336
1637.000000	22.938415
1636.000000	22.918047
1635.000000	22.905255
1634.000000	22.901672
1633.000000	22.889538
1632.000000	22.870374
1631.000000	22.849908
1630.000000	22.842981
1629.000000	22.825861
1628.000000	22.805786
1627.000000	22.795310
1626.000000	22.772263
1625.000000	22.746184
1624.000000	22.731841
1623.000000	22.737873
1622.000000	22.744715
1621.000000	22.722355
1620.000000	22.685780
1619.000000	22.666347
1618.000000	22.650883
1617.000000	22.640124
1616.000000	22.602964
1615.000000	22.576352
1614.000000	22.586288
1613.000000	22.567671
1612.000000	22.534792
1611.000000	22.520213
1610.000000	22.507517
1609.000000	22.494628
1608.000000	22.492983
1607.000000	22.475868
1606.000000	22.452198
1605.000000	22.435879
1604.000000	22.410076
1603.000000	22.388949
1602.000000	22.375947
1601.000000	22.360600
1600.000000	22.349184
1599.000000	22.328238
1598.000000	22.306827
1597.000000	22.293964
1596.000000	22.279049
1595.000000	22.257789
1594.000000	22.242165
1593.000000	22.234613
1592.000000	22.220849
1591.000000	22.201425
1590.000000	22.195066
1589.000000	22.177887
1588.000000	22.150224
1587.000000	22.126868
1586.000000	22.122376
1585.000000	22.126933
1584.000000	22.123639
1583.000000	22.100497
1582.000000	22.076891
1581.000000	22.062964
1580.000000	22.046718
1579.000000	22.039156
1578.000000	22.038502
1577.000000	22.010887
1576.000000	21.987395
1575.000000	21.975656
1574.000000	21.961271
1573.000000	21.948255
1572.000000	21.930348
1571.000000	21.912122
1570.000000	21.901777
1569.000000	21.887341
1568.000000	21.884687
1567.000000	21.877991
1566.000000	21.877569
1565.000000	21.851938
1564.000000	21.825276
1563.000000	21.819929
1562.000000	21.808730
1561.000000	21.785416
1560.000000	21.769370
1559.000000	21.771943
1558.000000	21.771942
1557.000000	21.741125
1556.000000	21.720441
1555.000000	21.703592
1554.000000	21.697126
1553.000000	21.682642
1552.000000	21.661936
1551.000000	21.646501
1550.000000	21.631369
1549.000000	21.617928
1548.000000	21.591604
1547.000000	21.575134
1546.000000	21.554691
1545.000000	21.515314
1544.000000	21.498050
1543.000000	21.465388
1542.000000	21.444633
1541.000000	21.427371
1540.000000	21.401538
1539.000000	21.366495
1538.000000	21.348398
1537.000000	21.318840
1536.000000	21.302531
1535.000000	21.258295
1534.000000	21.225616
1533.000000	21.208194
1532.000000	21.200784
1531.000000	21.158492
1530.000000	21.146504
1529.000000	21.112643
1528.000000	21.090197
1527.000000	21.072556
1526.000000	21.051358
1525.000000	21.022429
1524.000000	21.012358
1523.000000	20.991270
1522.000000	20.981036
1521.000000	20.947935
1520.000000	20.936069
1519.000000	20.935169
1518.000000	20.926455
1517.000000	20.917411
1516.000000	20.886182
1515.000000	20.877083
1514.000000	20.848646
1513.000000	20.841351
1512.000000	20.846931
1511.000000	20.834469
1510.000000	20.826564
1509.000000	20.795119
1508.000000	20.787811
1507.000000	20.804712
1506.000000	20.784650
1505.000000	20.770292
1504.000000	20.759052
1503.000000	20.772621
1502.000000	20.769652
1501.000000	20.757800
1500.000000	20.735599
1499.000000	20.765539
1498.000000	20.784196
1497.000000	20.767525
1496.000000	20.774681
1495.000000	20.755460
1494.000000	20.722878
1493.000000	20.732556
1492.000000	20.729930
1491.000000	20.719205
1490.000000	20.714017
1489.000000	20.718849
1488.000000	20.717797
1487.000000	20.724321
1486.000000	20.735174
1485.000000	20.736928
1484.000000	20.722619
1483.000000	20.714336
1482.000000	20.704585
1481.000000	20.730233
1480.000000	20.741755
1479.000000	20.730762
1478.000000	20.729951
1477.000000	20.730085
1476.000000	20.742783
1475.000000	20.715698
1474.000000	20.716809
1473.000000	20.736221
1472.000000	20.730820
1471.000000	20.756025
1470.000000	20.746074
