PE UV       SUBTECH     SPECTRUM    ASCII       PEDS        4.00        
   -1
TTms1240111.Sample.asc
18/03/14
12:15:33.00
18/03/14
12:15:33.00
Administrator

200.000000
1
Lambda 750
750N8071901
PerkinElmer UV WinLab 6.0.4.0738 / 1.61.00 Lambda 900

0
0
3350/servo 860.8/2
0
0
UV/VIS
1
1
1
CommonBeamDepol,150mm sphere / downward view
0
0
0
0
Program
Program
3350/servo 860.8/2
3350/0.2 860.8/0.2
3350/0.2 860.8/0.2
0
1
 
 
 
0
 
860.8
319.2
860.8
Front
100
on
 
 
0
0
0
 
0
 
 
 
0
 
 
0
0
0
0
0
 
 
 
 
0
0


0
0
#HDR
-1
-1
#GR
nm
%T
1.0
0.0
2350.000000
-1.000000
2151
8
24.297284
0.846643
#DATA
2350.000000	18.239460
2349.000000	18.762734
2348.000000	18.343659
2347.000000	19.098296
2346.000000	18.791570
2345.000000	18.713966
2344.000000	18.452617
2343.000000	18.331959
2342.000000	18.437749
2341.000000	18.733840
2340.000000	18.915020
2339.000000	18.997708
2338.000000	19.026147
2337.000000	19.231363
2336.000000	18.993248
2335.000000	19.506003
2334.000000	19.633362
2333.000000	19.550918
2332.000000	19.505811
2331.000000	19.394622
2330.000000	19.404519
2329.000000	19.284157
2328.000000	19.293059
2327.000000	19.159486
2326.000000	19.085826
2325.000000	19.233557
2324.000000	19.290961
2323.000000	19.208407
2322.000000	19.153522
2321.000000	19.040338
2320.000000	18.811505
2319.000000	18.843678
2318.000000	18.779619
2317.000000	19.077696
2316.000000	18.926731
2315.000000	18.345883
2314.000000	18.486199
2313.000000	18.525084
2312.000000	18.443968
2311.000000	18.467661
2310.000000	18.214410
2309.000000	18.477219
2308.000000	18.416868
2307.000000	18.494023
2306.000000	18.361643
2305.000000	18.335183
2304.000000	18.138191
2303.000000	18.211236
2302.000000	18.262883
2301.000000	18.179569
2300.000000	18.111104
2299.000000	18.057933
2298.000000	18.158412
2297.000000	18.188085
2296.000000	18.117484
2295.000000	18.129603
2294.000000	18.145694
2293.000000	18.059782
2292.000000	17.887138
2291.000000	18.055463
2290.000000	18.151467
2289.000000	18.190228
2288.000000	18.060436
2287.000000	18.067365
2286.000000	18.020208
2285.000000	17.948873
2284.000000	17.858162
2283.000000	17.822782
2282.000000	17.957110
2281.000000	17.910478
2280.000000	17.901125
2279.000000	18.035829
2278.000000	17.931297
2277.000000	17.903081
2276.000000	18.045964
2275.000000	18.004434
2274.000000	18.160112
2273.000000	18.403050
2272.000000	18.318874
2271.000000	18.176461
2270.000000	18.252689
2269.000000	18.297149
2268.000000	18.243227
2267.000000	18.252258
2266.000000	18.388464
2265.000000	18.410014
2264.000000	18.435658
2263.000000	18.626332
2262.000000	18.657260
2261.000000	18.650062
2260.000000	18.654784
2259.000000	18.794234
2258.000000	18.917128
2257.000000	18.957315
2256.000000	18.975233
2255.000000	19.064077
2254.000000	19.086659
2253.000000	19.107952
2252.000000	19.299528
2251.000000	19.409948
2250.000000	19.476037
2249.000000	19.687602
2248.000000	19.750291
2247.000000	19.796103
2246.000000	19.869338
2245.000000	19.887986
2244.000000	19.828048
2243.000000	19.911677
2242.000000	20.003944
2241.000000	20.044800
2240.000000	20.134277
2239.000000	20.223165
2238.000000	20.203624
2237.000000	20.155348
2236.000000	20.136721
2235.000000	20.260801
2234.000000	20.373158
2233.000000	20.301412
2232.000000	20.294131
2231.000000	20.362606
2230.000000	20.457617
2229.000000	20.577303
2228.000000	20.504349
2227.000000	20.360340
2226.000000	20.310855
2225.000000	20.320269
2224.000000	20.363616
2223.000000	20.376332
2222.000000	20.406757
2221.000000	20.437844
2220.000000	20.414262
2219.000000	20.416233
2218.000000	20.349305
2217.000000	20.243754
2216.000000	20.291878
2215.000000	20.247187
2214.000000	20.277596
2213.000000	20.310213
2212.000000	20.136822
2211.000000	20.179779
2210.000000	20.248298
2209.000000	20.090496
2208.000000	19.941457
2207.000000	19.987003
2206.000000	20.023540
2205.000000	19.997937
2204.000000	19.972782
2203.000000	19.954062
2202.000000	19.856771
2201.000000	19.880756
2200.000000	19.893821
2199.000000	19.841388
2198.000000	19.797004
2197.000000	19.719461
2196.000000	19.646685
2195.000000	19.520340
2194.000000	19.526688
2193.000000	19.543354
2192.000000	19.408472
2191.000000	19.414793
2190.000000	19.431253
2189.000000	19.526596
2188.000000	19.314759
2187.000000	19.320285
2186.000000	19.411945
2185.000000	19.463611
2184.000000	19.376646
2183.000000	19.406916
2182.000000	19.386304
2181.000000	19.481103
2180.000000	19.340078
2179.000000	19.356867
2178.000000	19.281850
2177.000000	19.189015
2176.000000	19.212712
2175.000000	19.421697
2174.000000	19.471266
2173.000000	19.337648
2172.000000	19.381039
2171.000000	19.519303
2170.000000	19.439908
2169.000000	19.487749
2168.000000	19.657386
2167.000000	19.469224
2166.000000	19.496222
2165.000000	19.529762
2164.000000	19.534238
2163.000000	19.640240
2162.000000	19.795997
2161.000000	19.762780
2160.000000	19.892758
2159.000000	19.977541
2158.000000	19.788807
2157.000000	19.786412
2156.000000	20.024551
2155.000000	20.113717
2154.000000	20.241788
2153.000000	20.356832
2152.000000	20.391929
2151.000000	20.306029
2150.000000	20.466050
2149.000000	20.411962
2148.000000	20.337122
2147.000000	20.524751
2146.000000	20.448564
2145.000000	20.606523
2144.000000	20.709606
2143.000000	20.653310
2142.000000	20.639508
2141.000000	20.716738
2140.000000	20.785901
2139.000000	20.927757
2138.000000	20.935637
2137.000000	20.873341
2136.000000	21.029738
2135.000000	21.091449
2134.000000	21.039744
2133.000000	20.772568
2132.000000	20.945970
2131.000000	21.006111
2130.000000	20.938397
2129.000000	21.039786
2128.000000	21.120250
2127.000000	21.060101
2126.000000	21.061562
2125.000000	21.121134
2124.000000	21.229203
2123.000000	21.087010
2122.000000	21.043155
2121.000000	21.225684
2120.000000	21.105827
2119.000000	21.030948
2118.000000	21.037797
2117.000000	21.126775
2116.000000	21.065352
2115.000000	21.182733
2114.000000	21.023978
2113.000000	21.128751
2112.000000	21.115035
2111.000000	21.002529
2110.000000	20.940174
2109.000000	20.952709
2108.000000	21.026681
2107.000000	20.966282
2106.000000	20.978805
2105.000000	21.008791
2104.000000	20.933913
2103.000000	20.998173
2102.000000	21.022668
2101.000000	20.990558
2100.000000	21.057422
2099.000000	21.015270
2098.000000	20.977293
2097.000000	20.945473
2096.000000	20.966565
2095.000000	20.886737
2094.000000	20.872213
2093.000000	20.834607
2092.000000	21.004975
2091.000000	20.964793
2090.000000	20.872874
2089.000000	20.901629
2088.000000	20.878192
2087.000000	20.822194
2086.000000	20.778020
2085.000000	20.831866
2084.000000	20.767318
2083.000000	20.719695
2082.000000	20.669085
2081.000000	20.558687
2080.000000	20.593664
2079.000000	20.541526
2078.000000	20.407906
2077.000000	20.416649
2076.000000	20.368279
2075.000000	20.382861
2074.000000	20.365029
2073.000000	20.320423
2072.000000	20.248281
2071.000000	20.265112
2070.000000	20.151106
2069.000000	20.013329
2068.000000	19.936564
2067.000000	19.923059
2066.000000	19.838605
2065.000000	19.809569
2064.000000	19.759277
2063.000000	19.658268
2062.000000	19.687728
2061.000000	19.576131
2060.000000	19.449789
2059.000000	19.443300
2058.000000	19.456260
2057.000000	19.384625
2056.000000	19.307044
2055.000000	19.239683
2054.000000	19.191749
2053.000000	19.146519
2052.000000	19.062147
2051.000000	18.959186
2050.000000	18.951527
2049.000000	18.938673
2048.000000	18.882643
2047.000000	18.841246
2046.000000	18.816172
2045.000000	18.798022
2044.000000	18.786875
2043.000000	18.817297
2042.000000	18.812569
2041.000000	18.754791
2040.000000	18.744703
2039.000000	18.752490
2038.000000	18.735706
2037.000000	18.716422
2036.000000	18.735047
2035.000000	18.784080
2034.000000	18.823253
2033.000000	18.866789
2032.000000	18.914759
2031.000000	18.959342
2030.000000	18.975110
2029.000000	19.009830
2028.000000	19.030213
2027.000000	19.051718
2026.000000	19.095243
2025.000000	19.108138
2024.000000	19.076746
2023.000000	19.089156
2022.000000	19.084082
2021.000000	19.075757
2020.000000	19.069501
2019.000000	19.030147
2018.000000	19.006323
2017.000000	19.010605
2016.000000	19.031887
2015.000000	18.985662
2014.000000	18.973255
2013.000000	18.971418
2012.000000	18.924167
2011.000000	18.872000
2010.000000	18.880294
2009.000000	18.851037
2008.000000	18.768564
2007.000000	18.680856
2006.000000	18.604319
2005.000000	18.587759
2004.000000	18.565568
2003.000000	18.524988
2002.000000	18.452640
2001.000000	18.398702
2000.000000	18.322755
1999.000000	18.274006
1998.000000	18.254201
1997.000000	18.226929
1996.000000	18.160720
1995.000000	18.086985
1994.000000	18.020028
1993.000000	17.999538
1992.000000	17.909597
1991.000000	17.846461
1990.000000	17.807975
1989.000000	17.753331
1988.000000	17.713250
1987.000000	17.625938
1986.000000	17.583144
1985.000000	17.538052
1984.000000	17.474848
1983.000000	17.401185
1982.000000	17.350959
1981.000000	17.323301
1980.000000	17.267479
1979.000000	17.209389
1978.000000	17.126485
1977.000000	17.054584
1976.000000	16.993621
1975.000000	16.994537
1974.000000	16.930958
1973.000000	16.884374
1972.000000	16.819577
1971.000000	16.771508
1970.000000	16.739608
1969.000000	16.702589
1968.000000	16.638548
1967.000000	16.591554
1966.000000	16.539957
1965.000000	16.484397
1964.000000	16.433937
1963.000000	16.408729
1962.000000	16.339101
1961.000000	16.276314
1960.000000	16.250685
1959.000000	16.237552
1958.000000	16.155112
1957.000000	16.168484
1956.000000	16.107385
1955.000000	16.081748
1954.000000	16.064110
1953.000000	16.051495
1952.000000	16.032342
1951.000000	15.996450
1950.000000	15.945013
1949.000000	15.954679
1948.000000	15.967267
1947.000000	15.895049
1946.000000	15.871160
1945.000000	15.870745
1944.000000	15.915673
1943.000000	15.949387
1942.000000	15.986968
1941.000000	15.973079
1940.000000	15.995132
1939.000000	16.044207
1938.000000	16.024116
1937.000000	16.104442
1936.000000	16.146203
1935.000000	16.144672
1934.000000	16.296967
1933.000000	16.296430
1932.000000	16.301646
1931.000000	16.375505
1930.000000	16.469100
1929.000000	16.554859
1928.000000	16.683230
1927.000000	16.815369
1926.000000	16.843548
1925.000000	16.905457
1924.000000	17.006802
1923.000000	17.092499
1922.000000	17.194723
1921.000000	17.336701
1920.000000	17.452217
1919.000000	17.592713
1918.000000	17.754506
1917.000000	17.871167
1916.000000	17.903071
1915.000000	18.065811
1914.000000	18.243886
1913.000000	18.390345
1912.000000	18.484446
1911.000000	18.682566
1910.000000	18.848968
1909.000000	18.980269
1908.000000	19.138065
1907.000000	19.281950
1906.000000	19.456915
1905.000000	19.689606
1904.000000	19.843138
1903.000000	19.979640
1902.000000	20.211268
1901.000000	20.354663
1900.000000	20.522653
1899.000000	20.712572
1898.000000	20.862999
1897.000000	21.012972
1896.000000	21.230742
1895.000000	21.389282
1894.000000	21.526214
1893.000000	21.681621
1892.000000	21.821309
1891.000000	21.985254
1890.000000	22.079800
1889.000000	22.225271
1888.000000	22.348158
1887.000000	22.515052
1886.000000	22.617809
1885.000000	22.732232
1884.000000	22.882509
1883.000000	22.985313
1882.000000	23.123509
1881.000000	23.268535
1880.000000	23.319753
1879.000000	23.412123
1878.000000	23.525947
1877.000000	23.619898
1876.000000	23.688795
1875.000000	23.799382
1874.000000	23.894472
1873.000000	23.947946
1872.000000	24.002815
1871.000000	24.066186
1870.000000	24.104006
1869.000000	24.143009
1868.000000	24.157882
1867.000000	24.199060
1866.000000	24.229750
1865.000000	24.240173
1864.000000	24.229209
1863.000000	24.215489
1862.000000	24.233679
1861.000000	24.250688
1860.000000	24.262122
1859.000000	24.255973
1858.000000	24.225015
1857.000000	24.226839
1856.000000	24.240685
1855.000000	24.213540
1854.000000	24.291762
1853.000000	24.273052
1852.000000	24.261429
1851.000000	24.268051
1850.000000	24.282781
1849.000000	24.297284
1848.000000	24.294431
1847.000000	24.287545
1846.000000	24.272080
1845.000000	24.291751
1844.000000	24.280084
1843.000000	24.252560
1842.000000	24.239282
1841.000000	24.215777
1840.000000	24.217189
1839.000000	24.211031
1838.000000	24.203696
1837.000000	24.166853
1836.000000	24.148346
1835.000000	24.098720
1834.000000	24.055129
1833.000000	24.055123
1832.000000	24.028846
1831.000000	23.993371
1830.000000	23.990341
1829.000000	23.977170
1828.000000	23.937477
1827.000000	23.917648
1826.000000	23.915248
1825.000000	23.887754
1824.000000	23.879109
1823.000000	23.860485
1822.000000	23.827634
1821.000000	23.808825
1820.000000	23.774651
1819.000000	23.742469
1818.000000	23.745475
1817.000000	23.743754
1816.000000	23.719030
1815.000000	23.692164
1814.000000	23.682707
1813.000000	23.660484
1812.000000	23.636321
1811.000000	23.631431
1810.000000	23.626808
1809.000000	23.615089
1808.000000	23.599309
1807.000000	23.561885
1806.000000	23.539322
1805.000000	23.548405
1804.000000	23.553760
1803.000000	23.544680
1802.000000	23.526561
1801.000000	23.502607
1800.000000	23.474679
1799.000000	23.484580
1798.000000	23.488822
1797.000000	23.460024
1796.000000	23.453731
1795.000000	23.452754
1794.000000	23.454228
1793.000000	23.456764
1792.000000	23.457878
1791.000000	23.439904
1790.000000	23.408266
1789.000000	23.409430
1788.000000	23.416629
1787.000000	23.408055
1786.000000	23.397260
1785.000000	23.392936
1784.000000	23.395784
1783.000000	23.388243
1782.000000	23.392650
1781.000000	23.395498
1780.000000	23.372180
1779.000000	23.376800
1778.000000	23.384826
1777.000000	23.369006
1776.000000	23.337887
1775.000000	23.336038
1774.000000	23.297107
1773.000000	23.275043
1772.000000	23.265292
1771.000000	23.252444
1770.000000	23.230901
1769.000000	23.208483
1768.000000	23.203218
1767.000000	23.194333
1766.000000	23.161578
1765.000000	23.144381
1764.000000	23.127701
1763.000000	23.117841
1762.000000	23.082705
1761.000000	23.074044
1760.000000	23.056222
1759.000000	23.037825
1758.000000	23.025755
1757.000000	23.010779
1756.000000	22.991476
1755.000000	22.980300
1754.000000	22.961097
1753.000000	22.954181
1752.000000	22.949282
1751.000000	22.924967
1750.000000	22.908313
1749.000000	22.894467
1748.000000	22.888015
1747.000000	22.830533
1746.000000	22.823491
1745.000000	22.786361
1744.000000	22.764755
1743.000000	22.776001
1742.000000	22.747060
1741.000000	22.722094
1740.000000	22.691369
1739.000000	22.677206
1738.000000	22.684435
1737.000000	22.663003
1736.000000	22.639550
1735.000000	22.643036
1734.000000	22.652299
1733.000000	22.614765
1732.000000	22.627650
1731.000000	22.638570
1730.000000	22.601368
1729.000000	22.637222
1728.000000	22.626699
1727.000000	22.653874
1726.000000	22.629465
1725.000000	22.679241
1724.000000	22.708008
1723.000000	22.720370
1722.000000	22.727411
1721.000000	22.727724
1720.000000	22.773476
1719.000000	22.820003
1718.000000	22.829548
1717.000000	22.853209
1716.000000	22.866099
1715.000000	22.881269
1714.000000	22.896013
1713.000000	22.909740
1712.000000	22.909510
1711.000000	22.968946
1710.000000	22.992993
1709.000000	22.994199
1708.000000	22.985436
1707.000000	23.010918
1706.000000	23.026563
1705.000000	23.023218
1704.000000	23.056365
1703.000000	23.019688
1702.000000	23.039046
1701.000000	23.032366
1700.000000	23.046833
1699.000000	23.030442
1698.000000	23.078560
1697.000000	23.055564
1696.000000	23.076058
1695.000000	23.066187
1694.000000	23.090269
1693.000000	23.110091
1692.000000	23.101642
1691.000000	23.110350
1690.000000	23.127522
1689.000000	23.151447
1688.000000	23.172391
1687.000000	23.211758
1686.000000	23.222121
1685.000000	23.265490
1684.000000	23.294355
1683.000000	23.326066
1682.000000	23.385771
1681.000000	23.415741
1680.000000	23.448840
1679.000000	23.463778
1678.000000	23.507281
1677.000000	23.548151
1676.000000	23.589847
1675.000000	23.623045
1674.000000	23.670887
1673.000000	23.684675
1672.000000	23.710501
1671.000000	23.744373
1670.000000	23.767547
1669.000000	23.742468
1668.000000	23.761765
1667.000000	23.806513
1666.000000	23.792717
1665.000000	23.802127
1664.000000	23.814589
1663.000000	23.839652
1662.000000	23.849218
1661.000000	23.857216
1660.000000	23.866075
1659.000000	23.891906
1658.000000	23.900294
1657.000000	23.913603
1656.000000	23.901932
1655.000000	23.912585
1654.000000	23.921803
1653.000000	23.913235
1652.000000	23.917580
1651.000000	23.897972
1650.000000	23.904296
1649.000000	23.915634
1648.000000	23.876008
1647.000000	23.870099
1646.000000	23.870609
1645.000000	23.872219
1644.000000	23.869346
1643.000000	23.861001
1642.000000	23.853528
1641.000000	23.826209
1640.000000	23.814154
1639.000000	23.813180
1638.000000	23.801419
1637.000000	23.796320
1636.000000	23.767179
1635.000000	23.748381
1634.000000	23.737933
1633.000000	23.724878
1632.000000	23.718303
1631.000000	23.703328
1630.000000	23.694753
1629.000000	23.659798
1628.000000	23.643341
1627.000000	23.636316
1626.000000	23.615054
1625.000000	23.603107
1624.000000	23.597991
1623.000000	23.579510
1622.000000	23.569534
1621.000000	23.551455
1620.000000	23.528512
1619.000000	23.517757
1618.000000	23.491977
1617.000000	23.468195
1616.000000	23.449933
1615.000000	23.435460
1614.000000	23.414909
1613.000000	23.409465
1612.000000	23.401179
1611.000000	23.378290
1610.000000	23.367015
1609.000000	23.352571
1608.000000	23.334370
1607.000000	23.310078
1606.000000	23.290281
1605.000000	23.278768
1604.000000	23.259218
1603.000000	23.233173
1602.000000	23.217285
1601.000000	23.201269
1600.000000	23.177303
1599.000000	23.155874
1598.000000	23.149091
1597.000000	23.139266
1596.000000	23.115641
1595.000000	23.102302
1594.000000	23.085206
1593.000000	23.077204
1592.000000	23.072054
1591.000000	23.046834
1590.000000	23.025929
1589.000000	23.004783
1588.000000	22.981246
1587.000000	22.974929
1586.000000	22.972271
1585.000000	22.961441
1584.000000	22.943011
1583.000000	22.931944
1582.000000	22.913027
1581.000000	22.888040
1580.000000	22.878513
1579.000000	22.872272
1578.000000	22.867419
1577.000000	22.843904
1576.000000	22.826050
1575.000000	22.815591
1574.000000	22.789870
1573.000000	22.765835
1572.000000	22.762998
1571.000000	22.755297
1570.000000	22.733722
1569.000000	22.720584
1568.000000	22.714526
1567.000000	22.692487
1566.000000	22.680353
1565.000000	22.679331
1564.000000	22.664706
1563.000000	22.657962
1562.000000	22.645178
1561.000000	22.624465
1560.000000	22.611802
1559.000000	22.600551
1558.000000	22.583925
1557.000000	22.559900
1556.000000	22.543084
1555.000000	22.534447
1554.000000	22.525914
1553.000000	22.524499
1552.000000	22.513672
1551.000000	22.488565
1550.000000	22.464528
1549.000000	22.445166
1548.000000	22.427175
1547.000000	22.412529
1546.000000	22.388368
1545.000000	22.348605
1544.000000	22.326273
1543.000000	22.304905
1542.000000	22.282822
1541.000000	22.252381
1540.000000	22.244126
1539.000000	22.212784
1538.000000	22.179593
1537.000000	22.160349
1536.000000	22.134302
1535.000000	22.098576
1534.000000	22.061415
1533.000000	22.044001
1532.000000	22.025580
1531.000000	22.011317
1530.000000	22.002094
1529.000000	22.010263
1528.000000	22.009901
1527.000000	22.000591
1526.000000	21.964811
1525.000000	21.904528
1524.000000	21.870909
1523.000000	21.850743
1522.000000	21.825636
1521.000000	21.810210
1520.000000	21.789048
1519.000000	21.779357
1518.000000	21.746972
1517.000000	21.715407
1516.000000	21.688718
1515.000000	21.670556
1514.000000	21.670456
1513.000000	21.654669
1512.000000	21.642207
1511.000000	21.635444
1510.000000	21.616547
1509.000000	21.597124
1508.000000	21.567216
1507.000000	21.553806
1506.000000	21.532297
1505.000000	21.513321
1504.000000	21.499593
1503.000000	21.505369
1502.000000	21.497974
1501.000000	21.483247
1500.000000	21.486715
1499.000000	21.463637
1498.000000	21.471315
1497.000000	21.453719
1496.000000	21.436688
1495.000000	21.423443
1494.000000	21.422467
1493.000000	21.437057
1492.000000	21.434583
1491.000000	21.431241
1490.000000	21.432166
1489.000000	21.431175
1488.000000	21.432940
1487.000000	21.425309
1486.000000	21.436666
1485.000000	21.442786
1484.000000	21.458746
1483.000000	21.457608
1482.000000	21.463837
1481.000000	21.455021
1480.000000	21.463550
1479.000000	21.456909
1478.000000	21.459376
1477.000000	21.456365
1476.000000	21.452307
1475.000000	21.457771
1474.000000	21.464203
1473.000000	21.449064
1472.000000	21.458320
1471.000000	21.456783
1470.000000	21.454914
