PE UV       SUBTECH     SPECTRUM    ASCII       PEDS        4.00        
   -1
TTmsmeh71.Sample.asc
18/03/14
09:22:20.00
18/03/14
09:22:20.00
Administrator

200.000000
1
Lambda 750
750N8071901
PerkinElmer UV WinLab 6.0.4.0738 / 1.61.00 Lambda 900

0
0
3350/servo 860.8/2
0
0
UV/VIS
1
1
1
CommonBeamDepol,150mm sphere / downward view
0
0
0
0
Program
Program
3350/servo 860.8/2
3350/0.2 860.8/0.2
3350/0.2 860.8/0.2
0
1
 
 
 
0
 
860.8
319.2
860.8
Front
100
on
 
 
0
0
0
 
0
 
 
 
0
 
 
0
0
0
0
0
 
 
 
 
0
0


0
0
#HDR
-1
-1
#GR
nm
%T
1.0
0.0
2350.000000
-1.000000
2151
8
11.531057
-0.047648
#DATA
2350.000000	5.597304
2349.000000	5.384772
2348.000000	5.568570
2347.000000	6.189922
2346.000000	6.174852
2345.000000	5.716706
2344.000000	5.814166
2343.000000	5.902925
2342.000000	6.017007
2341.000000	5.872987
2340.000000	5.937821
2339.000000	6.407193
2338.000000	6.583380
2337.000000	6.249704
2336.000000	6.456964
2335.000000	6.526805
2334.000000	6.997365
2333.000000	6.547818
2332.000000	6.807589
2331.000000	6.649444
2330.000000	6.500822
2329.000000	6.340832
2328.000000	6.546117
2327.000000	6.448911
2326.000000	6.493058
2325.000000	6.609529
2324.000000	6.620155
2323.000000	6.348988
2322.000000	6.179122
2321.000000	6.206273
2320.000000	6.570714
2319.000000	6.329417
2318.000000	6.145987
2317.000000	6.032846
2316.000000	6.217814
2315.000000	6.321397
2314.000000	6.011501
2313.000000	5.887471
2312.000000	5.824470
2311.000000	5.895663
2310.000000	5.876993
2309.000000	6.045149
2308.000000	6.106780
2307.000000	6.019341
2306.000000	6.045272
2305.000000	5.913816
2304.000000	6.205593
2303.000000	6.166711
2302.000000	6.149507
2301.000000	6.105698
2300.000000	6.012905
2299.000000	5.859328
2298.000000	5.845705
2297.000000	5.865936
2296.000000	5.972512
2295.000000	5.909746
2294.000000	5.853809
2293.000000	5.783979
2292.000000	5.803504
2291.000000	5.842442
2290.000000	5.676135
2289.000000	5.790339
2288.000000	6.077882
2287.000000	6.035474
2286.000000	5.870968
2285.000000	5.633766
2284.000000	5.796077
2283.000000	5.845502
2282.000000	5.897749
2281.000000	5.771446
2280.000000	5.686744
2279.000000	5.702136
2278.000000	5.631941
2277.000000	5.700264
2276.000000	5.888357
2275.000000	5.965889
2274.000000	5.929401
2273.000000	5.816832
2272.000000	5.934179
2271.000000	5.918031
2270.000000	5.915056
2269.000000	5.985774
2268.000000	6.008076
2267.000000	6.018429
2266.000000	6.087112
2265.000000	6.069643
2264.000000	6.076597
2263.000000	6.077897
2262.000000	6.092668
2261.000000	6.177064
2260.000000	6.227397
2259.000000	6.363392
2258.000000	6.426876
2257.000000	6.457492
2256.000000	6.553914
2255.000000	6.590204
2254.000000	6.528274
2253.000000	6.495874
2252.000000	6.485745
2251.000000	6.547377
2250.000000	6.606215
2249.000000	6.738610
2248.000000	6.855605
2247.000000	6.979398
2246.000000	7.062596
2245.000000	7.137179
2244.000000	7.190179
2243.000000	7.217851
2242.000000	7.125378
2241.000000	7.013266
2240.000000	7.072271
2239.000000	7.097567
2238.000000	7.074790
2237.000000	7.218919
2236.000000	7.335557
2235.000000	7.407696
2234.000000	7.349202
2233.000000	7.333081
2232.000000	7.464103
2231.000000	7.477867
2230.000000	7.364127
2229.000000	7.416198
2228.000000	7.462726
2227.000000	7.464525
2226.000000	7.422577
2225.000000	7.336465
2224.000000	7.375347
2223.000000	7.363849
2222.000000	7.399513
2221.000000	7.258125
2220.000000	7.352072
2219.000000	7.452859
2218.000000	7.409195
2217.000000	7.500374
2216.000000	7.490453
2215.000000	7.301130
2214.000000	7.381537
2213.000000	7.503012
2212.000000	7.257887
2211.000000	7.288107
2210.000000	7.317870
2209.000000	7.175329
2208.000000	7.117907
2207.000000	7.215971
2206.000000	7.221477
2205.000000	7.291842
2204.000000	7.216359
2203.000000	7.126494
2202.000000	7.084084
2201.000000	7.049663
2200.000000	7.098925
2199.000000	7.003693
2198.000000	6.997694
2197.000000	7.048230
2196.000000	6.968477
2195.000000	6.914455
2194.000000	7.021876
2193.000000	7.011196
2192.000000	6.940312
2191.000000	6.830981
2190.000000	6.855697
2189.000000	6.920496
2188.000000	6.858171
2187.000000	6.745296
2186.000000	6.799635
2185.000000	6.878319
2184.000000	6.874842
2183.000000	6.928668
2182.000000	6.915540
2181.000000	6.713416
2180.000000	6.719800
2179.000000	6.821505
2178.000000	6.675844
2177.000000	6.736377
2176.000000	6.731660
2175.000000	6.846131
2174.000000	6.790284
2173.000000	6.661223
2172.000000	6.866665
2171.000000	6.853158
2170.000000	6.874040
2169.000000	6.900267
2168.000000	6.843917
2167.000000	6.929084
2166.000000	6.883635
2165.000000	6.780973
2164.000000	6.870161
2163.000000	7.017858
2162.000000	6.922475
2161.000000	6.913924
2160.000000	6.960071
2159.000000	7.104269
2158.000000	7.210042
2157.000000	7.107471
2156.000000	7.146997
2155.000000	7.072236
2154.000000	7.198681
2153.000000	7.439733
2152.000000	7.463351
2151.000000	7.369057
2150.000000	7.362487
2149.000000	7.453194
2148.000000	7.524801
2147.000000	7.366535
2146.000000	7.554965
2145.000000	7.697570
2144.000000	7.492343
2143.000000	7.423811
2142.000000	7.573915
2141.000000	7.596970
2140.000000	7.743769
2139.000000	7.532846
2138.000000	7.660022
2137.000000	7.682650
2136.000000	7.700302
2135.000000	7.804766
2134.000000	7.778567
2133.000000	7.492067
2132.000000	7.797620
2131.000000	7.870944
2130.000000	8.076478
2129.000000	7.963422
2128.000000	7.871734
2127.000000	7.916864
2126.000000	7.800795
2125.000000	7.867042
2124.000000	7.893989
2123.000000	7.833074
2122.000000	7.992838
2121.000000	7.887133
2120.000000	7.762149
2119.000000	7.906928
2118.000000	7.925664
2117.000000	8.000673
2116.000000	7.934530
2115.000000	8.033833
2114.000000	7.845105
2113.000000	7.819717
2112.000000	7.906031
2111.000000	7.949302
2110.000000	7.880391
2109.000000	7.823616
2108.000000	7.972376
2107.000000	7.920492
2106.000000	7.949297
2105.000000	8.071217
2104.000000	7.960139
2103.000000	7.961197
2102.000000	7.824812
2101.000000	7.759504
2100.000000	7.975409
2099.000000	7.975216
2098.000000	7.982162
2097.000000	7.942575
2096.000000	7.882579
2095.000000	7.923126
2094.000000	7.807781
2093.000000	7.816610
2092.000000	7.892901
2091.000000	7.917565
2090.000000	7.910594
2089.000000	7.827066
2088.000000	7.949594
2087.000000	7.879950
2086.000000	7.844376
2085.000000	7.809339
2084.000000	7.783456
2083.000000	7.807623
2082.000000	7.829589
2081.000000	7.777648
2080.000000	7.799432
2079.000000	7.759283
2078.000000	7.675506
2077.000000	7.639515
2076.000000	7.505054
2075.000000	7.541318
2074.000000	7.572461
2073.000000	7.499654
2072.000000	7.469326
2071.000000	7.517857
2070.000000	7.516129
2069.000000	7.391816
2068.000000	7.408870
2067.000000	7.379581
2066.000000	7.285986
2065.000000	7.160448
2064.000000	7.143420
2063.000000	7.075761
2062.000000	7.070130
2061.000000	7.091863
2060.000000	7.030472
2059.000000	7.003135
2058.000000	6.979885
2057.000000	6.960448
2056.000000	6.979154
2055.000000	6.964148
2054.000000	6.839352
2053.000000	6.778662
2052.000000	6.764751
2051.000000	6.705178
2050.000000	6.694106
2049.000000	6.677994
2048.000000	6.594967
2047.000000	6.585900
2046.000000	6.585549
2045.000000	6.568125
2044.000000	6.563603
2043.000000	6.553157
2042.000000	6.546873
2041.000000	6.556830
2040.000000	6.517065
2039.000000	6.540235
2038.000000	6.594962
2037.000000	6.605332
2036.000000	6.609318
2035.000000	6.586343
2034.000000	6.579175
2033.000000	6.646135
2032.000000	6.664428
2031.000000	6.670814
2030.000000	6.710252
2029.000000	6.734593
2028.000000	6.752464
2027.000000	6.784350
2026.000000	6.817237
2025.000000	6.825657
2024.000000	6.812878
2023.000000	6.811793
2022.000000	6.842451
2021.000000	6.840312
2020.000000	6.812814
2019.000000	6.824063
2018.000000	6.812646
2017.000000	6.774032
2016.000000	6.796820
2015.000000	6.806584
2014.000000	6.791222
2013.000000	6.782117
2012.000000	6.765515
2011.000000	6.798724
2010.000000	6.779367
2009.000000	6.721373
2008.000000	6.714676
2007.000000	6.689795
2006.000000	6.653682
2005.000000	6.591608
2004.000000	6.565264
2003.000000	6.561900
2002.000000	6.508625
2001.000000	6.502429
2000.000000	6.494510
1999.000000	6.462753
1998.000000	6.432967
1997.000000	6.372276
1996.000000	6.345114
1995.000000	6.310396
1994.000000	6.254118
1993.000000	6.242564
1992.000000	6.209434
1991.000000	6.190470
1990.000000	6.162891
1989.000000	6.144424
1988.000000	6.078459
1987.000000	6.067633
1986.000000	6.030482
1985.000000	6.002725
1984.000000	5.981038
1983.000000	5.944021
1982.000000	5.928981
1981.000000	5.915848
1980.000000	5.870702
1979.000000	5.816791
1978.000000	5.789674
1977.000000	5.748196
1976.000000	5.769927
1975.000000	5.742254
1974.000000	5.716123
1973.000000	5.685108
1972.000000	5.667554
1971.000000	5.655879
1970.000000	5.630693
1969.000000	5.587357
1968.000000	5.587110
1967.000000	5.548768
1966.000000	5.551641
1965.000000	5.494562
1964.000000	5.439517
1963.000000	5.435608
1962.000000	5.412609
1961.000000	5.382533
1960.000000	5.377160
1959.000000	5.338796
1958.000000	5.327325
1957.000000	5.354216
1956.000000	5.313914
1955.000000	5.337214
1954.000000	5.303480
1953.000000	5.304060
1952.000000	5.314532
1951.000000	5.316246
1950.000000	5.265583
1949.000000	5.262550
1948.000000	5.252185
1947.000000	5.251412
1946.000000	5.294942
1945.000000	5.286165
1944.000000	5.267523
1943.000000	5.301065
1942.000000	5.239770
1941.000000	5.296987
1940.000000	5.307208
1939.000000	5.386808
1938.000000	5.415073
1937.000000	5.400571
1936.000000	5.406119
1935.000000	5.508869
1934.000000	5.483966
1933.000000	5.462951
1932.000000	5.449161
1931.000000	5.540853
1930.000000	5.572732
1929.000000	5.593892
1928.000000	5.682630
1927.000000	5.629699
1926.000000	5.763698
1925.000000	5.820195
1924.000000	5.901972
1923.000000	5.952416
1922.000000	5.976586
1921.000000	6.086387
1920.000000	6.184417
1919.000000	6.181770
1918.000000	6.303656
1917.000000	6.303211
1916.000000	6.292120
1915.000000	6.562834
1914.000000	6.654784
1913.000000	6.752455
1912.000000	6.824270
1911.000000	6.844671
1910.000000	7.031413
1909.000000	7.049996
1908.000000	7.146036
1907.000000	7.256886
1906.000000	7.384912
1905.000000	7.520491
1904.000000	7.667042
1903.000000	7.756901
1902.000000	7.839161
1901.000000	7.969290
1900.000000	8.099701
1899.000000	8.188562
1898.000000	8.311645
1897.000000	8.426634
1896.000000	8.613409
1895.000000	8.772816
1894.000000	8.827674
1893.000000	8.930287
1892.000000	8.991033
1891.000000	9.148859
1890.000000	9.257654
1889.000000	9.373703
1888.000000	9.521810
1887.000000	9.594639
1886.000000	9.696641
1885.000000	9.810096
1884.000000	9.919431
1883.000000	10.025374
1882.000000	10.117888
1881.000000	10.236545
1880.000000	10.343621
1879.000000	10.395610
1878.000000	10.464013
1877.000000	10.560973
1876.000000	10.616994
1875.000000	10.670406
1874.000000	10.741578
1873.000000	10.825525
1872.000000	10.894692
1871.000000	10.861118
1870.000000	10.876995
1869.000000	10.966015
1868.000000	10.967026
1867.000000	10.968443
1866.000000	10.975251
1865.000000	10.985867
1864.000000	11.006250
1863.000000	10.972700
1862.000000	10.967334
1861.000000	10.954056
1860.000000	11.002107
1859.000000	10.973499
1858.000000	10.999308
1857.000000	11.029932
1856.000000	11.058534
1855.000000	11.058426
1854.000000	11.071258
1853.000000	11.092267
1852.000000	11.118129
1851.000000	11.131683
1850.000000	11.106003
1849.000000	11.110730
1848.000000	11.121595
1847.000000	11.121959
1846.000000	11.130864
1845.000000	11.119295
1844.000000	11.100714
1843.000000	11.117096
1842.000000	11.105215
1841.000000	11.081361
1840.000000	11.085550
1839.000000	11.080846
1838.000000	11.082953
1837.000000	11.025456
1836.000000	11.008759
1835.000000	10.990190
1834.000000	10.930086
1833.000000	10.886417
1832.000000	10.879196
1831.000000	10.875522
1830.000000	10.878792
1829.000000	10.872767
1828.000000	10.849664
1827.000000	10.811935
1826.000000	10.814217
1825.000000	10.801667
1824.000000	10.752457
1823.000000	10.744842
1822.000000	10.747727
1821.000000	10.741486
1820.000000	10.733335
1819.000000	10.699004
1818.000000	10.685874
1817.000000	10.693139
1816.000000	10.698534
1815.000000	10.684163
1814.000000	10.649912
1813.000000	10.648241
1812.000000	10.643700
1811.000000	10.631251
1810.000000	10.629687
1809.000000	10.630134
1808.000000	10.624686
1807.000000	10.603142
1806.000000	10.594104
1805.000000	10.596453
1804.000000	10.597494
1803.000000	10.586610
1802.000000	10.581994
1801.000000	10.585434
1800.000000	10.570890
1799.000000	10.571707
1798.000000	10.574497
1797.000000	10.565168
1796.000000	10.569660
1795.000000	10.587023
1794.000000	10.585349
1793.000000	10.578801
1792.000000	10.564843
1791.000000	10.566508
1790.000000	10.575015
1789.000000	10.584566
1788.000000	10.603179
1787.000000	10.627748
1786.000000	10.633265
1785.000000	10.627003
1784.000000	10.627671
1783.000000	10.629268
1782.000000	10.628477
1781.000000	10.626120
1780.000000	10.608163
1779.000000	10.616662
1778.000000	10.609867
1777.000000	10.577923
1776.000000	10.575200
1775.000000	10.547826
1774.000000	10.539254
1773.000000	10.530843
1772.000000	10.503749
1771.000000	10.487062
1770.000000	10.462963
1769.000000	10.454472
1768.000000	10.446555
1767.000000	10.432699
1766.000000	10.408876
1765.000000	10.375987
1764.000000	10.377219
1763.000000	10.377081
1762.000000	10.358385
1761.000000	10.328263
1760.000000	10.310584
1759.000000	10.310659
1758.000000	10.305888
1757.000000	10.284753
1756.000000	10.289715
1755.000000	10.254233
1754.000000	10.249336
1753.000000	10.239591
1752.000000	10.212041
1751.000000	10.201021
1750.000000	10.194712
1749.000000	10.193574
1748.000000	10.161543
1747.000000	10.135962
1746.000000	10.148101
1745.000000	10.119610
1744.000000	10.080371
1743.000000	10.092255
1742.000000	10.085209
1741.000000	10.048496
1740.000000	10.035875
1739.000000	10.024743
1738.000000	10.002596
1737.000000	9.977895
1736.000000	10.004239
1735.000000	9.982155
1734.000000	9.980797
1733.000000	9.948975
1732.000000	9.971905
1731.000000	9.951787
1730.000000	9.966835
1729.000000	9.968676
1728.000000	9.960878
1727.000000	9.955375
1726.000000	9.986543
1725.000000	9.992839
1724.000000	10.003650
1723.000000	10.030735
1722.000000	10.032342
1721.000000	10.070922
1720.000000	10.075670
1719.000000	10.123711
1718.000000	10.117490
1717.000000	10.128207
1716.000000	10.142682
1715.000000	10.163460
1714.000000	10.192139
1713.000000	10.186005
1712.000000	10.175539
1711.000000	10.222817
1710.000000	10.255349
1709.000000	10.256158
1708.000000	10.246809
1707.000000	10.274464
1706.000000	10.281528
1705.000000	10.268248
1704.000000	10.309954
1703.000000	10.304284
1702.000000	10.292935
1701.000000	10.329154
1700.000000	10.301777
1699.000000	10.285794
1698.000000	10.313496
1697.000000	10.343866
1696.000000	10.363058
1695.000000	10.374148
1694.000000	10.365418
1693.000000	10.353512
1692.000000	10.397670
1691.000000	10.403252
1690.000000	10.417877
1689.000000	10.435486
1688.000000	10.464336
1687.000000	10.477621
1686.000000	10.512553
1685.000000	10.513182
1684.000000	10.573288
1683.000000	10.605881
1682.000000	10.629794
1681.000000	10.662191
1680.000000	10.690060
1679.000000	10.725569
1678.000000	10.767652
1677.000000	10.787509
1676.000000	10.827752
1675.000000	10.865587
1674.000000	10.896123
1673.000000	10.918295
1672.000000	10.943113
1671.000000	10.975987
1670.000000	11.018018
1669.000000	11.007819
1668.000000	11.025042
1667.000000	11.070442
1666.000000	11.080171
1665.000000	11.090374
1664.000000	11.083183
1663.000000	11.087982
1662.000000	11.116863
1661.000000	11.111618
1660.000000	11.136914
1659.000000	11.160113
1658.000000	11.171065
1657.000000	11.194677
1656.000000	11.189018
1655.000000	11.197833
1654.000000	11.213532
1653.000000	11.211760
1652.000000	11.220107
1651.000000	11.201199
1650.000000	11.201805
1649.000000	11.200508
1648.000000	11.178429
1647.000000	11.174117
1646.000000	11.169797
1645.000000	11.159721
1644.000000	11.155350
1643.000000	11.158602
1642.000000	11.149025
1641.000000	11.138665
1640.000000	11.127217
1639.000000	11.127669
1638.000000	11.118203
1637.000000	11.105246
1636.000000	11.091087
1635.000000	11.083652
1634.000000	11.059659
1633.000000	11.049996
1632.000000	11.045168
1631.000000	11.033660
1630.000000	11.022967
1629.000000	11.007260
1628.000000	10.993588
1627.000000	10.988701
1626.000000	10.970764
1625.000000	10.959066
1624.000000	10.941407
1623.000000	10.935809
1622.000000	10.940245
1621.000000	10.924897
1620.000000	10.898579
1619.000000	10.874546
1618.000000	10.868887
1617.000000	10.865712
1616.000000	10.837984
1615.000000	10.819171
1614.000000	10.810863
1613.000000	10.807977
1612.000000	10.800365
1611.000000	10.792825
1610.000000	10.781207
1609.000000	10.760701
1608.000000	10.759346
1607.000000	10.751843
1606.000000	10.738585
1605.000000	10.728829
1604.000000	10.708490
1603.000000	10.687423
1602.000000	10.679676
1601.000000	10.664582
1600.000000	10.659689
1599.000000	10.655646
1598.000000	10.639000
1597.000000	10.629176
1596.000000	10.613349
1595.000000	10.606404
1594.000000	10.601868
1593.000000	10.584800
1592.000000	10.576953
1591.000000	10.576877
1590.000000	10.571698
1589.000000	10.555356
1588.000000	10.542960
1587.000000	10.536599
1586.000000	10.528928
1585.000000	10.518878
1584.000000	10.509392
1583.000000	10.502586
1582.000000	10.491098
1581.000000	10.481617
1580.000000	10.473386
1579.000000	10.469703
1578.000000	10.463045
1577.000000	10.443955
1576.000000	10.425363
1575.000000	10.409201
1574.000000	10.402510
1573.000000	10.383249
1572.000000	10.363269
1571.000000	10.357504
1570.000000	10.353893
1569.000000	10.347325
1568.000000	10.336422
1567.000000	10.329211
1566.000000	10.324394
1565.000000	10.310462
1564.000000	10.293016
1563.000000	10.284277
1562.000000	10.278219
1561.000000	10.260079
1560.000000	10.239496
1559.000000	10.229049
1558.000000	10.220204
1557.000000	10.211249
1556.000000	10.197266
1555.000000	10.185441
1554.000000	10.175610
1553.000000	10.152008
1552.000000	10.146401
1551.000000	10.134137
1550.000000	10.119309
1549.000000	10.105138
1548.000000	10.083648
1547.000000	10.071224
1546.000000	10.050397
1545.000000	10.023794
1544.000000	10.006814
1543.000000	9.983791
1542.000000	9.967957
1541.000000	9.942941
1540.000000	9.918374
1539.000000	9.888390
1538.000000	9.859352
1537.000000	9.845546
1536.000000	9.815952
1535.000000	9.799294
1534.000000	9.776401
1533.000000	9.765759
1532.000000	9.747296
1531.000000	9.748446
1530.000000	9.755485
1529.000000	9.765171
1528.000000	9.761635
1527.000000	9.717033
1526.000000	9.682970
1525.000000	9.648406
1524.000000	9.622264
1523.000000	9.634238
1522.000000	9.639134
1521.000000	9.603997
1520.000000	9.562238
1519.000000	9.544102
1518.000000	9.509098
1517.000000	9.512959
1516.000000	9.531971
1515.000000	9.498072
1514.000000	9.505243
1513.000000	9.500768
1512.000000	9.493786
1511.000000	9.481514
1510.000000	9.457201
1509.000000	9.448065
1508.000000	9.423548
1507.000000	9.438569
1506.000000	9.451766
1505.000000	9.424028
1504.000000	9.419547
1503.000000	9.409112
1502.000000	9.403768
1501.000000	9.392425
1500.000000	9.388645
1499.000000	9.365089
1498.000000	9.374383
1497.000000	9.391693
1496.000000	9.392963
1495.000000	9.382542
1494.000000	9.381822
1493.000000	9.382852
1492.000000	9.403132
1491.000000	9.390137
1490.000000	9.407426
1489.000000	9.402127
1488.000000	9.408158
1487.000000	9.381617
1486.000000	9.396466
1485.000000	9.407454
1484.000000	9.414622
1483.000000	9.399499
1482.000000	9.410163
1481.000000	9.408772
1480.000000	9.423617
1479.000000	9.432624
1478.000000	9.406612
1477.000000	9.426143
1476.000000	9.414193
1475.000000	9.437848
1474.000000	9.440634
1473.000000	9.423117
1472.000000	9.429163
1471.000000	9.415444
1470.000000	9.418705
1469.000000	9.413093
1468.000000	9.403068
1467.000000	9.424083
1466.000000	9.403012
1465.000000	9.443351
1464.000000	9.456947
1463.000000	9.436835
1462.000000	9.437640
1461.000000	9.459283
1460.000000	9.487297
1459.000000	9.465313
1458.000000	9.463260
1457.000000	9.463237
1456.000000	9.488651
1455.000000	9.493411
1454.000000	9.488308
1453.000000	9.487626
1452.000000	9.504726
1451.000000	9.502882
1450.000000	9.543007
1449.000000	9.549616
1448.000000	9.550627
1447.000000	9.550243
1446.000000	9.549707
1445.000000	9.570277
1444.000000	9.597086
1443.000000	9.640496
