PE UV       SUBTECH     SPECTRUM    ASCII       PEDS        4.00        
   -1
TTmsmeh81.Sample.asc
18/03/14
10:15:29.00
18/03/14
10:15:29.00
Administrator

200.000000
1
Lambda 750
750N8071901
PerkinElmer UV WinLab 6.0.4.0738 / 1.61.00 Lambda 900

0
0
3350/servo 860.8/2
0
0
UV/VIS
1
1
1
CommonBeamDepol,150mm sphere / downward view
0
0
0
0
Program
Program
3350/servo 860.8/2
3350/0.2 860.8/0.2
3350/0.2 860.8/0.2
0
1
 
 
 
0
 
860.8
319.2
860.8
Front
100
on
 
 
0
0
0
 
0
 
 
 
0
 
 
0
0
0
0
0
 
 
 
 
0
0


0
0
#HDR
-1
-1
#GR
nm
%T
1.0
0.0
2350.000000
-1.000000
2151
8
14.963594
-0.026435
#DATA
2350.000000	9.121539
2349.000000	9.321959
2348.000000	8.608410
2347.000000	9.654884
2346.000000	9.516052
2345.000000	9.595629
2344.000000	9.040715
2343.000000	9.182193
2342.000000	9.131188
2341.000000	9.489390
2340.000000	9.815778
2339.000000	9.935216
2338.000000	9.842359
2337.000000	9.705051
2336.000000	10.038127
2335.000000	10.208744
2334.000000	10.223727
2333.000000	10.247331
2332.000000	10.113451
2331.000000	10.060331
2330.000000	10.278837
2329.000000	10.104755
2328.000000	10.058688
2327.000000	10.118138
2326.000000	9.858025
2325.000000	10.114511
2324.000000	10.167071
2323.000000	9.998717
2322.000000	9.886757
2321.000000	9.630577
2320.000000	9.633106
2319.000000	9.625016
2318.000000	9.778422
2317.000000	9.689876
2316.000000	9.754120
2315.000000	9.706052
2314.000000	9.438433
2313.000000	9.586674
2312.000000	9.491466
2311.000000	9.411619
2310.000000	9.140806
2309.000000	9.323067
2308.000000	9.485547
2307.000000	9.377024
2306.000000	9.218560
2305.000000	9.333768
2304.000000	9.414390
2303.000000	9.417111
2302.000000	9.231183
2301.000000	9.209285
2300.000000	8.990097
2299.000000	9.005318
2298.000000	8.925725
2297.000000	8.963201
2296.000000	9.289144
2295.000000	9.247361
2294.000000	9.154818
2293.000000	9.079578
2292.000000	9.142820
2291.000000	9.162317
2290.000000	9.233875
2289.000000	9.050277
2288.000000	8.964909
2287.000000	9.074104
2286.000000	9.030914
2285.000000	9.072524
2284.000000	9.041654
2283.000000	8.933039
2282.000000	8.957966
2281.000000	8.985177
2280.000000	9.073572
2279.000000	8.972921
2278.000000	9.120610
2277.000000	9.017303
2276.000000	8.992848
2275.000000	9.053985
2274.000000	9.070553
2273.000000	9.101544
2272.000000	9.196586
2271.000000	9.129720
2270.000000	9.155815
2269.000000	9.056846
2268.000000	9.093758
2267.000000	9.106047
2266.000000	9.127227
2265.000000	9.356705
2264.000000	9.447811
2263.000000	9.513282
2262.000000	9.556750
2261.000000	9.566008
2260.000000	9.634024
2259.000000	9.649886
2258.000000	9.716978
2257.000000	9.873136
2256.000000	9.840583
2255.000000	9.841255
2254.000000	10.001245
2253.000000	10.040881
2252.000000	10.046614
2251.000000	9.980425
2250.000000	9.954363
2249.000000	10.144741
2248.000000	10.284725
2247.000000	10.369758
2246.000000	10.489978
2245.000000	10.584057
2244.000000	10.660486
2243.000000	10.664788
2242.000000	10.627749
2241.000000	10.657306
2240.000000	10.756035
2239.000000	10.714264
2238.000000	10.724620
2237.000000	10.776970
2236.000000	10.787370
2235.000000	10.804877
2234.000000	10.875969
2233.000000	10.908890
2232.000000	10.946650
2231.000000	10.911313
2230.000000	10.980697
2229.000000	11.062281
2228.000000	11.005949
2227.000000	10.977337
2226.000000	10.977305
2225.000000	11.035794
2224.000000	11.021024
2223.000000	10.997603
2222.000000	11.038541
2221.000000	10.947819
2220.000000	10.864115
2219.000000	10.793614
2218.000000	10.802669
2217.000000	10.912749
2216.000000	10.872652
2215.000000	10.856859
2214.000000	10.922197
2213.000000	10.907117
2212.000000	10.806770
2211.000000	10.676620
2210.000000	10.704816
2209.000000	10.780607
2208.000000	10.671497
2207.000000	10.640941
2206.000000	10.583005
2205.000000	10.567432
2204.000000	10.587265
2203.000000	10.564874
2202.000000	10.479044
2201.000000	10.533719
2200.000000	10.534632
2199.000000	10.490738
2198.000000	10.537492
2197.000000	10.447942
2196.000000	10.369207
2195.000000	10.279417
2194.000000	10.247578
2193.000000	10.283674
2192.000000	10.269727
2191.000000	10.334743
2190.000000	10.250094
2189.000000	10.217049
2188.000000	10.111687
2187.000000	10.221056
2186.000000	10.145160
2185.000000	10.231504
2184.000000	10.361011
2183.000000	10.185760
2182.000000	10.137354
2181.000000	10.142914
2180.000000	10.163420
2179.000000	10.079559
2178.000000	10.078511
2177.000000	10.144029
2176.000000	10.036735
2175.000000	10.034511
2174.000000	10.129833
2173.000000	9.989213
2172.000000	10.152956
2171.000000	10.125016
2170.000000	10.185155
2169.000000	10.215398
2168.000000	10.291915
2167.000000	10.298517
2166.000000	10.207030
2165.000000	10.218622
2164.000000	10.264739
2163.000000	10.126529
2162.000000	10.225151
2161.000000	10.476654
2160.000000	10.611554
2159.000000	10.529555
2158.000000	10.670496
2157.000000	10.465637
2156.000000	10.643671
2155.000000	10.692044
2154.000000	10.757365
2153.000000	10.895467
2152.000000	10.788018
2151.000000	10.936308
2150.000000	10.755696
2149.000000	10.783243
2148.000000	10.830998
2147.000000	10.812337
2146.000000	10.915771
2145.000000	11.095340
2144.000000	11.179580
2143.000000	11.126705
2142.000000	11.239892
2141.000000	11.213822
2140.000000	11.145859
2139.000000	11.375529
2138.000000	11.232090
2137.000000	11.230398
2136.000000	11.218750
2135.000000	11.307267
2134.000000	11.298503
2133.000000	11.219763
2132.000000	11.505889
2131.000000	11.444881
2130.000000	11.482421
2129.000000	11.325801
2128.000000	11.332367
2127.000000	11.535308
2126.000000	11.413184
2125.000000	11.554186
2124.000000	11.349152
2123.000000	11.499033
2122.000000	11.448122
2121.000000	11.570660
2120.000000	11.540097
2119.000000	11.471618
2118.000000	11.527443
2117.000000	11.552835
2116.000000	11.606199
2115.000000	11.574561
2114.000000	11.575136
2113.000000	11.567681
2112.000000	11.546440
2111.000000	11.436678
2110.000000	11.513210
2109.000000	11.497654
2108.000000	11.532421
2107.000000	11.492523
2106.000000	11.497937
2105.000000	11.599225
2104.000000	11.538225
2103.000000	11.504762
2102.000000	11.541633
2101.000000	11.577602
2100.000000	11.572188
2099.000000	11.531246
2098.000000	11.596503
2097.000000	11.545265
2096.000000	11.580098
2095.000000	11.524308
2094.000000	11.512120
2093.000000	11.457157
2092.000000	11.552550
2091.000000	11.425014
2090.000000	11.389037
2089.000000	11.392837
2088.000000	11.558882
2087.000000	11.500126
2086.000000	11.443187
2085.000000	11.472565
2084.000000	11.420471
2083.000000	11.286005
2082.000000	11.279940
2081.000000	11.348586
2080.000000	11.345969
2079.000000	11.308503
2078.000000	11.204774
2077.000000	11.245659
2076.000000	11.261113
2075.000000	11.161151
2074.000000	11.128290
2073.000000	11.132068
2072.000000	11.048535
2071.000000	11.050860
2070.000000	11.032112
2069.000000	10.998914
2068.000000	10.823035
2067.000000	10.792209
2066.000000	10.751873
2065.000000	10.739763
2064.000000	10.621546
2063.000000	10.559419
2062.000000	10.577814
2061.000000	10.517443
2060.000000	10.482818
2059.000000	10.390031
2058.000000	10.383763
2057.000000	10.331274
2056.000000	10.252820
2055.000000	10.283512
2054.000000	10.168051
2053.000000	10.145401
2052.000000	10.154660
2051.000000	10.073378
2050.000000	10.014228
2049.000000	10.015779
2048.000000	9.996806
2047.000000	9.948189
2046.000000	9.956418
2045.000000	9.934115
2044.000000	9.952677
2043.000000	9.988661
2042.000000	9.921339
2041.000000	9.947799
2040.000000	9.976640
2039.000000	9.969833
2038.000000	9.995572
2037.000000	10.017490
2036.000000	10.023844
2035.000000	10.040185
2034.000000	10.037564
2033.000000	10.056286
2032.000000	10.136161
2031.000000	10.173628
2030.000000	10.160198
2029.000000	10.183856
2028.000000	10.199749
2027.000000	10.230697
2026.000000	10.265862
2025.000000	10.272583
2024.000000	10.271183
2023.000000	10.317196
2022.000000	10.330904
2021.000000	10.320043
2020.000000	10.332253
2019.000000	10.290717
2018.000000	10.313981
2017.000000	10.335300
2016.000000	10.301088
2015.000000	10.304510
2014.000000	10.255912
2013.000000	10.230536
2012.000000	10.236451
2011.000000	10.224059
2010.000000	10.237484
2009.000000	10.188800
2008.000000	10.127510
2007.000000	10.089224
2006.000000	10.053043
2005.000000	10.033883
2004.000000	10.015600
2003.000000	9.955172
2002.000000	9.902121
2001.000000	9.915148
2000.000000	9.907460
1999.000000	9.867007
1998.000000	9.819597
1997.000000	9.737114
1996.000000	9.703135
1995.000000	9.681029
1994.000000	9.633399
1993.000000	9.602915
1992.000000	9.575884
1991.000000	9.513076
1990.000000	9.413953
1989.000000	9.391337
1988.000000	9.407189
1987.000000	9.363618
1986.000000	9.295616
1985.000000	9.274017
1984.000000	9.242787
1983.000000	9.192084
1982.000000	9.147965
1981.000000	9.117847
1980.000000	9.114927
1979.000000	9.047158
1978.000000	9.009620
1977.000000	8.980910
1976.000000	8.976725
1975.000000	8.897680
1974.000000	8.872716
1973.000000	8.821701
1972.000000	8.783669
1971.000000	8.798090
1970.000000	8.743277
1969.000000	8.667856
1968.000000	8.685597
1967.000000	8.650185
1966.000000	8.592675
1965.000000	8.576124
1964.000000	8.557648
1963.000000	8.531269
1962.000000	8.469423
1961.000000	8.436838
1960.000000	8.454877
1959.000000	8.367068
1958.000000	8.405981
1957.000000	8.409408
1956.000000	8.335081
1955.000000	8.301995
1954.000000	8.265548
1953.000000	8.277733
1952.000000	8.232211
1951.000000	8.205692
1950.000000	8.255969
1949.000000	8.227730
1948.000000	8.207210
1947.000000	8.237660
1946.000000	8.200074
1945.000000	8.188110
1944.000000	8.159238
1943.000000	8.183420
1942.000000	8.242662
1941.000000	8.181503
1940.000000	8.259808
1939.000000	8.274027
1938.000000	8.318467
1937.000000	8.353046
1936.000000	8.410194
1935.000000	8.392656
1934.000000	8.386343
1933.000000	8.498475
1932.000000	8.458877
1931.000000	8.530573
1930.000000	8.638836
1929.000000	8.674790
1928.000000	8.724575
1927.000000	8.711394
1926.000000	8.813515
1925.000000	8.899821
1924.000000	8.977045
1923.000000	9.102945
1922.000000	9.111572
1921.000000	9.279295
1920.000000	9.385332
1919.000000	9.398330
1918.000000	9.567071
1917.000000	9.651812
1916.000000	9.703890
1915.000000	9.872908
1914.000000	9.963775
1913.000000	10.142942
1912.000000	10.114041
1911.000000	10.258309
1910.000000	10.387891
1909.000000	10.516733
1908.000000	10.639193
1907.000000	10.737759
1906.000000	10.878704
1905.000000	11.130051
1904.000000	11.259937
1903.000000	11.333133
1902.000000	11.482718
1901.000000	11.681390
1900.000000	11.729109
1899.000000	11.892401
1898.000000	12.040642
1897.000000	12.136187
1896.000000	12.292435
1895.000000	12.434939
1894.000000	12.490078
1893.000000	12.652041
1892.000000	12.872188
1891.000000	12.957119
1890.000000	13.028725
1889.000000	13.201187
1888.000000	13.304771
1887.000000	13.345985
1886.000000	13.494170
1885.000000	13.571363
1884.000000	13.642252
1883.000000	13.732996
1882.000000	13.855901
1881.000000	13.944455
1880.000000	14.031764
1879.000000	14.048425
1878.000000	14.137490
1877.000000	14.230199
1876.000000	14.276682
1875.000000	14.405796
1874.000000	14.446183
1873.000000	14.466182
1872.000000	14.514072
1871.000000	14.602633
1870.000000	14.646659
1869.000000	14.674241
1868.000000	14.703072
1867.000000	14.670328
1866.000000	14.692178
1865.000000	14.723279
1864.000000	14.705481
1863.000000	14.719902
1862.000000	14.752592
1861.000000	14.745713
1860.000000	14.735721
1859.000000	14.758193
1858.000000	14.757234
1857.000000	14.754246
1856.000000	14.760916
1855.000000	14.750157
1854.000000	14.774378
1853.000000	14.789723
1852.000000	14.778292
1851.000000	14.748020
1850.000000	14.742565
1849.000000	14.753196
1848.000000	14.793906
1847.000000	14.745125
1846.000000	14.742543
1845.000000	14.730412
1844.000000	14.726817
1843.000000	14.743874
1842.000000	14.757026
1841.000000	14.757797
1840.000000	14.740067
1839.000000	14.746430
1838.000000	14.737814
1837.000000	14.719480
1836.000000	14.659773
1835.000000	14.635352
1834.000000	14.630182
1833.000000	14.611510
1832.000000	14.604269
1831.000000	14.578974
1830.000000	14.572728
1829.000000	14.548404
1828.000000	14.514968
1827.000000	14.509282
1826.000000	14.492372
1825.000000	14.458945
1824.000000	14.465546
1823.000000	14.445714
1822.000000	14.425220
1821.000000	14.443754
1820.000000	14.444073
1819.000000	14.415262
1818.000000	14.404021
1817.000000	14.387004
1816.000000	14.374037
1815.000000	14.350309
1814.000000	14.338638
1813.000000	14.337928
1812.000000	14.316917
1811.000000	14.319537
1810.000000	14.309164
1809.000000	14.296341
1808.000000	14.298400
1807.000000	14.279878
1806.000000	14.278604
1805.000000	14.278473
1804.000000	14.251072
1803.000000	14.240524
1802.000000	14.239611
1801.000000	14.242760
1800.000000	14.231499
1799.000000	14.208349
1798.000000	14.206172
1797.000000	14.210229
1796.000000	14.202477
1795.000000	14.200856
1794.000000	14.197803
1793.000000	14.182136
1792.000000	14.176751
1791.000000	14.165594
1790.000000	14.167019
1789.000000	14.183646
1788.000000	14.184371
1787.000000	14.174863
1786.000000	14.166900
1785.000000	14.170824
1784.000000	14.163299
1783.000000	14.149709
1782.000000	14.165454
1781.000000	14.167349
1780.000000	14.159465
1779.000000	14.142331
1778.000000	14.134455
1777.000000	14.114579
1776.000000	14.094994
1775.000000	14.077053
1774.000000	14.078505
1773.000000	14.063776
1772.000000	14.060958
1771.000000	14.063004
1770.000000	14.043657
1769.000000	14.012353
1768.000000	13.996253
1767.000000	13.969147
1766.000000	13.955142
1765.000000	13.935538
1764.000000	13.936606
1763.000000	13.936091
1762.000000	13.920221
1761.000000	13.890436
1760.000000	13.888407
1759.000000	13.856235
1758.000000	13.821316
1757.000000	13.830264
1756.000000	13.838446
1755.000000	13.808508
1754.000000	13.786923
1753.000000	13.771495
1752.000000	13.759774
1751.000000	13.756785
1750.000000	13.750038
1749.000000	13.734226
1748.000000	13.714310
1747.000000	13.690125
1746.000000	13.655733
1745.000000	13.635797
1744.000000	13.646906
1743.000000	13.631547
1742.000000	13.634912
1741.000000	13.604284
1740.000000	13.574262
1739.000000	13.564301
1738.000000	13.535137
1737.000000	13.542558
1736.000000	13.542860
1735.000000	13.539426
1734.000000	13.547011
1733.000000	13.530225
1732.000000	13.505578
1731.000000	13.506836
1730.000000	13.491895
1729.000000	13.483323
1728.000000	13.529678
1727.000000	13.560384
1726.000000	13.576178
1725.000000	13.569448
1724.000000	13.577758
1723.000000	13.604184
1722.000000	13.644659
1721.000000	13.640548
1720.000000	13.670879
1719.000000	13.700561
1718.000000	13.701276
1717.000000	13.725999
1716.000000	13.737725
1715.000000	13.756581
1714.000000	13.788733
1713.000000	13.805510
1712.000000	13.814859
1711.000000	13.818597
1710.000000	13.844255
1709.000000	13.871654
1708.000000	13.869557
1707.000000	13.856490
1706.000000	13.876276
1705.000000	13.887326
1704.000000	13.918255
1703.000000	13.895009
1702.000000	13.921543
1701.000000	13.900633
1700.000000	13.902766
1699.000000	13.893034
1698.000000	13.922834
1697.000000	13.924658
1696.000000	13.958059
1695.000000	13.923962
1694.000000	13.935746
1693.000000	13.965820
1692.000000	13.961992
1691.000000	13.970904
1690.000000	13.979100
1689.000000	14.000148
1688.000000	14.017871
1687.000000	14.037884
1686.000000	14.078598
1685.000000	14.115691
1684.000000	14.153425
1683.000000	14.155094
1682.000000	14.212803
1681.000000	14.243425
1680.000000	14.270042
1679.000000	14.298257
1678.000000	14.338317
1677.000000	14.338073
1676.000000	14.384995
1675.000000	14.411578
1674.000000	14.464579
1673.000000	14.497269
1672.000000	14.529001
1671.000000	14.562610
1670.000000	14.583601
1669.000000	14.590259
1668.000000	14.571933
1667.000000	14.622201
1666.000000	14.634329
1665.000000	14.638118
1664.000000	14.637262
1663.000000	14.648340
1662.000000	14.686627
1661.000000	14.699750
1660.000000	14.687579
1659.000000	14.702852
1658.000000	14.723841
1657.000000	14.757877
1656.000000	14.756933
1655.000000	14.763450
1654.000000	14.762993
1653.000000	14.760976
1652.000000	14.759486
1651.000000	14.750096
1650.000000	14.766048
1649.000000	14.752549
1648.000000	14.737702
1647.000000	14.733542
1646.000000	14.734061
1645.000000	14.728801
1644.000000	14.730781
1643.000000	14.721544
1642.000000	14.713564
1641.000000	14.696530
1640.000000	14.696504
1639.000000	14.697498
1638.000000	14.685376
1637.000000	14.685692
1636.000000	14.662161
1635.000000	14.650702
1634.000000	14.644850
1633.000000	14.618302
1632.000000	14.613502
1631.000000	14.596500
1630.000000	14.568282
1629.000000	14.554381
1628.000000	14.560316
1627.000000	14.565283
1626.000000	14.554372
1625.000000	14.531012
1624.000000	14.528192
1623.000000	14.519959
1622.000000	14.515573
1621.000000	14.495175
1620.000000	14.469983
1619.000000	14.444188
1618.000000	14.432292
1617.000000	14.429811
1616.000000	14.411138
1615.000000	14.394467
1614.000000	14.385884
1613.000000	14.370787
1612.000000	14.371682
1611.000000	14.357035
1610.000000	14.329827
1609.000000	14.322951
1608.000000	14.300851
1607.000000	14.281764
1606.000000	14.270607
1605.000000	14.256584
1604.000000	14.243745
1603.000000	14.223155
1602.000000	14.208737
1601.000000	14.197459
1600.000000	14.184589
1599.000000	14.163400
1598.000000	14.143673
1597.000000	14.135570
1596.000000	14.122601
1595.000000	14.114218
1594.000000	14.104998
1593.000000	14.093620
1592.000000	14.068978
1591.000000	14.047135
1590.000000	14.038269
1589.000000	14.030689
1588.000000	14.029323
1587.000000	14.013011
1586.000000	13.989278
1585.000000	13.984448
1584.000000	13.983110
1583.000000	13.972822
1582.000000	13.964264
1581.000000	13.948820
1580.000000	13.929679
1579.000000	13.923688
1578.000000	13.932056
1577.000000	13.915483
1576.000000	13.893091
1575.000000	13.888253
1574.000000	13.872985
1573.000000	13.865734
1572.000000	13.851450
1571.000000	13.834816
1570.000000	13.829530
1569.000000	13.817837
1568.000000	13.800902
1567.000000	13.787405
1566.000000	13.775816
1565.000000	13.772429
1564.000000	13.768816
1563.000000	13.753592
1562.000000	13.741089
1561.000000	13.733335
1560.000000	13.727589
1559.000000	13.720685
1558.000000	13.707607
1557.000000	13.701092
1556.000000	13.703928
1555.000000	13.690322
1554.000000	13.669783
1553.000000	13.664743
1552.000000	13.653480
1551.000000	13.645472
1550.000000	13.633078
1549.000000	13.623557
1548.000000	13.602806
1547.000000	13.590209
1546.000000	13.570917
1545.000000	13.555409
1544.000000	13.536785
1543.000000	13.510936
1542.000000	13.495254
1541.000000	13.464393
1540.000000	13.457707
1539.000000	13.412856
1538.000000	13.397020
1537.000000	13.378711
1536.000000	13.350447
1535.000000	13.328980
1534.000000	13.288054
1533.000000	13.287568
1532.000000	13.274499
1531.000000	13.257664
1530.000000	13.278299
1529.000000	13.300669
1528.000000	13.321068
1527.000000	13.316182
1526.000000	13.280269
1525.000000	13.214167
1524.000000	13.167138
1523.000000	13.139770
1522.000000	13.139045
1521.000000	13.147972
1520.000000	13.106730
1519.000000	13.082177
1518.000000	13.096363
1517.000000	13.091990
1516.000000	13.067969
1515.000000	13.046063
1514.000000	13.043835
1513.000000	13.044390
1512.000000	13.026445
1511.000000	12.998368
1510.000000	12.982244
1509.000000	12.956533
1508.000000	12.974722
1507.000000	12.983931
1506.000000	12.956684
1505.000000	12.956785
1504.000000	12.939775
1503.000000	12.923422
1502.000000	12.899007
1501.000000	12.911584
1500.000000	12.900537
1499.000000	12.874415
1498.000000	12.877928
1497.000000	12.877154
1496.000000	12.883968
1495.000000	12.884184
1494.000000	12.872679
1493.000000	12.879026
1492.000000	12.877075
1491.000000	12.861195
1490.000000	12.873011
1489.000000	12.883455
1488.000000	12.888483
1487.000000	12.887166
1486.000000	12.903419
1485.000000	12.884285
1484.000000	12.872696
1483.000000	12.905163
1482.000000	12.903833
1481.000000	12.913159
1480.000000	12.914670
1479.000000	12.938269
1478.000000	12.938659
1477.000000	12.933439
1476.000000	12.938935
1475.000000	12.936279
1474.000000	12.947765
1473.000000	12.938760
1472.000000	12.930637
1471.000000	12.950816
1470.000000	12.966347
1469.000000	12.956503
1468.000000	12.966970
1467.000000	12.956002
1466.000000	12.987955
1465.000000	13.002586
1464.000000	12.997076
1463.000000	12.991804
1462.000000	13.000882
1461.000000	13.016293
