PE UV       SUBTECH     SPECTRUM    ASCII       PEDS        4.00        
   -1
TTmsfkat91.Sample.asc
18/03/14
11:23:14.00
18/03/14
11:23:14.00
Administrator

200.000000
1
Lambda 750
750N8071901
PerkinElmer UV WinLab 6.0.4.0738 / 1.61.00 Lambda 900

0
0
3350/servo 860.8/2
0
0
UV/VIS
1
1
1
CommonBeamDepol,150mm sphere / downward view
0
0
0
0
Program
Program
3350/servo 860.8/2
3350/0.2 860.8/0.2
3350/0.2 860.8/0.2
0
1
 
 
 
0
 
860.8
319.2
860.8
Front
100
on
 
 
0
0
0
 
0
 
 
 
0
 
 
0
0
0
0
0
 
 
 
 
0
0


0
0
#HDR
-1
-1
#GR
nm
%T
1.0
0.0
2350.000000
-1.000000
2151
8
14.946114
0.064348
#DATA
2350.000000	5.502214
2349.000000	5.311546
2348.000000	5.150816
2347.000000	5.749649
2346.000000	5.940359
2345.000000	5.707619
2344.000000	5.494246
2343.000000	5.608961
2342.000000	5.710911
2341.000000	5.907978
2340.000000	5.727040
2339.000000	5.935070
2338.000000	6.010597
2337.000000	6.545954
2336.000000	6.380167
2335.000000	6.653142
2334.000000	6.275809
2333.000000	6.570346
2332.000000	6.549364
2331.000000	6.512022
2330.000000	6.356274
2329.000000	6.278220
2328.000000	6.295335
2327.000000	6.283694
2326.000000	6.281131
2325.000000	6.298599
2324.000000	6.055301
2323.000000	6.049744
2322.000000	6.188717
2321.000000	6.085911
2320.000000	6.137193
2319.000000	6.140174
2318.000000	5.887349
2317.000000	5.913964
2316.000000	5.805810
2315.000000	5.892215
2314.000000	5.916770
2313.000000	5.819132
2312.000000	5.677231
2311.000000	5.721776
2310.000000	6.046671
2309.000000	5.878155
2308.000000	5.786906
2307.000000	5.681532
2306.000000	5.811161
2305.000000	5.745317
2304.000000	5.609429
2303.000000	5.737198
2302.000000	5.695972
2301.000000	5.608409
2300.000000	5.535841
2299.000000	5.653867
2298.000000	5.416827
2297.000000	5.475791
2296.000000	5.539273
2295.000000	5.399695
2294.000000	5.300893
2293.000000	5.421260
2292.000000	5.519003
2291.000000	5.558216
2290.000000	5.471106
2289.000000	5.458364
2288.000000	5.290843
2287.000000	5.343606
2286.000000	5.360018
2285.000000	5.142168
2284.000000	5.156984
2283.000000	5.195664
2282.000000	5.325508
2281.000000	5.207369
2280.000000	5.275297
2279.000000	5.304941
2278.000000	5.345989
2277.000000	5.377814
2276.000000	5.303539
2275.000000	5.340027
2274.000000	5.250181
2273.000000	5.333318
2272.000000	5.432519
2271.000000	5.398027
2270.000000	5.445750
2269.000000	5.426607
2268.000000	5.344107
2267.000000	5.380469
2266.000000	5.436194
2265.000000	5.498575
2264.000000	5.480131
2263.000000	5.477851
2262.000000	5.565110
2261.000000	5.699961
2260.000000	5.730031
2259.000000	5.731471
2258.000000	5.828225
2257.000000	5.976290
2256.000000	5.999527
2255.000000	5.966505
2254.000000	5.976649
2253.000000	6.110134
2252.000000	6.213958
2251.000000	6.288069
2250.000000	6.365023
2249.000000	6.398919
2248.000000	6.473635
2247.000000	6.536117
2246.000000	6.661491
2245.000000	6.705245
2244.000000	6.685793
2243.000000	6.822361
2242.000000	6.887848
2241.000000	6.826413
2240.000000	6.900604
2239.000000	6.971038
2238.000000	6.968471
2237.000000	6.984877
2236.000000	7.063046
2235.000000	7.182162
2234.000000	7.216004
2233.000000	7.067921
2232.000000	6.989646
2231.000000	7.170309
2230.000000	7.171237
2229.000000	7.201419
2228.000000	7.303196
2227.000000	7.264234
2226.000000	7.113197
2225.000000	7.097299
2224.000000	7.083499
2223.000000	7.090221
2222.000000	7.187268
2221.000000	7.200173
2220.000000	7.198803
2219.000000	7.143226
2218.000000	7.113301
2217.000000	7.046657
2216.000000	7.096352
2215.000000	7.230395
2214.000000	7.125593
2213.000000	6.971491
2212.000000	7.016187
2211.000000	6.942697
2210.000000	6.803746
2209.000000	6.765868
2208.000000	6.944525
2207.000000	6.907030
2206.000000	6.896517
2205.000000	6.859174
2204.000000	6.794933
2203.000000	6.785754
2202.000000	6.806707
2201.000000	6.669395
2200.000000	6.581165
2199.000000	6.744053
2198.000000	6.680600
2197.000000	6.611960
2196.000000	6.535913
2195.000000	6.406286
2194.000000	6.443624
2193.000000	6.480514
2192.000000	6.458246
2191.000000	6.420195
2190.000000	6.439950
2189.000000	6.362516
2188.000000	6.374762
2187.000000	6.394996
2186.000000	6.341154
2185.000000	6.292243
2184.000000	6.284208
2183.000000	6.337948
2182.000000	6.398103
2181.000000	6.277889
2180.000000	6.227580
2179.000000	6.062047
2178.000000	6.248847
2177.000000	6.293691
2176.000000	6.178106
2175.000000	6.222122
2174.000000	6.193183
2173.000000	6.262098
2172.000000	6.376664
2171.000000	6.356197
2170.000000	6.310991
2169.000000	6.358243
2168.000000	6.408346
2167.000000	6.415225
2166.000000	6.422145
2165.000000	6.440755
2164.000000	6.455058
2163.000000	6.362972
2162.000000	6.405764
2161.000000	6.541368
2160.000000	6.635522
2159.000000	6.694162
2158.000000	6.526569
2157.000000	6.757557
2156.000000	6.715434
2155.000000	6.744616
2154.000000	6.989057
2153.000000	7.012969
2152.000000	6.976814
2151.000000	7.064840
2150.000000	7.212204
2149.000000	7.137445
2148.000000	7.020436
2147.000000	7.075779
2146.000000	7.161958
2145.000000	7.332916
2144.000000	7.258518
2143.000000	7.126101
2142.000000	7.176748
2141.000000	7.597374
2140.000000	7.519430
2139.000000	7.631139
2138.000000	7.527127
2137.000000	7.554282
2136.000000	7.433972
2135.000000	7.436961
2134.000000	7.586424
2133.000000	7.374003
2132.000000	7.691657
2131.000000	7.912055
2130.000000	7.753507
2129.000000	7.718851
2128.000000	7.682830
2127.000000	7.749967
2126.000000	7.768369
2125.000000	7.577797
2124.000000	7.560428
2123.000000	7.743830
2122.000000	7.780838
2121.000000	7.760567
2120.000000	7.633883
2119.000000	7.739411
2118.000000	7.845564
2117.000000	7.817395
2116.000000	7.741395
2115.000000	8.007045
2114.000000	7.915222
2113.000000	7.760379
2112.000000	7.944571
2111.000000	7.797501
2110.000000	7.896739
2109.000000	7.852631
2108.000000	7.841263
2107.000000	7.925739
2106.000000	7.890666
2105.000000	7.881623
2104.000000	7.919613
2103.000000	7.888484
2102.000000	7.847496
2101.000000	7.921559
2100.000000	7.956138
2099.000000	7.787196
2098.000000	7.751464
2097.000000	7.876246
2096.000000	7.774214
2095.000000	7.823084
2094.000000	7.858943
2093.000000	7.854350
2092.000000	7.827093
2091.000000	7.839677
2090.000000	7.774725
2089.000000	7.762178
2088.000000	7.777560
2087.000000	7.758285
2086.000000	7.795945
2085.000000	7.692704
2084.000000	7.566630
2083.000000	7.596828
2082.000000	7.626603
2081.000000	7.671652
2080.000000	7.664926
2079.000000	7.555504
2078.000000	7.456076
2077.000000	7.504575
2076.000000	7.410390
2075.000000	7.348495
2074.000000	7.355684
2073.000000	7.347778
2072.000000	7.288493
2071.000000	7.212480
2070.000000	7.199009
2069.000000	7.183702
2068.000000	7.025849
2067.000000	6.975177
2066.000000	6.946213
2065.000000	6.898832
2064.000000	6.866051
2063.000000	6.848370
2062.000000	6.834709
2061.000000	6.744901
2060.000000	6.660293
2059.000000	6.597874
2058.000000	6.497542
2057.000000	6.480229
2056.000000	6.467938
2055.000000	6.394436
2054.000000	6.306223
2053.000000	6.292949
2052.000000	6.236373
2051.000000	6.182477
2050.000000	6.155186
2049.000000	6.117300
2048.000000	6.102348
2047.000000	6.081431
2046.000000	6.001632
2045.000000	6.011100
2044.000000	6.042192
2043.000000	6.026002
2042.000000	5.970109
2041.000000	6.038456
2040.000000	6.097588
2039.000000	6.068014
2038.000000	6.010062
2037.000000	6.017025
2036.000000	6.063673
2035.000000	6.136950
2034.000000	6.181173
2033.000000	6.199789
2032.000000	6.186353
2031.000000	6.183966
2030.000000	6.264824
2029.000000	6.329666
2028.000000	6.351327
2027.000000	6.376369
2026.000000	6.403924
2025.000000	6.418316
2024.000000	6.455227
2023.000000	6.470555
2022.000000	6.431288
2021.000000	6.414938
2020.000000	6.444307
2019.000000	6.470614
2018.000000	6.442821
2017.000000	6.440110
2016.000000	6.457126
2015.000000	6.442520
2014.000000	6.433933
2013.000000	6.430461
2012.000000	6.393365
2011.000000	6.400264
2010.000000	6.393590
2009.000000	6.300288
2008.000000	6.234145
2007.000000	6.221551
2006.000000	6.193843
2005.000000	6.144800
2004.000000	6.118523
2003.000000	6.104911
2002.000000	6.087985
2001.000000	6.059218
2000.000000	5.999856
1999.000000	5.990773
1998.000000	5.957081
1997.000000	5.927023
1996.000000	5.869190
1995.000000	5.840302
1994.000000	5.829541
1993.000000	5.739190
1992.000000	5.687994
1991.000000	5.657353
1990.000000	5.611700
1989.000000	5.598321
1988.000000	5.589891
1987.000000	5.530825
1986.000000	5.488523
1985.000000	5.441376
1984.000000	5.379894
1983.000000	5.329884
1982.000000	5.302279
1981.000000	5.315295
1980.000000	5.296664
1979.000000	5.225994
1978.000000	5.139660
1977.000000	5.140263
1976.000000	5.101117
1975.000000	5.069612
1974.000000	5.053247
1973.000000	5.011959
1972.000000	4.974769
1971.000000	4.980078
1970.000000	4.977824
1969.000000	4.941668
1968.000000	4.921281
1967.000000	4.872294
1966.000000	4.810442
1965.000000	4.810390
1964.000000	4.753190
1963.000000	4.727652
1962.000000	4.708851
1961.000000	4.685240
1960.000000	4.624431
1959.000000	4.594987
1958.000000	4.582434
1957.000000	4.601290
1956.000000	4.598260
1955.000000	4.571831
1954.000000	4.573929
1953.000000	4.548305
1952.000000	4.573158
1951.000000	4.558302
1950.000000	4.473224
1949.000000	4.444629
1948.000000	4.474478
1947.000000	4.481601
1946.000000	4.491083
1945.000000	4.490851
1944.000000	4.496952
1943.000000	4.495537
1942.000000	4.566721
1941.000000	4.561885
1940.000000	4.589030
1939.000000	4.568223
1938.000000	4.628510
1937.000000	4.588689
1936.000000	4.645411
1935.000000	4.657989
1934.000000	4.685536
1933.000000	4.711713
1932.000000	4.785697
1931.000000	4.836907
1930.000000	4.804208
1929.000000	4.919911
1928.000000	4.964833
1927.000000	5.028247
1926.000000	5.124983
1925.000000	5.236770
1924.000000	5.274053
1923.000000	5.427176
1922.000000	5.504620
1921.000000	5.490358
1920.000000	5.588323
1919.000000	5.601392
1918.000000	5.746477
1917.000000	5.911953
1916.000000	5.920491
1915.000000	6.110385
1914.000000	6.254316
1913.000000	6.419423
1912.000000	6.558305
1911.000000	6.567551
1910.000000	6.750071
1909.000000	6.887148
1908.000000	7.056414
1907.000000	7.175842
1906.000000	7.323396
1905.000000	7.557113
1904.000000	7.690113
1903.000000	7.884812
1902.000000	8.041727
1901.000000	8.251956
1900.000000	8.415222
1899.000000	8.627987
1898.000000	8.766803
1897.000000	8.943550
1896.000000	9.215430
1895.000000	9.363563
1894.000000	9.546912
1893.000000	9.742352
1892.000000	9.955627
1891.000000	10.115761
1890.000000	10.278294
1889.000000	10.475818
1888.000000	10.663326
1887.000000	10.792149
1886.000000	10.982002
1885.000000	11.161539
1884.000000	11.310445
1883.000000	11.463480
1882.000000	11.600289
1881.000000	11.725332
1880.000000	11.850036
1879.000000	11.964494
1878.000000	12.084671
1877.000000	12.254734
1876.000000	12.353114
1875.000000	12.513399
1874.000000	12.572061
1873.000000	12.674736
1872.000000	12.795005
1871.000000	12.879609
1870.000000	12.937566
1869.000000	13.008635
1868.000000	13.058432
1867.000000	13.081078
1866.000000	13.117673
1865.000000	13.127984
1864.000000	13.126866
1863.000000	13.142745
1862.000000	13.172040
1861.000000	13.203409
1860.000000	13.283176
1859.000000	13.285407
1858.000000	13.268859
1857.000000	13.312830
1856.000000	13.334863
1855.000000	13.317245
1854.000000	13.355325
1853.000000	13.404655
1852.000000	13.381086
1851.000000	13.379526
1850.000000	13.382189
1849.000000	13.386652
1848.000000	13.366302
1847.000000	13.347402
1846.000000	13.352247
1845.000000	13.352006
1844.000000	13.360448
1843.000000	13.326246
1842.000000	13.303154
1841.000000	13.340308
1840.000000	13.304378
1839.000000	13.270069
1838.000000	13.255086
1837.000000	13.203574
1836.000000	13.195404
1835.000000	13.161716
1834.000000	13.147393
1833.000000	13.141094
1832.000000	13.136902
1831.000000	13.084561
1830.000000	13.078152
1829.000000	13.066449
1828.000000	13.051377
1827.000000	13.008060
1826.000000	12.981595
1825.000000	12.964410
1824.000000	12.945345
1823.000000	12.932301
1822.000000	12.895470
1821.000000	12.849850
1820.000000	12.830431
1819.000000	12.820757
1818.000000	12.808605
1817.000000	12.807451
1816.000000	12.783001
1815.000000	12.754615
1814.000000	12.744915
1813.000000	12.725279
1812.000000	12.695891
1811.000000	12.688854
1810.000000	12.687475
1809.000000	12.676566
1808.000000	12.674469
1807.000000	12.645819
1806.000000	12.614862
1805.000000	12.604735
1804.000000	12.574475
1803.000000	12.558906
1802.000000	12.557767
1801.000000	12.537826
1800.000000	12.528541
1799.000000	12.532161
1798.000000	12.530927
1797.000000	12.525147
1796.000000	12.489177
1795.000000	12.475604
1794.000000	12.496489
1793.000000	12.490088
1792.000000	12.469220
1791.000000	12.445571
1790.000000	12.439977
1789.000000	12.438567
1788.000000	12.428773
1787.000000	12.432707
1786.000000	12.435941
1785.000000	12.434769
1784.000000	12.408719
1783.000000	12.401303
1782.000000	12.408477
1781.000000	12.407181
1780.000000	12.382242
1779.000000	12.387813
1778.000000	12.385648
1777.000000	12.345794
1776.000000	12.304116
1775.000000	12.292512
1774.000000	12.269428
1773.000000	12.254304
1772.000000	12.262167
1771.000000	12.229193
1770.000000	12.211016
1769.000000	12.194264
1768.000000	12.135752
1767.000000	12.111637
1766.000000	12.101684
1765.000000	12.084965
1764.000000	12.070494
1763.000000	12.037803
1762.000000	12.004143
1761.000000	11.993869
1760.000000	11.956472
1759.000000	11.922137
1758.000000	11.925249
1757.000000	11.913722
1756.000000	11.891219
1755.000000	11.859992
1754.000000	11.846966
1753.000000	11.809686
1752.000000	11.782445
1751.000000	11.785316
1750.000000	11.778778
1749.000000	11.763298
1748.000000	11.716931
1747.000000	11.680558
1746.000000	11.658936
1745.000000	11.638890
1744.000000	11.624605
1743.000000	11.621553
1742.000000	11.583738
1741.000000	11.555172
1740.000000	11.519633
1739.000000	11.523516
1738.000000	11.534577
1737.000000	11.506723
1736.000000	11.464188
1735.000000	11.473198
1734.000000	11.511187
1733.000000	11.496950
1732.000000	11.477212
1731.000000	11.473945
1730.000000	11.445724
1729.000000	11.453427
1728.000000	11.476153
1727.000000	11.475536
1726.000000	11.500461
1725.000000	11.522904
1724.000000	11.568856
1723.000000	11.607728
1722.000000	11.640644
1721.000000	11.659472
1720.000000	11.692287
1719.000000	11.760984
1718.000000	11.758821
1717.000000	11.784741
1716.000000	11.817179
1715.000000	11.828476
1714.000000	11.865716
1713.000000	11.915750
1712.000000	11.921099
1711.000000	11.962917
1710.000000	11.965825
1709.000000	12.005958
1708.000000	12.029489
1707.000000	12.025483
1706.000000	12.029532
1705.000000	12.058323
1704.000000	12.068125
1703.000000	12.058535
1702.000000	12.079911
1701.000000	12.060295
1700.000000	12.063286
1699.000000	12.040555
1698.000000	12.058766
1697.000000	12.080431
1696.000000	12.120371
1695.000000	12.107903
1694.000000	12.089794
1693.000000	12.127614
1692.000000	12.144300
1691.000000	12.144495
1690.000000	12.184854
1689.000000	12.210417
1688.000000	12.255398
1687.000000	12.273973
1686.000000	12.335966
1685.000000	12.373326
1684.000000	12.419352
1683.000000	12.459799
1682.000000	12.530898
1681.000000	12.611213
1680.000000	12.653331
1679.000000	12.693802
1678.000000	12.760919
1677.000000	12.807773
1676.000000	12.889732
1675.000000	12.949079
1674.000000	12.985485
1673.000000	13.044876
1672.000000	13.109389
1671.000000	13.173860
1670.000000	13.225656
1669.000000	13.252809
1668.000000	13.301372
1667.000000	13.352891
1666.000000	13.362700
1665.000000	13.387278
1664.000000	13.421534
1663.000000	13.451121
1662.000000	13.481037
1661.000000	13.489994
1660.000000	13.498789
1659.000000	13.539162
1658.000000	13.548835
1657.000000	13.571224
1656.000000	13.588532
1655.000000	13.587339
1654.000000	13.596016
1653.000000	13.602658
1652.000000	13.605391
1651.000000	13.597014
1650.000000	13.600086
1649.000000	13.588799
1648.000000	13.566708
1647.000000	13.562059
1646.000000	13.560191
1645.000000	13.546132
1644.000000	13.527925
1643.000000	13.521163
1642.000000	13.509951
1641.000000	13.512432
1640.000000	13.487766
1639.000000	13.471119
1638.000000	13.448602
1637.000000	13.449085
1636.000000	13.430302
1635.000000	13.417372
1634.000000	13.390813
1633.000000	13.378310
1632.000000	13.355693
1631.000000	13.328125
1630.000000	13.308410
1629.000000	13.280980
1628.000000	13.256315
1627.000000	13.250938
1626.000000	13.233909
1625.000000	13.200802
1624.000000	13.170154
1623.000000	13.155490
1622.000000	13.147258
1621.000000	13.117393
1620.000000	13.090249
1619.000000	13.057013
1618.000000	13.028646
1617.000000	12.996311
1616.000000	12.969032
1615.000000	12.949216
1614.000000	12.937318
1613.000000	12.914135
1612.000000	12.879108
1611.000000	12.859503
1610.000000	12.831075
1609.000000	12.805115
1608.000000	12.793222
1607.000000	12.762457
1606.000000	12.723486
1605.000000	12.702087
1604.000000	12.670168
1603.000000	12.630739
1602.000000	12.605180
1601.000000	12.582580
1600.000000	12.565629
1599.000000	12.540035
1598.000000	12.511711
1597.000000	12.491657
1596.000000	12.465421
1595.000000	12.440994
1594.000000	12.415980
1593.000000	12.398917
1592.000000	12.382471
1591.000000	12.346797
1590.000000	12.319923
1589.000000	12.306394
1588.000000	12.290092
1587.000000	12.265335
1586.000000	12.242289
1585.000000	12.227301
1584.000000	12.212060
1583.000000	12.189081
1582.000000	12.165801
1581.000000	12.132377
1580.000000	12.110647
1579.000000	12.108290
1578.000000	12.094543
1577.000000	12.061679
1576.000000	12.028447
1575.000000	12.010679
1574.000000	11.993976
1573.000000	11.968784
1572.000000	11.946237
1571.000000	11.915950
1570.000000	11.901524
1569.000000	11.891564
1568.000000	11.873254
1567.000000	11.861798
1566.000000	11.845815
1565.000000	11.830066
1564.000000	11.817843
1563.000000	11.810945
1562.000000	11.788869
1561.000000	11.768161
1560.000000	11.740179
1559.000000	11.729515
1558.000000	11.722660
1557.000000	11.711611
1556.000000	11.701293
1555.000000	11.682904
1554.000000	11.657505
1553.000000	11.642017
1552.000000	11.625698
1551.000000	11.618685
1550.000000	11.593563
1549.000000	11.560372
1548.000000	11.541468
1547.000000	11.517377
1546.000000	11.499838
1545.000000	11.456488
1544.000000	11.425829
1543.000000	11.395236
1542.000000	11.360551
1541.000000	11.329735
1540.000000	11.288059
1539.000000	11.234211
1538.000000	11.195683
1537.000000	11.174367
1536.000000	11.131784
1535.000000	11.089885
1534.000000	11.048728
1533.000000	11.016635
1532.000000	10.987224
1531.000000	10.967027
1530.000000	10.969857
1529.000000	10.987918
1528.000000	11.009102
1527.000000	10.992955
1526.000000	10.930347
1525.000000	10.874595
1524.000000	10.827718
1523.000000	10.794040
1522.000000	10.771106
1521.000000	10.767704
1520.000000	10.721690
1519.000000	10.691088
1518.000000	10.679976
1517.000000	10.693244
1516.000000	10.668668
1515.000000	10.637188
1514.000000	10.636940
1513.000000	10.638563
1512.000000	10.614384
1511.000000	10.595949
1510.000000	10.549200
1509.000000	10.530468
1508.000000	10.550424
1507.000000	10.553147
1506.000000	10.530452
1505.000000	10.515938
1504.000000	10.496789
1503.000000	10.489339
1502.000000	10.471029
1501.000000	10.447474
1500.000000	10.437533
1499.000000	10.447881
1498.000000	10.446126
1497.000000	10.444127
1496.000000	10.418836
1495.000000	10.423302
1494.000000	10.408068
1493.000000	10.423906
1492.000000	10.427703
1491.000000	10.453785
1490.000000	10.448094
1489.000000	10.431832
1488.000000	10.439355
1487.000000	10.439378
1486.000000	10.462122
1485.000000	10.461380
1484.000000	10.471728
1483.000000	10.479022
1482.000000	10.486275
1481.000000	10.485223
1480.000000	10.494618
1479.000000	10.506208
1478.000000	10.518917
1477.000000	10.537275
1476.000000	10.543054
1475.000000	10.539622
1474.000000	10.527062
1473.000000	10.548244
1472.000000	10.558469
1471.000000	10.559655
1470.000000	10.561535
1469.000000	10.567978
1468.000000	10.574605
1467.000000	10.580876
1466.000000	10.580856
1465.000000	10.618291
1464.000000	10.650962
1463.000000	10.659241
1462.000000	10.651567
1461.000000	10.676496
1460.000000	10.702973
1459.000000	10.688770
1458.000000	10.695529
1457.000000	10.705105
1456.000000	10.750073
1455.000000	10.787535
1454.000000	10.791455
1453.000000	10.781338
1452.000000	10.787668
1451.000000	10.807860
1450.000000	10.870674
1449.000000	10.885872
