PE IR       SUBTECH     SPECTRUM    ASCII       PEDS        4.00        
   -1
AD10-F003_1.ASC
23/09/08
10:49:19.00
23/09/08
11:14:38.00
uco
Sample 003 By uco Date Friday, September 08 2023
450.000000
#HDR
-1
-1
#GR
cm-1
%T
1.0
0.0
4000.000000
-1.000000
3551
8
100.276253
91.566808
#DATA
4000.000000	99.996020
3999.000000	99.994177
3998.000000	99.996683
3997.000000	99.996323
3996.000000	99.995584
3995.000000	99.994916
3994.000000	99.995373
3993.000000	99.997167
3992.000000	99.999179
3991.000000	99.999951
3990.000000	99.999155
3989.000000	99.997850
3988.000000	99.997359
3987.000000	99.998063
3986.000000	99.999252
3985.000000	99.999868
3984.000000	99.999246
3983.000000	99.997354
3982.000000	99.994734
3981.000000	99.992263
3980.000000	99.990735
3979.000000	99.990389
3978.000000	99.990782
3977.000000	99.991121
3976.000000	99.990792
3975.000000	99.989649
3974.000000	99.987893
3973.000000	99.985790
3972.000000	99.983394
3971.000000	99.980519
3970.000000	99.976867
3969.000000	99.972401
3968.000000	99.967708
3967.000000	99.963908
3966.000000	99.962138
3965.000000	99.962857
3964.000000	99.965431
3963.000000	99.968418
3962.000000	99.970432
3961.000000	99.971021
3960.000000	99.970897
3959.000000	99.971576
3958.000000	99.974275
3957.000000	99.978677
3956.000000	99.982499
3955.000000	99.982682
3954.000000	99.977952
3953.000000	99.970098
3952.000000	99.962637
3951.000000	99.958241
3950.000000	99.957046
3949.000000	99.957539
3948.000000	99.958730
3947.000000	99.961282
3946.000000	99.966856
3945.000000	99.975662
3944.000000	99.984735
3943.000000	99.989321
3942.000000	99.986191
3941.000000	99.976088
3940.000000	99.963309
3939.000000	99.953390
3938.000000	99.950218
3937.000000	99.954461
3936.000000	99.963492
3935.000000	99.972568
3934.000000	99.977368
3933.000000	99.976525
3932.000000	99.972213
3931.000000	99.967848
3930.000000	99.965144
3929.000000	99.964280
3928.000000	99.965187
3927.000000	99.967133
3926.000000	99.968627
3925.000000	99.969234
3924.000000	99.970474
3923.000000	99.973056
3922.000000	99.974817
3921.000000	99.972635
3920.000000	99.965956
3919.000000	99.958011
3918.000000	99.953396
3917.000000	99.954137
3916.000000	99.958008
3915.000000	99.961014
3914.000000	99.960328
3913.000000	99.956252
3912.000000	99.951783
3911.000000	99.950902
3910.000000	99.955415
3909.000000	99.963717
3908.000000	99.972292
3907.000000	99.977197
3906.000000	99.974886
3905.000000	99.964108
3904.000000	99.949163
3903.000000	99.938054
3902.000000	99.935407
3901.000000	99.939546
3900.000000	99.946021
3899.000000	99.951396
3898.000000	99.954264
3897.000000	99.954644
3896.000000	99.953253
3895.000000	99.951864
3894.000000	99.951935
3893.000000	99.953442
3892.000000	99.954826
3891.000000	99.954966
3890.000000	99.953956
3889.000000	99.954186
3888.000000	99.957811
3887.000000	99.962044
3886.000000	99.962354
3885.000000	99.959244
3884.000000	99.956459
3883.000000	99.955872
3882.000000	99.955648
3881.000000	99.953236
3880.000000	99.949845
3879.000000	99.948257
3878.000000	99.949666
3877.000000	99.954007
3876.000000	99.958664
3875.000000	99.959461
3874.000000	99.956183
3873.000000	99.953643
3872.000000	99.955011
3871.000000	99.957886
3870.000000	99.959474
3869.000000	99.961118
3868.000000	99.964444
3867.000000	99.968470
3866.000000	99.969228
3865.000000	99.963371
3864.000000	99.953034
3863.000000	99.943630
3862.000000	99.937865
3861.000000	99.936031
3860.000000	99.937335
3859.000000	99.940027
3858.000000	99.943234
3857.000000	99.948231
3856.000000	99.955980
3855.000000	99.961354
3854.000000	99.957097
3853.000000	99.952777
3852.000000	99.954953
3851.000000	99.955821
3850.000000	99.952770
3849.000000	99.949221
3848.000000	99.948120
3847.000000	99.950726
3846.000000	99.955936
3845.000000	99.961211
3844.000000	99.963763
3843.000000	99.962409
3842.000000	99.958218
3841.000000	99.953732
3840.000000	99.950293
3839.000000	99.948318
3838.000000	99.948621
3837.000000	99.950725
3836.000000	99.953054
3835.000000	99.955271
3834.000000	99.958106
3833.000000	99.961483
3832.000000	99.964416
3831.000000	99.966003
3830.000000	99.966357
3829.000000	99.966385
3828.000000	99.966179
3827.000000	99.964679
3826.000000	99.961258
3825.000000	99.957825
3824.000000	99.957310
3823.000000	99.959601
3822.000000	99.960147
3821.000000	99.958209
3820.000000	99.957122
3819.000000	99.956671
3818.000000	99.956179
3817.000000	99.954222
3816.000000	99.951926
3815.000000	99.952933
3814.000000	99.956550
3813.000000	99.958819
3812.000000	99.957449
3811.000000	99.954352
3810.000000	99.953884
3809.000000	99.957535
3808.000000	99.960433
3807.000000	99.957785
3806.000000	99.951581
3805.000000	99.948308
3804.000000	99.951896
3803.000000	99.959334
3802.000000	99.963877
3801.000000	99.964630
3800.000000	99.962739
3799.000000	99.958286
3798.000000	99.952200
3797.000000	99.945852
3796.000000	99.941682
3795.000000	99.941571
3794.000000	99.944671
3793.000000	99.948398
3792.000000	99.951140
3791.000000	99.953105
3790.000000	99.955185
3789.000000	99.957421
3788.000000	99.959154
3787.000000	99.960069
3786.000000	99.960842
3785.000000	99.962765
3784.000000	99.966299
3783.000000	99.970201
3782.000000	99.971979
3781.000000	99.969142
3780.000000	99.961328
3779.000000	99.952553
3778.000000	99.947227
3777.000000	99.945993
3776.000000	99.946606
3775.000000	99.946829
3774.000000	99.945997
3773.000000	99.944717
3772.000000	99.942918
3771.000000	99.939935
3770.000000	99.937390
3769.000000	99.938425
3768.000000	99.943763
3767.000000	99.951202
3766.000000	99.957840
3765.000000	99.961675
3764.000000	99.962312
3763.000000	99.960756
3762.000000	99.957572
3761.000000	99.952516
3760.000000	99.946237
3759.000000	99.940748
3758.000000	99.935695
3757.000000	99.929384
3756.000000	99.923593
3755.000000	99.922479
3754.000000	99.926879
3753.000000	99.932676
3752.000000	99.936317
3751.000000	99.940402
3750.000000	99.946875
3749.000000	99.950399
3748.000000	99.949992
3747.000000	99.951159
3746.000000	99.954349
3745.000000	99.954333
3744.000000	99.953066
3743.000000	99.953760
3742.000000	99.954604
3741.000000	99.955396
3740.000000	99.958120
3739.000000	99.964023
3738.000000	99.970411
3737.000000	99.970365
3736.000000	99.964421
3735.000000	99.964752
3734.000000	99.976688
3733.000000	99.989949
3732.000000	99.993640
3731.000000	99.986906
3730.000000	99.975915
3729.000000	99.966742
3728.000000	99.961679
3727.000000	99.959599
3726.000000	99.958443
3725.000000	99.955902
3724.000000	99.950733
3723.000000	99.945422
3722.000000	99.944877
3721.000000	99.952034
3720.000000	99.964225
3719.000000	99.974602
3718.000000	99.976762
3717.000000	99.969633
3716.000000	99.958813
3715.000000	99.951167
3714.000000	99.947735
3713.000000	99.943389
3712.000000	99.935702
3711.000000	99.932105
3710.000000	99.939761
3709.000000	99.955669
3708.000000	99.972003
3707.000000	99.983339
3706.000000	99.988937
3705.000000	99.991450
3704.000000	99.993114
3703.000000	99.993661
3702.000000	99.992299
3701.000000	99.990162
3700.000000	99.989240
3699.000000	99.990346
3698.000000	99.992131
3697.000000	99.991394
3696.000000	99.985568
3695.000000	99.974373
3694.000000	99.959653
3693.000000	99.945372
3692.000000	99.936811
3691.000000	99.938184
3690.000000	99.949051
3689.000000	99.963557
3688.000000	99.973381
3687.000000	99.975403
3686.000000	99.974881
3685.000000	99.976584
3684.000000	99.979235
3683.000000	99.978751
3682.000000	99.972968
3681.000000	99.962256
3680.000000	99.949768
3679.000000	99.941739
3678.000000	99.943629
3677.000000	99.954212
3676.000000	99.967150
3675.000000	99.979506
3674.000000	99.987456
3673.000000	99.990678
3672.000000	99.991781
3671.000000	99.989216
3670.000000	99.983427
3669.000000	99.980649
3668.000000	99.982043
3667.000000	99.984313
3666.000000	99.985310
3665.000000	99.984337
3664.000000	99.981935
3663.000000	99.979291
3662.000000	99.976837
3661.000000	99.974233
3660.000000	99.972597
3659.000000	99.974148
3658.000000	99.979336
3657.000000	99.985208
3656.000000	99.988766
3655.000000	99.989682
3654.000000	99.990516
3653.000000	99.994606
3652.000000	100.001154
3651.000000	100.004621
3650.000000	100.002891
3649.000000	100.001999
3648.000000	100.002761
3647.000000	99.998236
3646.000000	99.986811
3645.000000	99.973342
3644.000000	99.961670
3643.000000	99.952163
3642.000000	99.943889
3641.000000	99.937119
3640.000000	99.933414
3639.000000	99.933733
3638.000000	99.937916
3637.000000	99.945151
3636.000000	99.953650
3635.000000	99.960388
3634.000000	99.963304
3633.000000	99.964241
3632.000000	99.967031
3631.000000	99.971242
3630.000000	99.969502
3629.000000	99.960389
3628.000000	99.953468
3627.000000	99.950952
3626.000000	99.950090
3625.000000	99.950631
3624.000000	99.953863
3623.000000	99.961427
3622.000000	99.973569
3621.000000	99.986575
3620.000000	99.994225
3619.000000	99.993950
3618.000000	99.988715
3617.000000	99.982517
3616.000000	99.977875
3615.000000	99.974269
3614.000000	99.968999
3613.000000	99.961200
3612.000000	99.953819
3611.000000	99.950983
3610.000000	99.954181
3609.000000	99.961619
3608.000000	99.970010
3607.000000	99.975975
3606.000000	99.977473
3605.000000	99.974741
3604.000000	99.969663
3603.000000	99.964070
3602.000000	99.959885
3601.000000	99.959258
3600.000000	99.963006
3599.000000	99.968344
3598.000000	99.970313
3597.000000	99.965553
3596.000000	99.955130
3595.000000	99.944174
3594.000000	99.938770
3593.000000	99.941718
3592.000000	99.951043
3591.000000	99.962572
3590.000000	99.971246
3589.000000	99.972254
3588.000000	99.965750
3587.000000	99.959020
3586.000000	99.956817
3585.000000	99.957455
3584.000000	99.958863
3583.000000	99.960320
3582.000000	99.961145
3581.000000	99.960407
3580.000000	99.957546
3579.000000	99.952736
3578.000000	99.946649
3577.000000	99.940344
3576.000000	99.934918
3575.000000	99.931169
3574.000000	99.928966
3573.000000	99.927472
3572.000000	99.926380
3571.000000	99.926634
3570.000000	99.929022
3569.000000	99.931572
3568.000000	99.931014
3567.000000	99.927410
3566.000000	99.922735
3565.000000	99.916894
3564.000000	99.911129
3563.000000	99.909061
3562.000000	99.913512
3561.000000	99.924281
3560.000000	99.937958
3559.000000	99.949722
3558.000000	99.956061
3557.000000	99.955965
3556.000000	99.950049
3555.000000	99.939359
3554.000000	99.925585
3553.000000	99.912232
3552.000000	99.903940
3551.000000	99.902840
3550.000000	99.906533
3549.000000	99.910394
3548.000000	99.911156
3547.000000	99.909408
3546.000000	99.908824
3545.000000	99.911874
3544.000000	99.916934
3543.000000	99.920649
3542.000000	99.921278
3541.000000	99.919671
3540.000000	99.918087
3539.000000	99.918287
3538.000000	99.920327
3537.000000	99.922513
3536.000000	99.922896
3535.000000	99.920656
3534.000000	99.916812
3533.000000	99.913507
3532.000000	99.912446
3531.000000	99.913598
3530.000000	99.915284
3529.000000	99.915802
3528.000000	99.915098
3527.000000	99.914384
3526.000000	99.914161
3525.000000	99.913357
3524.000000	99.910358
3523.000000	99.904687
3522.000000	99.897799
3521.000000	99.892584
3520.000000	99.891618
3519.000000	99.894636
3518.000000	99.897877
3517.000000	99.896778
3516.000000	99.890259
3515.000000	99.881848
3514.000000	99.876545
3513.000000	99.876859
3512.000000	99.881958
3511.000000	99.889640
3510.000000	99.898183
3509.000000	99.906278
3508.000000	99.912440
3507.000000	99.915426
3506.000000	99.914905
3505.000000	99.911212
3504.000000	99.905522
3503.000000	99.900052
3502.000000	99.896716
3501.000000	99.895395
3500.000000	99.894424
3499.000000	99.892950
3498.000000	99.892281
3497.000000	99.894506
3496.000000	99.899129
3495.000000	99.902092
3494.000000	99.899603
3493.000000	99.892745
3492.000000	99.886685
3491.000000	99.885119
3490.000000	99.886728
3489.000000	99.887713
3488.000000	99.886748
3487.000000	99.885901
3486.000000	99.886917
3485.000000	99.888397
3484.000000	99.887664
3483.000000	99.884584
3482.000000	99.882589
3481.000000	99.885127
3480.000000	99.891471
3479.000000	99.896924
3478.000000	99.897286
3477.000000	99.892387
3476.000000	99.885252
3475.000000	99.878501
3474.000000	99.872314
3473.000000	99.866091
3472.000000	99.860807
3471.000000	99.858466
3470.000000	99.859514
3469.000000	99.862065
3468.000000	99.863855
3467.000000	99.864490
3466.000000	99.865566
3465.000000	99.868931
3464.000000	99.874984
3463.000000	99.882238
3462.000000	99.888372
3461.000000	99.891829
3460.000000	99.892470
3459.000000	99.890838
3458.000000	99.887422
3457.000000	99.882974
3456.000000	99.879198
3455.000000	99.877888
3454.000000	99.879188
3453.000000	99.881236
3452.000000	99.881902
3451.000000	99.880555
3450.000000	99.877975
3449.000000	99.875418
3448.000000	99.874419
3447.000000	99.876578
3446.000000	99.881915
3445.000000	99.887910
3444.000000	99.891286
3443.000000	99.890733
3442.000000	99.887671
3441.000000	99.884421
3440.000000	99.881792
3439.000000	99.878347
3438.000000	99.871891
3437.000000	99.861898
3436.000000	99.850965
3435.000000	99.843347
3434.000000	99.841411
3433.000000	99.843463
3432.000000	99.845597
3431.000000	99.845585
3430.000000	99.844342
3429.000000	99.844139
3428.000000	99.846397
3427.000000	99.851232
3426.000000	99.857635
3425.000000	99.863231
3424.000000	99.864709
3423.000000	99.859966
3422.000000	99.850446
3421.000000	99.840900
3420.000000	99.835889
3419.000000	99.836093
3418.000000	99.838359
3417.000000	99.839273
3416.000000	99.838064
3415.000000	99.836033
3414.000000	99.833903
3413.000000	99.830921
3412.000000	99.826848
3411.000000	99.823599
3410.000000	99.823798
3409.000000	99.828004
3408.000000	99.834116
3407.000000	99.839280
3406.000000	99.841739
3405.000000	99.841200
3404.000000	99.838622
3403.000000	99.835820
3402.000000	99.834217
3401.000000	99.833197
3400.000000	99.830055
3399.000000	99.822561
3398.000000	99.811936
3397.000000	99.802723
3396.000000	99.799010
3395.000000	99.800896
3394.000000	99.805007
3393.000000	99.808120
3392.000000	99.809606
3391.000000	99.810344
3390.000000	99.810517
3389.000000	99.809515
3388.000000	99.807349
3387.000000	99.804909
3386.000000	99.802783
3385.000000	99.800689
3384.000000	99.798365
3383.000000	99.796223
3382.000000	99.794821
3381.000000	99.794232
3380.000000	99.794102
3379.000000	99.793758
3378.000000	99.792160
3377.000000	99.788616
3376.000000	99.783858
3375.000000	99.779791
3374.000000	99.777666
3373.000000	99.776970
3372.000000	99.776344
3371.000000	99.774908
3370.000000	99.772342
3369.000000	99.768682
3368.000000	99.765060
3367.000000	99.763895
3366.000000	99.766690
3365.000000	99.771390
3364.000000	99.773317
3363.000000	99.769576
3362.000000	99.762118
3361.000000	99.755999
3360.000000	99.754695
3359.000000	99.757182
3358.000000	99.759223
3357.000000	99.757202
3356.000000	99.751034
3355.000000	99.743908
3354.000000	99.739484
3353.000000	99.739336
3352.000000	99.742609
3351.000000	99.747102
3350.000000	99.750089
3349.000000	99.748977
3348.000000	99.742818
3347.000000	99.733690
3346.000000	99.725662
3345.000000	99.721449
3344.000000	99.720239
3343.000000	99.719145
3342.000000	99.716325
3341.000000	99.711996
3340.000000	99.707091
3339.000000	99.702411
3338.000000	99.699360
3337.000000	99.700052
3336.000000	99.705171
3335.000000	99.711905
3334.000000	99.715295
3333.000000	99.712427
3332.000000	99.704998
3331.000000	99.697549
3330.000000	99.693504
3329.000000	99.693022
3328.000000	99.694051
3327.000000	99.694624
3326.000000	99.694135
3325.000000	99.693093
3324.000000	99.692214
3323.000000	99.691688
3322.000000	99.691028
3321.000000	99.689632
3320.000000	99.687528
3319.000000	99.685417
3318.000000	99.683770
3317.000000	99.681987
3316.000000	99.678874
3315.000000	99.674338
3314.000000	99.670363
3313.000000	99.669388
3312.000000	99.671119
3311.000000	99.671513
3310.000000	99.666258
3309.000000	99.655923
3308.000000	99.646787
3307.000000	99.645395
3306.000000	99.652342
3305.000000	99.661798
3304.000000	99.666608
3303.000000	99.663460
3302.000000	99.654118
3301.000000	99.643202
3300.000000	99.635155
3299.000000	99.632069
3298.000000	99.633242
3297.000000	99.636799
3296.000000	99.641854
3295.000000	99.648704
3294.000000	99.656777
3293.000000	99.663340
3292.000000	99.665205
3291.000000	99.661669
3290.000000	99.655282
3289.000000	99.649672
3288.000000	99.646824
3287.000000	99.646273
3286.000000	99.646410
3285.000000	99.646229
3284.000000	99.645698
3283.000000	99.644738
3282.000000	99.642687
3281.000000	99.639488
3280.000000	99.636802
3279.000000	99.636521
3278.000000	99.638055
3277.000000	99.638214
3276.000000	99.634552
3275.000000	99.628089
3274.000000	99.622015
3273.000000	99.618551
3272.000000	99.617784
3271.000000	99.618726
3270.000000	99.620203
3269.000000	99.620905
3268.000000	99.619923
3267.000000	99.617675
3266.000000	99.615861
3265.000000	99.616335
3264.000000	99.619973
3263.000000	99.626127
3262.000000	99.632510
3261.000000	99.636065
3260.000000	99.634957
3259.000000	99.630044
3258.000000	99.624048
3257.000000	99.619354
3256.000000	99.616966
3255.000000	99.617155
3254.000000	99.620111
3253.000000	99.625545
3252.000000	99.632237
3251.000000	99.638331
3250.000000	99.642078
3249.000000	99.642645
3248.000000	99.640797
3247.000000	99.638697
3246.000000	99.638346
3245.000000	99.639882
3244.000000	99.641638
3243.000000	99.641944
3242.000000	99.640537
3241.000000	99.638597
3240.000000	99.637985
3239.000000	99.640145
3238.000000	99.644685
3237.000000	99.648810
3236.000000	99.649271
3235.000000	99.645582
3234.000000	99.640651
3233.000000	99.637693
3232.000000	99.637146
3231.000000	99.637295
3230.000000	99.637203
3229.000000	99.637624
3228.000000	99.639080
3227.000000	99.640308
3226.000000	99.639515
3225.000000	99.636678
3224.000000	99.633850
3223.000000	99.633147
3222.000000	99.634843
3221.000000	99.637589
3220.000000	99.639992
3219.000000	99.641474
3218.000000	99.641698
3217.000000	99.640028
3216.000000	99.636367
3215.000000	99.632285
3214.000000	99.630232
3213.000000	99.631088
3212.000000	99.633151
3211.000000	99.634136
3210.000000	99.633825
3209.000000	99.634080
3208.000000	99.636470
3207.000000	99.640377
3206.000000	99.643409
3205.000000	99.643334
3204.000000	99.639849
3203.000000	99.635077
3202.000000	99.632129
3201.000000	99.632628
3200.000000	99.635419
3199.000000	99.637921
3198.000000	99.638563
3197.000000	99.637460
3196.000000	99.635143
3195.000000	99.631727
3194.000000	99.627694
3193.000000	99.624603
3192.000000	99.624200
3191.000000	99.626864
3190.000000	99.631202
3189.000000	99.635127
3188.000000	99.637297
3187.000000	99.637862
3186.000000	99.637938
3185.000000	99.638079
3184.000000	99.637352
3183.000000	99.634569
3182.000000	99.630477
3181.000000	99.627792
3180.000000	99.628407
3179.000000	99.631186
3178.000000	99.633186
3177.000000	99.632824
3176.000000	99.631175
3175.000000	99.630451
3174.000000	99.632028
3173.000000	99.635753
3172.000000	99.640117
3171.000000	99.642944
3170.000000	99.642833
3169.000000	99.640621
3168.000000	99.639046
3167.000000	99.640417
3166.000000	99.644546
3165.000000	99.648932
3164.000000	99.650787
3163.000000	99.649042
3162.000000	99.645060
3161.000000	99.641685
3160.000000	99.641204
3159.000000	99.643662
3158.000000	99.646995
3157.000000	99.648908
3156.000000	99.648580
3155.000000	99.646806
3154.000000	99.645086
3153.000000	99.644939
3152.000000	99.647525
3151.000000	99.653044
3150.000000	99.660064
3149.000000	99.665834
3148.000000	99.667818
3147.000000	99.665308
3146.000000	99.659779
