PE IR       SUBTECH     SPECTRUM    ASCII       PEDS        4.00        
   -1
AD10-C007_1.ASC
23/09/08
11:04:03.00
23/09/08
11:14:38.00
uco
Sample 007 By uco Date Friday, September 08 2023
450.000000
#HDR
-1
-1
#GR
cm-1
%T
1.0
0.0
4000.000000
-1.000000
3551
8
100.237651
91.510654
#DATA
4000.000000	100.020432
3999.000000	100.022511
3998.000000	100.024020
3997.000000	100.024506
3996.000000	100.023848
3995.000000	100.022153
3994.000000	100.019984
3993.000000	100.017768
3992.000000	100.015419
3991.000000	100.012606
3990.000000	100.009460
3989.000000	100.006730
3988.000000	100.005166
3987.000000	100.004823
3986.000000	100.005040
3985.000000	100.005000
3984.000000	100.004237
3983.000000	100.002698
3982.000000	100.000622
3981.000000	99.998495
3980.000000	99.996950
3979.000000	99.996432
3978.000000	99.996912
3977.000000	99.997917
3976.000000	99.998904
3975.000000	99.999664
3974.000000	100.000401
3973.000000	100.001502
3972.000000	100.002942
3971.000000	100.003808
3970.000000	100.002704
3969.000000	99.999085
3968.000000	99.994458
3967.000000	99.991525
3966.000000	99.991720
3965.000000	99.993709
3964.000000	99.994646
3963.000000	99.993027
3962.000000	99.990127
3961.000000	99.988616
3960.000000	99.989712
3959.000000	99.992375
3958.000000	99.994792
3957.000000	99.995656
3956.000000	99.994314
3955.000000	99.990236
3954.000000	99.983527
3953.000000	99.975633
3952.000000	99.968699
3951.000000	99.964260
3950.000000	99.962311
3949.000000	99.962062
3948.000000	99.963298
3947.000000	99.966819
3946.000000	99.973803
3945.000000	99.983650
3944.000000	99.992406
3943.000000	99.994783
3942.000000	99.988677
3941.000000	99.977789
3940.000000	99.968516
3939.000000	99.964868
3938.000000	99.966685
3937.000000	99.971243
3936.000000	99.975969
3935.000000	99.978931
3934.000000	99.978585
3933.000000	99.974788
3932.000000	99.969383
3931.000000	99.964953
3930.000000	99.962202
3929.000000	99.960523
3928.000000	99.960517
3927.000000	99.963070
3926.000000	99.966737
3925.000000	99.967827
3924.000000	99.964690
3923.000000	99.959877
3922.000000	99.956589
3921.000000	99.954971
3920.000000	99.953716
3919.000000	99.953676
3918.000000	99.957829
3917.000000	99.966742
3916.000000	99.976165
3915.000000	99.981138
3914.000000	99.980341
3913.000000	99.976340
3912.000000	99.972846
3911.000000	99.972132
3910.000000	99.973851
3909.000000	99.975642
3908.000000	99.975604
3907.000000	99.972379
3906.000000	99.963982
3905.000000	99.947947
3904.000000	99.925869
3903.000000	99.906746
3902.000000	99.900874
3901.000000	99.910089
3900.000000	99.926515
3899.000000	99.939998
3898.000000	99.946550
3897.000000	99.948722
3896.000000	99.949406
3895.000000	99.949646
3894.000000	99.950240
3893.000000	99.951880
3892.000000	99.953118
3891.000000	99.950153
3890.000000	99.942131
3889.000000	99.933998
3888.000000	99.931465
3887.000000	99.934423
3886.000000	99.937993
3885.000000	99.939370
3884.000000	99.941574
3883.000000	99.948355
3882.000000	99.958110
3881.000000	99.964499
3880.000000	99.962970
3879.000000	99.955705
3878.000000	99.949775
3877.000000	99.950295
3876.000000	99.956004
3875.000000	99.959588
3874.000000	99.954369
3873.000000	99.942312
3872.000000	99.931332
3871.000000	99.924997
3870.000000	99.920080
3869.000000	99.915350
3868.000000	99.916361
3867.000000	99.927090
3866.000000	99.941991
3865.000000	99.950724
3864.000000	99.949612
3863.000000	99.944119
3862.000000	99.940005
3861.000000	99.937918
3860.000000	99.936389
3859.000000	99.933021
3858.000000	99.926616
3857.000000	99.918495
3856.000000	99.913519
3855.000000	99.915742
3854.000000	99.919739
3853.000000	99.920495
3852.000000	99.921669
3851.000000	99.926900
3850.000000	99.934752
3849.000000	99.942265
3848.000000	99.947744
3847.000000	99.951930
3846.000000	99.955448
3845.000000	99.957949
3844.000000	99.958238
3843.000000	99.954868
3842.000000	99.948235
3841.000000	99.941487
3840.000000	99.937387
3839.000000	99.935572
3838.000000	99.934988
3837.000000	99.935402
3836.000000	99.937779
3835.000000	99.943057
3834.000000	99.950991
3833.000000	99.959909
3832.000000	99.967531
3831.000000	99.972424
3830.000000	99.975792
3829.000000	99.979944
3828.000000	99.984776
3827.000000	99.985563
3826.000000	99.977090
3825.000000	99.961405
3824.000000	99.948088
3823.000000	99.946302
3822.000000	99.955410
3821.000000	99.965038
3820.000000	99.968017
3819.000000	99.967706
3818.000000	99.970160
3817.000000	99.973234
3816.000000	99.970952
3815.000000	99.964458
3814.000000	99.961143
3813.000000	99.963228
3812.000000	99.964882
3811.000000	99.961921
3810.000000	99.957441
3809.000000	99.957206
3808.000000	99.959849
3807.000000	99.956981
3806.000000	99.945562
3805.000000	99.934289
3804.000000	99.932901
3803.000000	99.941860
3802.000000	99.951644
3801.000000	99.954093
3800.000000	99.952602
3799.000000	99.956462
3798.000000	99.966929
3797.000000	99.976634
3796.000000	99.979177
3795.000000	99.976573
3794.000000	99.975049
3793.000000	99.976628
3792.000000	99.978388
3791.000000	99.978351
3790.000000	99.977984
3789.000000	99.979820
3788.000000	99.984938
3787.000000	99.992518
3786.000000	100.000437
3785.000000	100.006014
3784.000000	100.007353
3783.000000	100.004736
3782.000000	99.999817
3781.000000	99.993175
3780.000000	99.984455
3779.000000	99.975559
3778.000000	99.970680
3777.000000	99.972319
3776.000000	99.978329
3775.000000	99.983315
3774.000000	99.983399
3773.000000	99.979232
3772.000000	99.973439
3771.000000	99.966485
3770.000000	99.958129
3769.000000	99.951123
3768.000000	99.950477
3767.000000	99.957597
3766.000000	99.967599
3765.000000	99.972974
3764.000000	99.970764
3763.000000	99.964674
3762.000000	99.959019
3761.000000	99.953842
3760.000000	99.947364
3759.000000	99.939956
3758.000000	99.932711
3757.000000	99.925567
3756.000000	99.919851
3755.000000	99.918095
3754.000000	99.919281
3753.000000	99.916859
3752.000000	99.905067
3751.000000	99.887862
3750.000000	99.874774
3749.000000	99.868616
3748.000000	99.869743
3747.000000	99.882052
3746.000000	99.905510
3745.000000	99.927101
3744.000000	99.932110
3743.000000	99.926478
3742.000000	99.925935
3741.000000	99.932363
3740.000000	99.939258
3739.000000	99.943489
3738.000000	99.946990
3737.000000	99.949463
3736.000000	99.950536
3735.000000	99.955365
3734.000000	99.966733
3733.000000	99.978180
3732.000000	99.980994
3731.000000	99.973715
3730.000000	99.962437
3729.000000	99.954116
3728.000000	99.951534
3727.000000	99.952734
3726.000000	99.954644
3725.000000	99.956880
3724.000000	99.960620
3723.000000	99.965964
3722.000000	99.970976
3721.000000	99.974200
3720.000000	99.975700
3719.000000	99.975557
3718.000000	99.972804
3717.000000	99.966990
3716.000000	99.961513
3715.000000	99.960698
3714.000000	99.963212
3713.000000	99.961109
3712.000000	99.949470
3711.000000	99.937064
3710.000000	99.937962
3709.000000	99.954128
3708.000000	99.976273
3707.000000	99.994337
3706.000000	100.004149
3705.000000	100.009003
3704.000000	100.014312
3703.000000	100.021790
3702.000000	100.027923
3701.000000	100.028811
3700.000000	100.025676
3699.000000	100.023560
3698.000000	100.024728
3697.000000	100.025658
3696.000000	100.021230
3695.000000	100.009976
3694.000000	99.994840
3693.000000	99.981004
3692.000000	99.973807
3691.000000	99.975180
3690.000000	99.980032
3689.000000	99.979172
3688.000000	99.970280
3687.000000	99.961850
3686.000000	99.963538
3685.000000	99.975301
3684.000000	99.988151
3683.000000	99.993733
3682.000000	99.990896
3681.000000	99.982672
3680.000000	99.970697
3679.000000	99.957060
3678.000000	99.947194
3677.000000	99.946534
3676.000000	99.951942
3675.000000	99.953742
3674.000000	99.947114
3673.000000	99.940093
3672.000000	99.940872
3671.000000	99.949482
3670.000000	99.961302
3669.000000	99.972678
3668.000000	99.982612
3667.000000	99.991482
3666.000000	99.998115
3665.000000	100.000914
3664.000000	100.000419
3663.000000	99.999115
3662.000000	99.998499
3661.000000	99.997714
3660.000000	99.996265
3659.000000	99.995753
3658.000000	99.997315
3657.000000	99.998202
3656.000000	99.993518
3655.000000	99.983277
3654.000000	99.973038
3653.000000	99.968102
3652.000000	99.968540
3651.000000	99.969630
3650.000000	99.967872
3649.000000	99.967165
3648.000000	99.970484
3647.000000	99.972888
3646.000000	99.970993
3645.000000	99.967561
3644.000000	99.966594
3643.000000	99.969420
3642.000000	99.974884
3641.000000	99.980859
3640.000000	99.986024
3639.000000	99.989528
3638.000000	99.990866
3637.000000	99.991258
3636.000000	99.992586
3635.000000	99.993806
3634.000000	99.990082
3633.000000	99.978493
3632.000000	99.962066
3631.000000	99.947353
3630.000000	99.939209
3629.000000	99.940616
3628.000000	99.951690
3627.000000	99.967133
3626.000000	99.982755
3625.000000	99.995571
3624.000000	100.004657
3623.000000	100.012558
3622.000000	100.023026
3621.000000	100.035840
3620.000000	100.044846
3619.000000	100.042815
3618.000000	100.029070
3617.000000	100.010200
3616.000000	99.993920
3615.000000	99.983128
3614.000000	99.974819
3613.000000	99.964374
3612.000000	99.951186
3611.000000	99.939871
3610.000000	99.935559
3609.000000	99.940570
3608.000000	99.953865
3607.000000	99.971271
3606.000000	99.987583
3605.000000	99.998940
3604.000000	100.004011
3603.000000	100.003609
3602.000000	100.000487
3601.000000	99.998783
3600.000000	100.001664
3599.000000	100.008314
3598.000000	100.013434
3597.000000	100.011274
3596.000000	100.001070
3595.000000	99.989192
3594.000000	99.984000
3593.000000	99.988295
3592.000000	99.996912
3591.000000	100.002975
3590.000000	100.003137
3589.000000	99.998516
3588.000000	99.993461
3587.000000	99.992871
3586.000000	99.996619
3585.000000	100.001607
3584.000000	100.006120
3583.000000	100.009039
3582.000000	100.008860
3581.000000	100.005100
3580.000000	99.999054
3579.000000	99.993582
3578.000000	99.991302
3577.000000	99.993279
3576.000000	99.998614
3575.000000	100.005009
3574.000000	100.009794
3573.000000	100.010704
3572.000000	100.007197
3571.000000	100.000808
3570.000000	99.994765
3569.000000	99.991473
3568.000000	99.991607
3567.000000	99.994378
3566.000000	99.996828
3565.000000	99.995036
3564.000000	99.989522
3563.000000	99.984299
3562.000000	99.982939
3561.000000	99.986754
3560.000000	99.994849
3559.000000	100.004701
3558.000000	100.013686
3557.000000	100.019759
3556.000000	100.021617
3555.000000	100.018543
3554.000000	100.010896
3553.000000	100.000751
3552.000000	99.991760
3551.000000	99.986759
3550.000000	99.985577
3549.000000	99.985573
3548.000000	99.984147
3547.000000	99.981574
3546.000000	99.981193
3545.000000	99.985925
3544.000000	99.995204
3543.000000	100.006101
3542.000000	100.015365
3541.000000	100.020537
3540.000000	100.020957
3539.000000	100.018144
3538.000000	100.014699
3537.000000	100.011863
3536.000000	100.008737
3535.000000	100.004358
3534.000000	100.000041
3533.000000	99.998891
3532.000000	100.002486
3531.000000	100.008919
3530.000000	100.013953
3529.000000	100.014543
3528.000000	100.011153
3527.000000	100.006784
3526.000000	100.004004
3525.000000	100.003568
3524.000000	100.004948
3523.000000	100.007079
3522.000000	100.008884
3521.000000	100.010124
3520.000000	100.011700
3519.000000	100.014031
3518.000000	100.015522
3517.000000	100.013764
3516.000000	100.008436
3515.000000	100.002233
3514.000000	99.998163
3513.000000	99.996945
3512.000000	99.997477
3511.000000	99.999159
3510.000000	100.002304
3509.000000	100.006171
3508.000000	100.008219
3507.000000	100.006504
3506.000000	100.002007
3505.000000	99.997673
3504.000000	99.996180
3503.000000	99.998293
3502.000000	100.002442
3501.000000	100.005984
3500.000000	100.007212
3499.000000	100.006515
3498.000000	100.005918
3497.000000	100.007621
3496.000000	100.011823
3495.000000	100.015859
3494.000000	100.015962
3493.000000	100.010512
3492.000000	100.001476
3491.000000	99.992632
3490.000000	99.986515
3489.000000	99.983052
3488.000000	99.980774
3487.000000	99.978811
3486.000000	99.977404
3485.000000	99.976871
3484.000000	99.976973
3483.000000	99.977760
3482.000000	99.980295
3481.000000	99.985411
3480.000000	99.991839
3479.000000	99.996710
3478.000000	99.998405
3477.000000	99.997920
3476.000000	99.997026
3475.000000	99.995710
3474.000000	99.992567
3473.000000	99.987689
3472.000000	99.983827
3471.000000	99.983910
3470.000000	99.987852
3469.000000	99.992392
3468.000000	99.993839
3467.000000	99.991091
3466.000000	99.986738
3465.000000	99.985326
3464.000000	99.989808
3463.000000	99.998896
3462.000000	100.007969
3461.000000	100.012986
3460.000000	100.013385
3459.000000	100.011253
3458.000000	100.008646
3457.000000	100.006258
3456.000000	100.004030
3455.000000	100.001963
3454.000000	100.000073
3453.000000	99.998290
3452.000000	99.996548
3451.000000	99.995148
3450.000000	99.994587
3449.000000	99.995216
3448.000000	99.997010
3447.000000	99.999396
3446.000000	100.000846
3445.000000	99.999350
3444.000000	99.993896
3443.000000	99.985688
3442.000000	99.977928
3441.000000	99.973878
3440.000000	99.974714
3439.000000	99.978915
3438.000000	99.983625
3437.000000	99.986812
3436.000000	99.988487
3435.000000	99.989975
3434.000000	99.991797
3433.000000	99.992607
3432.000000	99.990421
3431.000000	99.985068
3430.000000	99.978787
3429.000000	99.974466
3428.000000	99.973544
3427.000000	99.975343
3426.000000	99.977667
3425.000000	99.977834
3424.000000	99.974118
3423.000000	99.967180
3422.000000	99.960282
3421.000000	99.957466
3420.000000	99.960507
3419.000000	99.967135
3418.000000	99.972399
3417.000000	99.972283
3416.000000	99.966514
3415.000000	99.958421
3414.000000	99.952102
3413.000000	99.949533
3412.000000	99.950113
3411.000000	99.952232
3410.000000	99.954809
3409.000000	99.957765
3408.000000	99.961625
3407.000000	99.966435
3406.000000	99.970828
3405.000000	99.972559
3404.000000	99.970515
3403.000000	99.965909
3402.000000	99.960881
3401.000000	99.956380
3400.000000	99.951925
3399.000000	99.947284
3398.000000	99.943464
3397.000000	99.941777
3396.000000	99.942294
3395.000000	99.943608
3394.000000	99.944083
3393.000000	99.943269
3392.000000	99.942236
3391.000000	99.942523
3390.000000	99.944675
3389.000000	99.947593
3388.000000	99.949009
3387.000000	99.946672
3386.000000	99.939681
3385.000000	99.929304
3384.000000	99.918475
3383.000000	99.910117
3382.000000	99.905659
3381.000000	99.904975
3380.000000	99.906999
3379.000000	99.910167
3378.000000	99.912813
3377.000000	99.914006
3376.000000	99.913926
3375.000000	99.913085
3374.000000	99.911626
3373.000000	99.909855
3372.000000	99.908708
3371.000000	99.908520
3370.000000	99.907666
3369.000000	99.903816
3368.000000	99.897013
3367.000000	99.890358
3366.000000	99.886778
3365.000000	99.885821
3364.000000	99.884596
3363.000000	99.881397
3362.000000	99.877475
3361.000000	99.875329
3360.000000	99.875969
3359.000000	99.878114
3358.000000	99.879598
3357.000000	99.879009
3356.000000	99.875985
3355.000000	99.870526
3354.000000	99.862951
3353.000000	99.854841
3352.000000	99.849231
3351.000000	99.848537
3350.000000	99.852029
3349.000000	99.856091
3348.000000	99.857465
3347.000000	99.855885
3346.000000	99.853420
3345.000000	99.851938
3344.000000	99.851580
3343.000000	99.851142
3342.000000	99.849095
3341.000000	99.844475
3340.000000	99.837666
3339.000000	99.830654
3338.000000	99.826060
3337.000000	99.825301
3336.000000	99.827307
3335.000000	99.829057
3334.000000	99.827808
3333.000000	99.823341
3332.000000	99.818262
3331.000000	99.816001
3330.000000	99.818126
3329.000000	99.823123
3328.000000	99.827344
3327.000000	99.827210
3326.000000	99.821459
3325.000000	99.812327
3324.000000	99.804449
3323.000000	99.801589
3322.000000	99.803834
3321.000000	99.808192
3320.000000	99.811685
3319.000000	99.813287
3318.000000	99.813027
3317.000000	99.810504
3316.000000	99.805202
3315.000000	99.797935
3314.000000	99.791069
3313.000000	99.786923
3312.000000	99.785910
3311.000000	99.786144
3310.000000	99.785050
3309.000000	99.781778
3308.000000	99.778045
3307.000000	99.776264
3306.000000	99.777053
3305.000000	99.778912
3304.000000	99.779814
3303.000000	99.778256
3302.000000	99.773261
3301.000000	99.764881
3300.000000	99.755229
3299.000000	99.747806
3298.000000	99.744899
3297.000000	99.746208
3296.000000	99.750179
3295.000000	99.755679
3294.000000	99.761615
3293.000000	99.766129
3292.000000	99.767627
3291.000000	99.766337
3290.000000	99.763910
3289.000000	99.761664
3288.000000	99.759933
3287.000000	99.758732
3286.000000	99.758069
3285.000000	99.757624
3284.000000	99.756774
3283.000000	99.754908
3282.000000	99.751687
3281.000000	99.747663
3280.000000	99.745069
3279.000000	99.746712
3278.000000	99.752754
3277.000000	99.758961
3276.000000	99.759570
3275.000000	99.752374
3274.000000	99.740321
3273.000000	99.728504
3272.000000	99.720611
3271.000000	99.717902
3270.000000	99.719797
3269.000000	99.724319
3268.000000	99.728749
3267.000000	99.731034
3266.000000	99.730969
3265.000000	99.730183
3264.000000	99.730986
3263.000000	99.734816
3262.000000	99.741089
3261.000000	99.747304
3260.000000	99.750663
3259.000000	99.749826
3258.000000	99.745392
3257.000000	99.739251
3256.000000	99.733918
3255.000000	99.731805
3254.000000	99.733833
3253.000000	99.738347
3252.000000	99.742065
3251.000000	99.742651
3250.000000	99.740389
3249.000000	99.737523
3248.000000	99.736312
3247.000000	99.737576
3246.000000	99.740390
3245.000000	99.742821
3244.000000	99.743114
3243.000000	99.740555
3242.000000	99.735661
3241.000000	99.730132
3240.000000	99.726625
3239.000000	99.727476
3238.000000	99.732687
3237.000000	99.739377
3236.000000	99.744090
3235.000000	99.745649
3234.000000	99.745093
3233.000000	99.743266
3232.000000	99.739759
3231.000000	99.734648
3230.000000	99.729909
3229.000000	99.727997
3228.000000	99.729455
3227.000000	99.732655
3226.000000	99.735710
3225.000000	99.737832
3224.000000	99.738982
3223.000000	99.739071
3222.000000	99.737930
3221.000000	99.735776
3220.000000	99.733274
3219.000000	99.730967
3218.000000	99.728808
3217.000000	99.726546
3216.000000	99.724708
3215.000000	99.724974
3214.000000	99.728823
3213.000000	99.735441
3212.000000	99.741551
3211.000000	99.743914
3210.000000	99.742037
3209.000000	99.738090
3208.000000	99.734657
3207.000000	99.732844
3206.000000	99.732277
3205.000000	99.732105
3204.000000	99.731943
3203.000000	99.732314
3202.000000	99.734128
3201.000000	99.737253
3200.000000	99.739845
3199.000000	99.739811
3198.000000	99.737003
3197.000000	99.733202
3196.000000	99.730031
3195.000000	99.727831
3194.000000	99.726784
3193.000000	99.727540
3192.000000	99.729812
3191.000000	99.731450
3190.000000	99.730420
3189.000000	99.727438
3188.000000	99.725317
3187.000000	99.725557
3186.000000	99.726700
3185.000000	99.726244
3184.000000	99.723510
3183.000000	99.720118
3182.000000	99.718408
3181.000000	99.719648
3180.000000	99.723310
3179.000000	99.727633
3178.000000	99.731100
3177.000000	99.733542
3176.000000	99.735699
3175.000000	99.737859
3174.000000	99.739403
3173.000000	99.739542
3172.000000	99.737824
3171.000000	99.733927
3170.000000	99.727906
3169.000000	99.721312
3168.000000	99.717344
3167.000000	99.718715
3166.000000	99.725054
3165.000000	99.732645
3164.000000	99.737290
3163.000000	99.737685
3162.000000	99.736386
3161.000000	99.737083
3160.000000	99.740631
3159.000000	99.743788
3158.000000	99.742436
3157.000000	99.736094
3156.000000	99.728750
3155.000000	99.724981
3154.000000	99.725731
3153.000000	99.728091
3152.000000	99.728744
3151.000000	99.727072
