PE IR       SUBTECH     SPECTRUM    ASCII       PEDS        4.00        
   -1
AG10-F009_1.ASC
23/09/08
10:40:55.00
23/09/08
11:14:38.00
uco
Sample 009 By uco Date Friday, September 08 2023
450.000000
#HDR
-1
-1
#GR
cm-1
%T
1.0
0.0
4000.000000
-1.000000
3551
8
100.175070
95.503687
#DATA
4000.000000	99.994110
3999.000000	99.995687
3998.000000	99.995782
3997.000000	99.999102
3996.000000	99.996160
3995.000000	99.993182
3994.000000	99.992684
3993.000000	99.995129
3992.000000	99.998452
3991.000000	100.000116
3990.000000	99.999391
3989.000000	99.997573
3988.000000	99.996266
3987.000000	99.995856
3986.000000	99.995679
3985.000000	99.995187
3984.000000	99.994517
3983.000000	99.993991
3982.000000	99.993557
3981.000000	99.992984
3980.000000	99.992414
3979.000000	99.992367
3978.000000	99.993089
3977.000000	99.994178
3976.000000	99.994973
3975.000000	99.995083
3974.000000	99.994333
3973.000000	99.992415
3972.000000	99.988896
3971.000000	99.983795
3970.000000	99.977913
3969.000000	99.972664
3968.000000	99.969489
3967.000000	99.969283
3966.000000	99.972029
3965.000000	99.976456
3964.000000	99.980263
3963.000000	99.981320
3962.000000	99.979247
3961.000000	99.975740
3960.000000	99.972917
3959.000000	99.971661
3958.000000	99.971560
3957.000000	99.972170
3956.000000	99.973519
3955.000000	99.975340
3954.000000	99.976616
3953.000000	99.976157
3952.000000	99.973749
3951.000000	99.970470
3950.000000	99.967876
3949.000000	99.967078
3948.000000	99.968480
3947.000000	99.972199
3946.000000	99.978203
3945.000000	99.985094
3944.000000	99.989676
3943.000000	99.989265
3942.000000	99.984058
3941.000000	99.976643
3940.000000	99.969619
3939.000000	99.964485
3938.000000	99.961801
3937.000000	99.961707
3936.000000	99.963442
3935.000000	99.964802
3934.000000	99.963535
3933.000000	99.959908
3932.000000	99.957285
3931.000000	99.958809
3930.000000	99.963902
3929.000000	99.969328
3928.000000	99.972415
3927.000000	99.972085
3926.000000	99.968466
3925.000000	99.963411
3924.000000	99.960035
3923.000000	99.959713
3922.000000	99.960866
3921.000000	99.961267
3920.000000	99.960619
3919.000000	99.960385
3918.000000	99.961462
3917.000000	99.963120
3916.000000	99.964062
3915.000000	99.963651
3914.000000	99.961344
3913.000000	99.957122
3912.000000	99.952474
3911.000000	99.950622
3910.000000	99.953800
3909.000000	99.961428
3908.000000	99.970492
3907.000000	99.976809
3906.000000	99.976353
3905.000000	99.967649
3904.000000	99.955078
3903.000000	99.946399
3902.000000	99.945413
3901.000000	99.949547
3900.000000	99.954268
3899.000000	99.957644
3898.000000	99.960011
3897.000000	99.960896
3896.000000	99.958266
3895.000000	99.951213
3894.000000	99.941035
3893.000000	99.931536
3892.000000	99.927314
3891.000000	99.930847
3890.000000	99.939582
3889.000000	99.949586
3888.000000	99.957211
3887.000000	99.957618
3886.000000	99.950592
3885.000000	99.944635
3884.000000	99.947202
3883.000000	99.956418
3882.000000	99.963893
3881.000000	99.963435
3880.000000	99.957381
3879.000000	99.952157
3878.000000	99.951486
3877.000000	99.955576
3876.000000	99.961480
3875.000000	99.965618
3874.000000	99.968090
3873.000000	99.972042
3872.000000	99.977577
3871.000000	99.979899
3870.000000	99.976910
3869.000000	99.973541
3868.000000	99.974082
3867.000000	99.976864
3866.000000	99.975845
3865.000000	99.967871
3864.000000	99.957005
3863.000000	99.948420
3862.000000	99.942784
3861.000000	99.940036
3860.000000	99.940639
3859.000000	99.943848
3858.000000	99.948015
3857.000000	99.952427
3856.000000	99.956236
3855.000000	99.954181
3854.000000	99.943547
3853.000000	99.938378
3852.000000	99.944413
3851.000000	99.952007
3850.000000	99.956148
3849.000000	99.957703
3848.000000	99.958797
3847.000000	99.961083
3846.000000	99.964162
3845.000000	99.966760
3844.000000	99.967592
3843.000000	99.966099
3842.000000	99.962814
3841.000000	99.959364
3840.000000	99.956514
3839.000000	99.955335
3838.000000	99.957284
3837.000000	99.961337
3836.000000	99.965088
3835.000000	99.968085
3834.000000	99.971572
3833.000000	99.975937
3832.000000	99.980354
3831.000000	99.983808
3830.000000	99.985681
3829.000000	99.985536
3828.000000	99.982439
3827.000000	99.975986
3826.000000	99.967971
3825.000000	99.962350
3824.000000	99.961402
3823.000000	99.962798
3822.000000	99.962450
3821.000000	99.963573
3820.000000	99.970792
3819.000000	99.979814
3818.000000	99.983485
3817.000000	99.975944
3816.000000	99.960911
3815.000000	99.950484
3814.000000	99.949776
3813.000000	99.953674
3812.000000	99.956141
3811.000000	99.957201
3810.000000	99.961120
3809.000000	99.969125
3808.000000	99.975549
3807.000000	99.975226
3806.000000	99.970831
3805.000000	99.969656
3804.000000	99.975170
3803.000000	99.983151
3802.000000	99.987130
3801.000000	99.988271
3800.000000	99.989319
3799.000000	99.989639
3798.000000	99.987109
3797.000000	99.980300
3796.000000	99.971857
3795.000000	99.966115
3794.000000	99.964312
3793.000000	99.964062
3792.000000	99.963315
3791.000000	99.962557
3790.000000	99.963360
3789.000000	99.965875
3788.000000	99.968661
3787.000000	99.970111
3786.000000	99.969993
3785.000000	99.969986
3784.000000	99.972323
3783.000000	99.977420
3782.000000	99.982378
3781.000000	99.982322
3780.000000	99.974784
3779.000000	99.964067
3778.000000	99.956855
3777.000000	99.955536
3776.000000	99.957455
3775.000000	99.958987
3774.000000	99.958808
3773.000000	99.957625
3772.000000	99.955419
3771.000000	99.951750
3770.000000	99.949227
3769.000000	99.951671
3768.000000	99.958728
3767.000000	99.966204
3766.000000	99.970444
3765.000000	99.971184
3764.000000	99.970873
3763.000000	99.971750
3762.000000	99.973381
3761.000000	99.974124
3760.000000	99.974112
3759.000000	99.974938
3758.000000	99.975050
3757.000000	99.972247
3756.000000	99.968666
3755.000000	99.968156
3754.000000	99.970168
3753.000000	99.968846
3752.000000	99.959922
3751.000000	99.947472
3750.000000	99.937952
3749.000000	99.932071
3748.000000	99.930982
3747.000000	99.937129
3746.000000	99.946326
3745.000000	99.952006
3744.000000	99.959110
3743.000000	99.972271
3742.000000	99.986406
3741.000000	99.995695
3740.000000	99.998760
3739.000000	99.998871
3738.000000	99.998655
3737.000000	99.996155
3736.000000	99.992531
3735.000000	99.994431
3734.000000	100.001742
3733.000000	100.004926
3732.000000	99.998441
3731.000000	99.986680
3730.000000	99.977333
3729.000000	99.973850
3728.000000	99.973934
3727.000000	99.973570
3726.000000	99.971970
3725.000000	99.970366
3724.000000	99.968744
3723.000000	99.966698
3722.000000	99.965243
3721.000000	99.966053
3720.000000	99.968698
3719.000000	99.970592
3718.000000	99.969174
3717.000000	99.965449
3716.000000	99.964535
3715.000000	99.970324
3714.000000	99.980011
3713.000000	99.985309
3712.000000	99.981512
3711.000000	99.974386
3710.000000	99.971722
3709.000000	99.974285
3708.000000	99.978257
3707.000000	99.980486
3706.000000	99.980933
3705.000000	99.981676
3704.000000	99.984103
3703.000000	99.987467
3702.000000	99.990180
3701.000000	99.991097
3700.000000	99.989740
3699.000000	99.986711
3698.000000	99.982842
3697.000000	99.978141
3696.000000	99.972458
3695.000000	99.965135
3694.000000	99.955102
3693.000000	99.943687
3692.000000	99.936143
3691.000000	99.939178
3690.000000	99.954563
3689.000000	99.974981
3688.000000	99.987834
3687.000000	99.987787
3686.000000	99.980965
3685.000000	99.974160
3684.000000	99.969198
3683.000000	99.965710
3682.000000	99.963496
3681.000000	99.961614
3680.000000	99.959708
3679.000000	99.960121
3678.000000	99.965161
3677.000000	99.971105
3676.000000	99.973025
3675.000000	99.974355
3674.000000	99.976184
3673.000000	99.976486
3672.000000	99.972785
3671.000000	99.962161
3670.000000	99.950611
3669.000000	99.949520
3668.000000	99.957991
3667.000000	99.967675
3666.000000	99.973683
3665.000000	99.975379
3664.000000	99.974461
3663.000000	99.972903
3662.000000	99.971378
3661.000000	99.969796
3660.000000	99.969269
3659.000000	99.971080
3658.000000	99.974443
3657.000000	99.976464
3656.000000	99.976352
3655.000000	99.975930
3654.000000	99.977416
3653.000000	99.981505
3652.000000	99.985165
3651.000000	99.983777
3650.000000	99.978716
3649.000000	99.977431
3648.000000	99.979654
3647.000000	99.978241
3646.000000	99.970957
3645.000000	99.960495
3644.000000	99.949098
3643.000000	99.938090
3642.000000	99.929456
3641.000000	99.925635
3640.000000	99.927212
3639.000000	99.932102
3638.000000	99.938193
3637.000000	99.944884
3636.000000	99.951340
3635.000000	99.954893
3634.000000	99.953985
3633.000000	99.951526
3632.000000	99.951933
3631.000000	99.954453
3630.000000	99.952471
3629.000000	99.947153
3628.000000	99.948004
3627.000000	99.954517
3626.000000	99.961690
3625.000000	99.968239
3624.000000	99.975664
3623.000000	99.985869
3622.000000	99.998047
3621.000000	100.007367
3620.000000	100.009291
3619.000000	100.005296
3618.000000	100.000042
3617.000000	99.995340
3616.000000	99.990796
3615.000000	99.985024
3614.000000	99.977023
3613.000000	99.967980
3612.000000	99.960121
3611.000000	99.954124
3610.000000	99.948725
3609.000000	99.943494
3608.000000	99.940794
3607.000000	99.942382
3606.000000	99.946199
3605.000000	99.948727
3604.000000	99.948376
3603.000000	99.945511
3602.000000	99.941822
3601.000000	99.939604
3600.000000	99.940889
3599.000000	99.945307
3598.000000	99.949569
3597.000000	99.949489
3596.000000	99.943479
3595.000000	99.934195
3594.000000	99.927212
3593.000000	99.926296
3592.000000	99.930483
3591.000000	99.936366
3590.000000	99.940406
3589.000000	99.940522
3588.000000	99.938977
3587.000000	99.941141
3586.000000	99.946971
3585.000000	99.951150
3584.000000	99.949860
3583.000000	99.942212
3582.000000	99.929711
3581.000000	99.915890
3580.000000	99.905134
3579.000000	99.900316
3578.000000	99.901067
3577.000000	99.904410
3576.000000	99.906871
3575.000000	99.906925
3574.000000	99.905595
3573.000000	99.905301
3572.000000	99.907853
3571.000000	99.913686
3570.000000	99.921737
3569.000000	99.929192
3568.000000	99.933498
3567.000000	99.935006
3566.000000	99.934441
3565.000000	99.930687
3564.000000	99.924295
3563.000000	99.917607
3562.000000	99.912710
3561.000000	99.911061
3560.000000	99.913338
3559.000000	99.918615
3558.000000	99.924173
3557.000000	99.927008
3556.000000	99.925813
3555.000000	99.921589
3554.000000	99.916555
3553.000000	99.912755
3552.000000	99.911090
3551.000000	99.910779
3550.000000	99.910254
3549.000000	99.908587
3548.000000	99.906157
3547.000000	99.904644
3546.000000	99.905928
3545.000000	99.910272
3544.000000	99.915945
3543.000000	99.920557
3542.000000	99.922005
3541.000000	99.919426
3540.000000	99.914007
3539.000000	99.908464
3538.000000	99.904992
3537.000000	99.903444
3536.000000	99.901998
3535.000000	99.899237
3534.000000	99.895833
3533.000000	99.893955
3532.000000	99.895417
3531.000000	99.899980
3530.000000	99.905094
3529.000000	99.907606
3528.000000	99.906345
3527.000000	99.902983
3526.000000	99.900245
3525.000000	99.899774
3524.000000	99.901477
3523.000000	99.904064
3522.000000	99.905937
3521.000000	99.906296
3520.000000	99.905615
3519.000000	99.904551
3518.000000	99.902743
3517.000000	99.899083
3516.000000	99.893497
3515.000000	99.887774
3514.000000	99.884245
3513.000000	99.883746
3512.000000	99.885436
3511.000000	99.888348
3510.000000	99.892265
3509.000000	99.896472
3508.000000	99.898792
3507.000000	99.897204
3506.000000	99.892341
3505.000000	99.887553
3504.000000	99.886746
3503.000000	99.891201
3502.000000	99.898012
3501.000000	99.902239
3500.000000	99.900752
3499.000000	99.894174
3498.000000	99.886236
3497.000000	99.881653
3496.000000	99.882849
3495.000000	99.887978
3494.000000	99.892686
3493.000000	99.894280
3492.000000	99.893532
3491.000000	99.892325
3490.000000	99.890746
3489.000000	99.887416
3488.000000	99.882300
3487.000000	99.877734
3486.000000	99.876030
3485.000000	99.876840
3484.000000	99.877742
3483.000000	99.877079
3482.000000	99.875873
3481.000000	99.876633
3480.000000	99.880521
3479.000000	99.886075
3478.000000	99.890650
3477.000000	99.892552
3476.000000	99.891685
3475.000000	99.888698
3474.000000	99.884214
3473.000000	99.879338
3472.000000	99.876304
3471.000000	99.877492
3470.000000	99.883254
3469.000000	99.891005
3468.000000	99.896784
3467.000000	99.898072
3466.000000	99.895468
3465.000000	99.891854
3464.000000	99.890019
3463.000000	99.890699
3462.000000	99.892592
3461.000000	99.894145
3460.000000	99.895184
3459.000000	99.896621
3458.000000	99.898694
3457.000000	99.899966
3456.000000	99.898497
3455.000000	99.893787
3454.000000	99.887487
3453.000000	99.882112
3452.000000	99.879207
3451.000000	99.878441
3450.000000	99.878291
3449.000000	99.878011
3448.000000	99.879203
3447.000000	99.884492
3446.000000	99.893395
3445.000000	99.900880
3444.000000	99.901671
3443.000000	99.895693
3442.000000	99.888479
3441.000000	99.885845
3440.000000	99.888618
3439.000000	99.892710
3438.000000	99.893476
3437.000000	99.889404
3436.000000	99.882543
3435.000000	99.876202
3434.000000	99.872266
3433.000000	99.870097
3432.000000	99.867986
3431.000000	99.865491
3430.000000	99.863878
3429.000000	99.864419
3428.000000	99.866914
3427.000000	99.870179
3426.000000	99.873197
3425.000000	99.875255
3424.000000	99.875537
3423.000000	99.873591
3422.000000	99.870389
3421.000000	99.868167
3420.000000	99.868423
3419.000000	99.870141
3418.000000	99.870580
3417.000000	99.867845
3416.000000	99.862425
3415.000000	99.856327
3414.000000	99.851124
3413.000000	99.847219
3412.000000	99.844887
3411.000000	99.845121
3410.000000	99.848695
3409.000000	99.854490
3408.000000	99.859455
3407.000000	99.860695
3406.000000	99.857690
3405.000000	99.852491
3404.000000	99.847896
3403.000000	99.845351
3402.000000	99.844473
3401.000000	99.844148
3400.000000	99.843630
3399.000000	99.842709
3398.000000	99.841539
3397.000000	99.840846
3396.000000	99.841854
3395.000000	99.845288
3394.000000	99.850223
3393.000000	99.854280
3392.000000	99.855321
3391.000000	99.853162
3390.000000	99.849789
3389.000000	99.847803
3388.000000	99.848128
3387.000000	99.848710
3386.000000	99.845897
3385.000000	99.838025
3384.000000	99.827568
3383.000000	99.819009
3382.000000	99.814685
3381.000000	99.813430
3380.000000	99.812999
3379.000000	99.812451
3378.000000	99.811734
3377.000000	99.810379
3376.000000	99.807943
3375.000000	99.805402
3374.000000	99.804900
3373.000000	99.807793
3372.000000	99.813349
3371.000000	99.819254
3370.000000	99.822795
3369.000000	99.821842
3368.000000	99.815982
3367.000000	99.807340
3366.000000	99.799507
3365.000000	99.794743
3364.000000	99.792466
3363.000000	99.790930
3362.000000	99.789812
3361.000000	99.790262
3360.000000	99.792548
3359.000000	99.794703
3358.000000	99.794079
3357.000000	99.789846
3356.000000	99.783576
3355.000000	99.777664
3354.000000	99.773710
3353.000000	99.772306
3352.000000	99.773534
3351.000000	99.776909
3350.000000	99.780884
3349.000000	99.783141
3348.000000	99.782061
3347.000000	99.778077
3346.000000	99.773418
3345.000000	99.770297
3344.000000	99.769300
3343.000000	99.769326
3342.000000	99.768707
3341.000000	99.766178
3340.000000	99.761387
3339.000000	99.755331
3338.000000	99.750392
3337.000000	99.748957
3336.000000	99.751068
3335.000000	99.753598
3334.000000	99.752708
3333.000000	99.747507
3332.000000	99.740988
3331.000000	99.737290
3330.000000	99.738316
3329.000000	99.742852
3328.000000	99.748107
3327.000000	99.751425
3326.000000	99.751088
3325.000000	99.746748
3324.000000	99.739737
3323.000000	99.732506
3322.000000	99.727223
3321.000000	99.724825
3320.000000	99.725208
3319.000000	99.727566
3318.000000	99.730092
3317.000000	99.730033
3316.000000	99.725419
3315.000000	99.717368
3314.000000	99.709973
3313.000000	99.706776
3312.000000	99.707150
3311.000000	99.706852
3310.000000	99.702625
3309.000000	99.695981
3308.000000	99.691785
3307.000000	99.693162
3306.000000	99.698422
3305.000000	99.702913
3304.000000	99.703067
3303.000000	99.698423
3302.000000	99.690694
3301.000000	99.682067
3300.000000	99.674579
3299.000000	99.670137
3298.000000	99.670012
3297.000000	99.673962
3296.000000	99.680093
3295.000000	99.685998
3294.000000	99.690314
3293.000000	99.693261
3292.000000	99.695580
3291.000000	99.697068
3290.000000	99.696411
3289.000000	99.692486
3288.000000	99.685585
3287.000000	99.677394
3286.000000	99.670335
3285.000000	99.666940
3284.000000	99.668643
3283.000000	99.674027
3282.000000	99.678766
3281.000000	99.678897
3280.000000	99.674716
3279.000000	99.670578
3278.000000	99.670532
3277.000000	99.674449
3276.000000	99.678466
3275.000000	99.678561
3274.000000	99.673406
3273.000000	99.664901
3272.000000	99.656955
3271.000000	99.653171
3270.000000	99.654399
3269.000000	99.658194
3268.000000	99.661161
3267.000000	99.661992
3266.000000	99.662104
3265.000000	99.663606
3264.000000	99.667247
3263.000000	99.672318
3262.000000	99.677599
3261.000000	99.681811
3260.000000	99.683482
3259.000000	99.681365
3258.000000	99.675662
3257.000000	99.668710
3256.000000	99.663842
3255.000000	99.662933
3254.000000	99.665085
3253.000000	99.668214
3252.000000	99.671774
3251.000000	99.677043
3250.000000	99.684430
3249.000000	99.691472
3248.000000	99.694630
3247.000000	99.692853
3246.000000	99.688532
3245.000000	99.684821
3244.000000	99.682691
3243.000000	99.680924
3242.000000	99.678180
3241.000000	99.674553
3240.000000	99.671511
3239.000000	99.670770
3238.000000	99.672935
3237.000000	99.676783
3236.000000	99.680098
3235.000000	99.681526
3234.000000	99.681335
3233.000000	99.680276
3232.000000	99.678477
3231.000000	99.676119
3230.000000	99.674635
3229.000000	99.675989
3228.000000	99.680508
3227.000000	99.686135
3226.000000	99.690244
3225.000000	99.691700
3224.000000	99.690983
3223.000000	99.688958
3222.000000	99.686160
3221.000000	99.683172
3220.000000	99.680977
3219.000000	99.680553
3218.000000	99.682164
3217.000000	99.685191
3216.000000	99.688668
3215.000000	99.691929
3214.000000	99.694603
3213.000000	99.696079
3212.000000	99.695505
3211.000000	99.692733
3210.000000	99.688970
3209.000000	99.685865
3208.000000	99.683980
3207.000000	99.682540
3206.000000	99.680732
3205.000000	99.678723
3204.000000	99.677217
3203.000000	99.676453
3202.000000	99.675909
3201.000000	99.674978
3200.000000	99.673964
3199.000000	99.674495
3198.000000	99.678315
3197.000000	99.685027
3196.000000	99.691351
3195.000000	99.693782
3194.000000	99.692082
3193.000000	99.689254
3192.000000	99.687951
3191.000000	99.687761
3190.000000	99.686496
3189.000000	99.683124
3188.000000	99.678788
3187.000000	99.675654
3186.000000	99.675478
3185.000000	99.678441
3184.000000	99.682469
3183.000000	99.684481
3182.000000	99.683493
3181.000000	99.682057
3180.000000	99.683364
3179.000000	99.687228
3178.000000	99.690057
3177.000000	99.688996
3176.000000	99.684932
3175.000000	99.681229
3174.000000	99.680699
3173.000000	99.684186
3172.000000	99.690660
3171.000000	99.697601
3170.000000	99.702022
3169.000000	99.702341
3168.000000	99.699605
3167.000000	99.696500
3166.000000	99.695028
3165.000000	99.695049
3164.000000	99.694851
3163.000000	99.693094
3162.000000	99.690362
3161.000000	99.688539
3160.000000	99.688356
3159.000000	99.687935
3158.000000	99.684709
3157.000000	99.678871
3156.000000	99.674101
3155.000000	99.674377
3154.000000	99.680635
3153.000000	99.690593
3152.000000	99.700905
3151.000000	99.708973
3150.000000	99.713538
3149.000000	99.714723
3148.000000	99.713535
3147.000000	99.710906
3146.000000	99.707295
