PE UV       SUBTECH     SPECTRUM    ASCII       PEDS        4.00        
   -1
S_aborted_grain_colored.Sample.asc
23/09/07
16:15:39.00
23/09/07
16:15:39.00
Administrator

250.000000
1
Lambda 750
750N8071901
PerkinElmer UV WinLab 6.0.4.0738 / 1.61.00 Lambda 900

0
0
3350/servo 860.8/2
0
0
UV/VIS
1
1
1
CommonBeamDepol,150mm sphere / downward view
0
0
0
0
Program
Program
3350/servo 860.8/2
3350/0.2 860.8/0.2
3350/0.2 860.8/0.2
0
1
 
 
 
0
 
860.8
319.2
860.8
Front
100
on
 
 
0
0
0
 
0
 
 
 
0
 
 
0
0
0
0
0
 
 
 
 
0
0


0
0
#HDR
-1
-1
#GR
nm
%R
1.0
0.0
2500.000000
-10.000000
226
8
29.251350
-2.860632
#DATA
2500.000000	-1.428626
2490.000000	-2.860632
2480.000000	4.331859
2470.000000	0.863667
2460.000000	-1.356102
2450.000000	-1.838925
2440.000000	2.184650
2430.000000	-1.027857
2420.000000	-0.035358
2410.000000	-0.671582
2400.000000	0.070472
2390.000000	-1.754866
2380.000000	1.737154
2370.000000	-0.951657
2360.000000	-0.493893
2350.000000	1.058547
2340.000000	1.164289
2330.000000	0.285551
2320.000000	1.021243
2310.000000	0.919764
2300.000000	1.099134
2290.000000	1.218506
2280.000000	1.708713
2270.000000	1.084582
2260.000000	1.264746
2250.000000	2.348908
2240.000000	2.923129
2230.000000	2.208962
2220.000000	2.878161
2210.000000	2.410197
2200.000000	1.841985
2190.000000	2.485443
2180.000000	2.957445
2170.000000	2.809149
2160.000000	3.371451
2150.000000	2.845557
2140.000000	3.180301
2130.000000	3.226418
2120.000000	3.526678
2110.000000	3.979103
2100.000000	2.950139
2090.000000	2.875723
2080.000000	3.243539
2070.000000	2.497866
2060.000000	2.307291
2050.000000	2.269908
2040.000000	2.910653
2030.000000	3.103673
2020.000000	2.759835
2010.000000	2.651618
2000.000000	2.395484
1990.000000	2.353812
1980.000000	1.999811
1970.000000	1.855026
1960.000000	1.976118
1950.000000	2.188159
1940.000000	2.149800
1930.000000	2.655816
1920.000000	3.920491
1910.000000	5.244327
1900.000000	8.002434
1890.000000	9.863523
1880.000000	10.996369
1870.000000	11.771379
1860.000000	11.820416
1850.000000	11.184818
1840.000000	11.201315
1830.000000	11.060565
1820.000000	10.736006
1810.000000	10.887342
1800.000000	10.635941
1790.000000	10.420625
1780.000000	10.075024
1770.000000	9.957148
1760.000000	9.659397
1750.000000	9.307499
1740.000000	9.181532
1730.000000	9.988444
1720.000000	10.703621
1710.000000	11.098454
1700.000000	11.866217
1690.000000	13.053459
1680.000000	13.838788
1670.000000	14.302104
1660.000000	14.407586
1650.000000	14.208904
1640.000000	14.051928
1630.000000	13.762525
1620.000000	13.379970
1610.000000	12.961551
1600.000000	12.768614
1590.000000	12.490313
1580.000000	12.191158
1570.000000	11.876655
1560.000000	11.668247
1550.000000	11.235810
1540.000000	10.848275
1530.000000	10.667441
1520.000000	10.543154
1510.000000	10.507239
1500.000000	10.482079
1490.000000	10.480920
1480.000000	10.597941
1470.000000	10.743582
1460.000000	11.127311
1450.000000	11.766598
1440.000000	12.692542
1430.000000	14.011083
1420.000000	15.627343
1410.000000	17.253279
1400.000000	18.747494
1390.000000	19.916026
1380.000000	20.764145
1370.000000	21.057166
1360.000000	21.892342
1350.000000	22.582257
1340.000000	22.895305
1330.000000	23.161015
1320.000000	23.588629
1310.000000	23.894169
1300.000000	23.939783
1290.000000	23.901425
1280.000000	23.922850
1270.000000	23.820925
1260.000000	23.776545
1250.000000	23.551527
1240.000000	23.221446
1230.000000	22.797781
1220.000000	22.423274
1210.000000	22.366284
1200.000000	22.543219
1190.000000	22.987645
1180.000000	23.737640
1170.000000	24.541804
1160.000000	25.182537
1150.000000	25.838937
1140.000000	26.297136
1130.000000	26.416572
1120.000000	26.549936
1110.000000	26.649661
1100.000000	26.740502
1090.000000	26.784948
1080.000000	26.788764
1070.000000	26.738238
1060.000000	26.736367
1050.000000	26.777749
1040.000000	26.732004
1030.000000	26.826595
1020.000000	27.063131
1010.000000	27.238739
1000.000000	27.422819
990.000000	27.485366
980.000000	27.633168
970.000000	27.721771
960.000000	28.082943
950.000000	28.093157
940.000000	28.177376
930.000000	28.211924
920.000000	28.405865
910.000000	28.398151
900.000000	28.544473
890.000000	28.437882
880.000000	29.251350
870.000000	28.810852
860.000000	28.211069
850.000000	27.231125
840.000000	27.340322
830.000000	27.450240
820.000000	27.519175
810.000000	27.548154
800.000000	27.395491
790.000000	27.334779
780.000000	27.383326
770.000000	27.248986
760.000000	27.193105
750.000000	26.984727
740.000000	26.854414
730.000000	26.725876
720.000000	26.596005
710.000000	26.296583
700.000000	26.083107
690.000000	25.789082
680.000000	25.428539
670.000000	24.991266
660.000000	24.666281
650.000000	24.196866
640.000000	23.671488
630.000000	23.112949
620.000000	22.573952
610.000000	22.144578
600.000000	21.729234
590.000000	21.394227
580.000000	21.004039
570.000000	20.616941
560.000000	20.264008
550.000000	19.901261
540.000000	19.445686
530.000000	18.949106
520.000000	18.410289
510.000000	17.881070
500.000000	17.265467
490.000000	16.405269
480.000000	15.522554
470.000000	14.864614
460.000000	14.005303
450.000000	13.034149
440.000000	12.064045
430.000000	10.942528
420.000000	9.923241
410.000000	9.168396
400.000000	8.779605
390.000000	8.400511
380.000000	7.880385
370.000000	7.208233
360.000000	6.526901
350.000000	5.649128
340.000000	5.005211
330.000000	4.524169
320.000000	3.395708
310.000000	3.207013
300.000000	2.396183
290.000000	1.425966
280.000000	1.128951
270.000000	0.993425
260.000000	1.006875
250.000000	1.221453
