PE UV       SUBTECH     SPECTRUM    ASCII       PEDS        4.00        
   -1
Empty Chamber.Sample.asc
18/03/01
08:50:07.00
18/03/01
08:50:07.00
Administrator

200.000000
1
Lambda 750
750N8071901
PerkinElmer UV WinLab 6.0.4.0738 / 1.61.00 Lambda 900

0
0
3350/servo 860.8/2
0
0
UV/VIS
1
1
1
CommonBeamDepol,150mm sphere / downward view
0
0
0
0
Program
Program
3350/servo 860.8/2
3350/0.2 860.8/0.2
3350/0.2 860.8/0.2
0
1
 
 
 
0
 
860.8
319.2
860.8
Front
100
on
 
 
0
0
0
 
0
 
 
 
0
 
 
0
0
0
0
0
 
 
 
 
0
0


0
0
#HDR
-1
-1
#GR
nm
%T
1.0
0.0
2350.000000
-1.000000
2151
8
100.703768
99.403798
#DATA
2350.000000	99.868882
2349.000000	99.773127
2348.000000	100.226316
2347.000000	100.191064
2346.000000	99.834385
2345.000000	100.050800
2344.000000	99.872981
2343.000000	99.786252
2342.000000	100.050225
2341.000000	99.871421
2340.000000	100.060267
2339.000000	100.161125
2338.000000	99.766891
2337.000000	99.956232
2336.000000	99.767407
2335.000000	99.637596
2334.000000	99.868990
2333.000000	99.819378
2332.000000	100.245908
2331.000000	100.082325
2330.000000	100.006581
2329.000000	99.627206
2328.000000	100.135232
2327.000000	100.365165
2326.000000	100.362776
2325.000000	100.272914
2324.000000	99.943719
2323.000000	99.739324
2322.000000	99.809115
2321.000000	99.750514
2320.000000	100.115214
2319.000000	100.114037
2318.000000	100.287341
2317.000000	99.953173
2316.000000	99.901167
2315.000000	100.372924
2314.000000	100.341992
2313.000000	100.203724
2312.000000	100.226929
2311.000000	99.957464
2310.000000	99.979412
2309.000000	100.124771
2308.000000	99.980546
2307.000000	100.012564
2306.000000	99.915194
2305.000000	100.024205
2304.000000	99.835228
2303.000000	100.261868
2302.000000	100.037084
2301.000000	100.014471
2300.000000	100.032518
2299.000000	100.049147
2298.000000	99.866838
2297.000000	99.899476
2296.000000	100.050240
2295.000000	99.989158
2294.000000	100.013766
2293.000000	99.975196
2292.000000	99.825305
2291.000000	99.786329
2290.000000	99.810640
2289.000000	100.124819
2288.000000	100.097964
2287.000000	100.180011
2286.000000	100.179852
2285.000000	100.108508
2284.000000	99.990483
2283.000000	99.958573
2282.000000	100.057253
2281.000000	100.006071
2280.000000	100.039679
2279.000000	100.055226
2278.000000	100.110550
2277.000000	99.822001
2276.000000	99.952854
2275.000000	99.981065
2274.000000	99.837812
2273.000000	100.080756
2272.000000	100.040283
2271.000000	99.892570
2270.000000	99.862328
2269.000000	99.951601
2268.000000	99.963040
2267.000000	99.939567
2266.000000	99.910137
2265.000000	100.055189
2264.000000	100.156644
2263.000000	100.157789
2262.000000	99.969827
2261.000000	99.811818
2260.000000	99.805956
2259.000000	99.996457
2258.000000	100.149172
2257.000000	100.124096
2256.000000	99.965005
2255.000000	99.992510
2254.000000	100.025234
2253.000000	99.944073
2252.000000	100.109115
2251.000000	100.148087
2250.000000	99.951368
2249.000000	99.972955
2248.000000	99.964962
2247.000000	99.947858
2246.000000	100.033320
2245.000000	99.932855
2244.000000	99.823810
2243.000000	99.990787
2242.000000	100.224698
2241.000000	100.091112
2240.000000	100.086799
2239.000000	99.994632
2238.000000	99.948874
2237.000000	100.061043
2236.000000	100.068821
2235.000000	99.942488
2234.000000	99.911752
2233.000000	99.836003
2232.000000	99.827747
2231.000000	99.908217
2230.000000	99.909207
2229.000000	99.960318
2228.000000	100.054570
2227.000000	99.992913
2226.000000	99.949955
2225.000000	100.066377
2224.000000	100.130486
2223.000000	100.120170
2222.000000	100.046114
2221.000000	99.891955
2220.000000	99.968584
2219.000000	99.979020
2218.000000	99.976814
2217.000000	99.991398
2216.000000	100.005264
2215.000000	99.932328
2214.000000	99.913744
2213.000000	100.023897
2212.000000	100.011034
2211.000000	100.012255
2210.000000	100.133827
2209.000000	100.064977
2208.000000	100.042773
2207.000000	100.032323
2206.000000	99.929425
2205.000000	99.948528
2204.000000	99.956682
2203.000000	99.945371
2202.000000	100.016883
2201.000000	99.930517
2200.000000	99.851455
2199.000000	99.960886
2198.000000	100.230872
2197.000000	99.916663
2196.000000	99.774738
2195.000000	99.950022
2194.000000	99.966697
2193.000000	99.915489
2192.000000	100.076804
2191.000000	100.118870
2190.000000	100.174155
2189.000000	100.232553
2188.000000	99.999596
2187.000000	99.996157
2186.000000	100.114795
2185.000000	99.994043
2184.000000	99.981817
2183.000000	100.169829
2182.000000	99.824834
2181.000000	99.828550
2180.000000	100.005661
2179.000000	99.902024
2178.000000	100.135327
2177.000000	100.092043
2176.000000	100.052846
2175.000000	100.042529
2174.000000	99.923564
2173.000000	100.010796
2172.000000	100.009281
2171.000000	100.114463
2170.000000	100.039466
2169.000000	99.908759
2168.000000	100.046914
2167.000000	100.049319
2166.000000	99.983966
2165.000000	100.152242
2164.000000	100.007766
2163.000000	100.020789
2162.000000	100.074246
2161.000000	100.133270
2160.000000	99.851704
2159.000000	100.021974
2158.000000	100.309975
2157.000000	100.017339
2156.000000	100.057465
2155.000000	100.085005
2154.000000	100.078838
2153.000000	100.009985
2152.000000	100.090918
2151.000000	100.073227
2150.000000	99.985991
2149.000000	99.934706
2148.000000	99.812554
2147.000000	100.115146
2146.000000	100.068870
2145.000000	99.938231
2144.000000	100.104802
2143.000000	99.856035
2142.000000	99.666786
2141.000000	99.935844
2140.000000	99.913439
2139.000000	99.887158
2138.000000	100.031049
2137.000000	100.050614
2136.000000	100.252379
2135.000000	100.288960
2134.000000	99.834853
2133.000000	100.022653
2132.000000	99.836704
2131.000000	100.004130
2130.000000	100.053835
2129.000000	99.869509
2128.000000	99.986087
2127.000000	99.971587
2126.000000	99.688789
2125.000000	99.905217
2124.000000	99.918110
2123.000000	99.924644
2122.000000	99.883519
2121.000000	100.070686
2120.000000	100.017349
2119.000000	99.936011
2118.000000	99.963276
2117.000000	99.979737
2116.000000	99.978934
2115.000000	100.256997
2114.000000	99.890128
2113.000000	100.047947
2112.000000	100.006864
2111.000000	99.908663
2110.000000	100.007775
2109.000000	100.027659
2108.000000	100.166624
2107.000000	99.888602
2106.000000	99.942768
2105.000000	99.834850
2104.000000	99.786063
2103.000000	99.986871
2102.000000	100.034832
2101.000000	99.914192
2100.000000	100.147599
2099.000000	100.115841
2098.000000	99.913872
2097.000000	100.069482
2096.000000	99.916602
2095.000000	100.135046
2094.000000	100.000808
2093.000000	99.988785
2092.000000	99.976242
2091.000000	100.094671
2090.000000	99.900686
2089.000000	99.921402
2088.000000	100.026576
2087.000000	100.000505
2086.000000	100.077508
2085.000000	100.097819
2084.000000	99.973620
2083.000000	100.043580
2082.000000	100.028511
2081.000000	99.894208
2080.000000	99.983216
2079.000000	100.067248
2078.000000	100.092565
2077.000000	99.942354
2076.000000	99.998281
2075.000000	100.056833
2074.000000	99.941898
2073.000000	100.014757
2072.000000	99.910061
2071.000000	99.939184
2070.000000	100.011728
2069.000000	99.976741
2068.000000	100.067295
2067.000000	100.011640
2066.000000	99.947612
2065.000000	100.015072
2064.000000	100.071616
2063.000000	99.949748
2062.000000	99.988774
2061.000000	100.042790
2060.000000	100.010825
2059.000000	99.886001
2058.000000	99.925788
2057.000000	99.920116
2056.000000	99.972081
2055.000000	100.064784
2054.000000	100.029442
2053.000000	99.998178
2052.000000	99.949305
2051.000000	99.913838
2050.000000	100.011941
2049.000000	100.105397
2048.000000	100.042820
2047.000000	100.016803
2046.000000	100.012551
2045.000000	99.956988
2044.000000	99.938077
2043.000000	100.056173
2042.000000	100.046951
2041.000000	100.047868
2040.000000	100.098859
2039.000000	100.030277
2038.000000	100.006481
2037.000000	100.045899
2036.000000	100.021278
2035.000000	99.959800
2034.000000	99.972761
2033.000000	100.011144
2032.000000	99.979031
2031.000000	99.956748
2030.000000	99.973054
2029.000000	99.939852
2028.000000	99.954833
2027.000000	99.983691
2026.000000	100.004661
2025.000000	99.974871
2024.000000	99.988346
2023.000000	100.035583
2022.000000	100.033859
2021.000000	99.995336
2020.000000	99.994219
2019.000000	100.004259
2018.000000	99.974147
2017.000000	100.000913
2016.000000	99.981743
2015.000000	99.971906
2014.000000	99.980936
2013.000000	99.992800
2012.000000	100.003448
2011.000000	99.970287
2010.000000	99.970888
2009.000000	100.011362
2008.000000	100.024858
2007.000000	100.030132
2006.000000	100.044335
2005.000000	100.026176
2004.000000	100.055516
2003.000000	100.010860
2002.000000	99.990460
2001.000000	99.967828
2000.000000	99.927248
1999.000000	99.967826
1998.000000	99.956361
1997.000000	99.945202
1996.000000	99.991473
1995.000000	100.020917
1994.000000	99.982637
1993.000000	99.965680
1992.000000	99.972591
1991.000000	100.009748
1990.000000	100.029761
1989.000000	100.000000
1988.000000	100.027021
1987.000000	100.046534
1986.000000	100.031692
1985.000000	99.966085
1984.000000	99.956343
1983.000000	99.997969
1982.000000	99.999492
1981.000000	100.026011
1980.000000	99.985474
1979.000000	100.039729
1978.000000	100.032208
1977.000000	99.998680
1976.000000	99.982526
1975.000000	100.010668
1974.000000	99.985576
1973.000000	99.993803
1972.000000	100.025398
1971.000000	99.997258
1970.000000	99.978067
1969.000000	99.955733
1968.000000	99.947407
1967.000000	99.983651
1966.000000	99.991876
1965.000000	99.957662
1964.000000	99.984867
1963.000000	99.984061
1962.000000	99.982028
1961.000000	100.037376
1960.000000	100.068573
1959.000000	100.026919
1958.000000	99.987306
1957.000000	100.012595
1956.000000	99.981113
1955.000000	100.043982
1954.000000	100.032481
1953.000000	99.982546
1952.000000	99.975746
1951.000000	99.969448
1950.000000	99.945100
1949.000000	99.949471
1948.000000	99.974621
1947.000000	99.981334
1946.000000	99.947761
1945.000000	99.941541
1944.000000	100.019085
1943.000000	100.020401
1942.000000	99.989548
1941.000000	99.978080
1940.000000	99.953655
1939.000000	99.956381
1938.000000	99.981947
1937.000000	100.028619
1936.000000	100.089082
1935.000000	99.997059
1934.000000	100.063798
1933.000000	100.071733
1932.000000	99.980535
1931.000000	100.035390
1930.000000	100.096180
1929.000000	100.055083
1928.000000	99.996148
1927.000000	100.067562
1926.000000	99.969581
1925.000000	100.011868
1924.000000	99.989865
1923.000000	99.903131
1922.000000	99.881930
1921.000000	99.987527
1920.000000	99.866993
1919.000000	100.006086
1918.000000	100.016844
1917.000000	99.930868
1916.000000	100.045566
1915.000000	100.004869
1914.000000	100.074879
1913.000000	99.999899
1912.000000	99.969774
1911.000000	99.984379
1910.000000	99.999087
1909.000000	99.879365
1908.000000	100.055099
1907.000000	99.964090
1906.000000	99.969967
1905.000000	100.006695
1904.000000	99.951313
1903.000000	100.009841
1902.000000	99.925849
1901.000000	99.969969
1900.000000	99.999899
1899.000000	99.924151
1898.000000	99.994927
1897.000000	99.978490
1896.000000	100.023753
1895.000000	100.017766
1894.000000	100.040207
1893.000000	100.015528
1892.000000	99.975030
1891.000000	99.983255
1890.000000	100.037759
1889.000000	100.021106
1888.000000	99.976967
1887.000000	99.982449
1886.000000	100.004973
1885.000000	99.939758
1884.000000	99.984894
1883.000000	100.015416
1882.000000	99.950426
1881.000000	100.001622
1880.000000	99.951852
1879.000000	99.991685
1878.000000	100.022504
1877.000000	100.062680
1876.000000	100.062255
1875.000000	100.017833
1874.000000	100.055546
1873.000000	100.017840
1872.000000	99.932137
1871.000000	99.943076
1870.000000	99.988448
1869.000000	99.962411
1868.000000	99.994122
1867.000000	99.938183
1866.000000	99.990270
1865.000000	99.995034
1864.000000	99.982063
1863.000000	100.043088
1862.000000	100.004765
1861.000000	99.996958
1860.000000	100.023116
1859.000000	100.002129
1858.000000	99.985098
1857.000000	99.958739
1856.000000	99.969990
1855.000000	100.020380
1854.000000	100.000608
1853.000000	99.984797
1852.000000	99.963622
1851.000000	100.000000
1850.000000	100.047163
1849.000000	100.018450
1848.000000	100.012264
1847.000000	100.005170
1846.000000	99.995641
1845.000000	99.967365
1844.000000	99.970001
1843.000000	99.970404
1842.000000	99.978820
1841.000000	99.990068
1840.000000	99.983174
1839.000000	100.026055
1838.000000	100.049695
1837.000000	100.013691
1836.000000	100.005883
1835.000000	100.023125
1834.000000	100.001521
1833.000000	99.996450
1832.000000	100.000812
1831.000000	100.007913
1830.000000	100.035713
1829.000000	100.023029
1828.000000	99.996145
1827.000000	99.985896
1826.000000	99.987215
1825.000000	99.988534
1824.000000	99.996955
1823.000000	99.999797
1822.000000	100.008322
1821.000000	99.988734
1820.000000	99.984572
1819.000000	99.988733
1818.000000	99.974726
1817.000000	99.996548
1816.000000	100.009951
1815.000000	100.026198
1814.000000	100.007616
1813.000000	99.989643
1812.000000	99.985786
1811.000000	99.960712
1810.000000	100.006804
1809.000000	100.034536
1808.000000	100.025087
1807.000000	100.012187
1806.000000	99.998781
1805.000000	99.995532
1804.000000	99.989946
1803.000000	100.000711
1802.000000	100.019911
1801.000000	100.011580
1800.000000	100.017778
1799.000000	99.993398
1798.000000	99.982025
1797.000000	99.987000
1796.000000	99.968720
1795.000000	100.028137
1794.000000	100.049172
1793.000000	100.017881
1792.000000	100.020623
1791.000000	100.015847
1790.000000	99.984967
1789.000000	99.987912
1788.000000	99.988114
1787.000000	99.988114
1786.000000	100.007722
1785.000000	100.015343
1784.000000	99.998984
1783.000000	99.960596
1782.000000	99.972479
1781.000000	99.994515
1780.000000	99.994515
1779.000000	99.983749
1778.000000	99.978667
1777.000000	99.974101
1776.000000	99.997765
1775.000000	99.962328
1774.000000	99.957454
1773.000000	99.979281
1772.000000	100.007516
1771.000000	100.005688
1770.000000	100.014627
1769.000000	100.013813
1768.000000	100.021430
1767.000000	100.011071
1766.000000	100.016760
1765.000000	100.016759
1764.000000	100.017675
1763.000000	99.963134
1762.000000	99.991163
1761.000000	99.992483
1760.000000	99.966587
1759.000000	99.992890
1758.000000	100.004571
1757.000000	99.998375
1756.000000	100.013711
1755.000000	100.028443
1754.000000	100.002946
1753.000000	100.032808
1752.000000	99.974001
1751.000000	99.986697
1750.000000	99.996649
1749.000000	99.978878
1748.000000	100.006296
1747.000000	100.001117
1746.000000	100.002844
1745.000000	99.989542
1744.000000	100.027830
1743.000000	99.989234
1742.000000	99.989947
1741.000000	99.992892
1740.000000	100.005179
1739.000000	99.988727
1738.000000	99.975428
1737.000000	99.995431
1736.000000	99.952902
1735.000000	100.023153
1734.000000	100.015436
1733.000000	100.023970
1732.000000	100.016147
1731.000000	99.992585
1730.000000	99.957056
1729.000000	99.974719
1728.000000	100.000914
1727.000000	100.017571
1726.000000	99.989441
1725.000000	100.011374
1724.000000	99.988120
1723.000000	100.021931
1722.000000	99.999594
1721.000000	100.003656
1720.000000	99.990660
1719.000000	100.033010
1718.000000	100.016451
1717.000000	99.981825
1716.000000	99.981725
1715.000000	100.002538
1714.000000	99.983252
1713.000000	99.999289
1712.000000	99.996852
1711.000000	99.989541
1710.000000	99.989846
1709.000000	99.989338
1708.000000	99.996548
1707.000000	100.007108
1706.000000	100.007715
1705.000000	100.017770
1704.000000	99.980708
1703.000000	99.999797
1702.000000	99.986294
1701.000000	100.009341
1700.000000	100.013603
1699.000000	100.003554
1698.000000	100.039400
1697.000000	100.000000
1696.000000	99.990659
1695.000000	99.987918
1694.000000	99.990153
1693.000000	99.991269
1692.000000	100.001117
1691.000000	100.004264
1690.000000	100.023660
1689.000000	99.991270
1688.000000	99.996548
1687.000000	99.987004
1686.000000	99.977459
1685.000000	99.997970
1684.000000	99.975946
1683.000000	99.988935
1682.000000	99.998376
1681.000000	99.980610
1680.000000	100.029345
1679.000000	100.017259
1678.000000	100.025687
1677.000000	100.007208
1676.000000	100.017463
1675.000000	100.046107
1674.000000	99.991372
1673.000000	99.998477
1672.000000	100.033512
1671.000000	99.993096
1670.000000	99.968025
1669.000000	99.986910
1668.000000	100.011162
1667.000000	100.000913
1666.000000	100.000812
1665.000000	99.994116
1664.000000	100.029330
1663.000000	100.009641
1662.000000	100.016440
1661.000000	99.996144
1660.000000	99.999696
1659.000000	99.998173
1658.000000	100.013903
1657.000000	100.019381
1656.000000	100.006291
1655.000000	99.983359
1654.000000	99.991781
1653.000000	100.022627
1652.000000	100.017453
1651.000000	100.014004
1650.000000	100.034306
1649.000000	100.010149
1648.000000	100.006495
1647.000000	100.019586
1646.000000	99.985593
1645.000000	100.013293
1644.000000	100.009945
1643.000000	100.022223
1642.000000	100.013698
1641.000000	100.020499
1640.000000	99.986303
1639.000000	99.989145
1638.000000	100.002232
1637.000000	99.999594
1636.000000	99.982754
1635.000000	99.985492
1634.000000	100.000913
1633.000000	99.998884
1632.000000	99.994319
1631.000000	99.995637
1630.000000	99.989650
1629.000000	100.003653
1628.000000	99.994216
1627.000000	100.000710
1626.000000	99.994014
1625.000000	99.996144
1624.000000	100.012279
1623.000000	100.009944
1622.000000	100.004261
1621.000000	100.012278
1620.000000	100.020192
1619.000000	100.001015
1618.000000	99.994318
1617.000000	100.001218
1616.000000	100.006088
1615.000000	99.998478
1614.000000	100.004565
1613.000000	100.006493
1612.000000	100.017655
1611.000000	100.014813
1610.000000	100.001217
1609.000000	100.003449
1608.000000	100.012174
1607.000000	99.992290
1606.000000	99.989348
1605.000000	100.002029
1604.000000	99.995638
1603.000000	100.004971
1602.000000	99.999493
1601.000000	100.002942
1600.000000	100.012784
1599.000000	99.998783
1598.000000	99.977482
1597.000000	99.986915
1596.000000	99.988133
1595.000000	99.984075
1594.000000	99.999087
1593.000000	99.992291
1592.000000	99.990871
1591.000000	100.002333
1590.000000	99.993406
1589.000000	99.995131
1588.000000	100.013797
1587.000000	100.007507
1586.000000	100.010145
1585.000000	100.002333
1584.000000	99.986812
1583.000000	100.001116
1582.000000	99.993711
1581.000000	99.994523
1580.000000	100.001927
1579.000000	100.004361
1578.000000	100.003043
1577.000000	99.998174
1576.000000	100.015520
1575.000000	99.995232
1574.000000	99.988944
1573.000000	99.996957
1572.000000	99.995233
1571.000000	99.997565
1570.000000	99.990364
1569.000000	99.991987
1568.000000	99.984077
1567.000000	99.987223
1566.000000	99.995437
1565.000000	99.993307
1564.000000	100.014706
1563.000000	99.997667
1562.000000	99.981645
1561.000000	100.002231
1560.000000	100.014300
1559.000000	100.019268
1558.000000	100.014097
1557.000000	100.014707
1556.000000	100.004260
1555.000000	100.016328
1554.000000	100.007201
1553.000000	100.010852
1552.000000	100.008417
1551.000000	99.981847
1550.000000	99.988641
1549.000000	100.008214
1548.000000	100.005983
1547.000000	99.998276
1546.000000	99.993206
1545.000000	100.020285
1544.000000	100.011156
1543.000000	100.006085
1542.000000	99.988541
1541.000000	99.996045
1540.000000	100.011763
1539.000000	100.015617
1538.000000	100.015515
1537.000000	100.002535
1536.000000	99.990672
1535.000000	100.021095
1534.000000	100.002941
1533.000000	100.002028
1532.000000	99.993511
1531.000000	99.987226
1530.000000	99.995741
1529.000000	99.990470
1528.000000	99.988845
1527.000000	100.007404
1526.000000	100.009128
1525.000000	100.000710
1524.000000	99.990265
1523.000000	99.991481
1522.000000	99.995741
1521.000000	100.015518
1520.000000	100.009227
1519.000000	100.015820
1518.000000	100.012372
1517.000000	100.026977
1516.000000	100.002738
1515.000000	99.976577
1514.000000	100.000304
1513.000000	99.988540
1512.000000	100.021605
1511.000000	99.988643
1510.000000	99.985801
1509.000000	100.009634
1508.000000	100.001420
1507.000000	100.001116
1506.000000	100.013795
1505.000000	100.030837
1504.000000	100.023837
1503.000000	100.008215
1502.000000	99.997972
1501.000000	100.004463
1500.000000	100.009026
1499.000000	100.011257
1498.000000	100.016937
1497.000000	100.004158
1496.000000	100.003651
1495.000000	100.001623
1494.000000	100.017241
1493.000000	100.010242
1492.000000	99.988440
1491.000000	100.020790
1490.000000	100.015718
1489.000000	99.987934
