PE UV       SUBTECH     SPECTRUM    ASCII       PEDS        4.00        
   -1
Empty Chamber2.Sample.asc
18/03/01
15:23:19.00
18/03/01
15:23:19.00
Administrator

200.000000
1
Lambda 750
750N8071901
PerkinElmer UV WinLab 6.0.4.0738 / 1.61.00 Lambda 900

0
0
3350/servo 860.8/2
0
0
UV/VIS
1
1
1
CommonBeamDepol,150mm sphere / downward view
0
0
0
0
Program
Program
3350/servo 860.8/2
3350/0.2 860.8/0.2
3350/0.2 860.8/0.2
0
1
 
 
 
0
 
860.8
319.2
860.8
Front
100
on
 
 
0
0
0
 
0
 
 
 
0
 
 
0
0
0
0
0
 
 
 
 
0
0


0
0
#HDR
-1
-1
#GR
nm
%T
1.0
0.0
2350.000000
-1.000000
2151
8
100.587793
99.287441
#DATA
2350.000000	99.955002
2349.000000	99.465810
2348.000000	99.941753
2347.000000	100.189699
2346.000000	99.962636
2345.000000	99.766722
2344.000000	100.427002
2343.000000	99.526282
2342.000000	100.384161
2341.000000	100.587793
2340.000000	99.949897
2339.000000	100.291044
2338.000000	99.973475
2337.000000	99.676021
2336.000000	99.863539
2335.000000	99.890927
2334.000000	100.118137
2333.000000	99.964652
2332.000000	100.000504
2331.000000	99.850030
2330.000000	99.835766
2329.000000	99.712523
2328.000000	100.161341
2327.000000	100.037317
2326.000000	100.415744
2325.000000	99.782917
2324.000000	100.222609
2323.000000	99.988999
2322.000000	99.818190
2321.000000	100.291211
2320.000000	100.201847
2319.000000	100.205448
2318.000000	100.255663
2317.000000	100.328473
2316.000000	99.909272
2315.000000	100.226689
2314.000000	100.530163
2313.000000	100.116938
2312.000000	100.046239
2311.000000	100.142863
2310.000000	100.352212
2309.000000	100.101564
2308.000000	99.963932
2307.000000	100.026079
2306.000000	99.804935
2305.000000	99.987375
2304.000000	100.026162
2303.000000	100.103239
2302.000000	99.999192
2301.000000	99.764896
2300.000000	99.810714
2299.000000	99.950264
2298.000000	100.115477
2297.000000	99.872687
2296.000000	100.116278
2295.000000	100.107378
2294.000000	100.206922
2293.000000	99.974544
2292.000000	99.967024
2291.000000	100.211660
2290.000000	100.124989
2289.000000	99.938529
2288.000000	100.184801
2287.000000	100.150242
2286.000000	100.039397
2285.000000	99.855566
2284.000000	100.224336
2283.000000	100.202154
2282.000000	100.160807
2281.000000	100.189896
2280.000000	100.144194
2279.000000	100.152744
2278.000000	100.121768
2277.000000	100.088516
2276.000000	100.073720
2275.000000	100.136462
2274.000000	100.202617
2273.000000	100.116318
2272.000000	99.996665
2271.000000	99.832233
2270.000000	99.890404
2269.000000	100.054365
2268.000000	100.024568
2267.000000	99.933088
2266.000000	100.162442
2265.000000	100.112870
2264.000000	99.992115
2263.000000	99.993224
2262.000000	100.080751
2261.000000	100.079998
2260.000000	100.003130
2259.000000	99.993938
2258.000000	100.130543
2257.000000	100.103495
2256.000000	100.060108
2255.000000	99.937299
2254.000000	99.978784
2253.000000	99.949514
2252.000000	99.971929
2251.000000	100.093923
2250.000000	99.949480
2249.000000	100.075150
2248.000000	100.031360
2247.000000	99.815744
2246.000000	99.850432
2245.000000	99.851532
2244.000000	99.788969
2243.000000	99.946529
2242.000000	100.071095
2241.000000	99.993732
2240.000000	100.043782
2239.000000	99.992926
2238.000000	99.955340
2237.000000	99.993630
2236.000000	100.089779
2235.000000	100.063249
2234.000000	100.006874
2233.000000	99.926349
2232.000000	99.912742
2231.000000	100.015661
2230.000000	100.226805
2229.000000	100.208473
2228.000000	100.240967
2227.000000	100.036998
2226.000000	99.807407
2225.000000	99.925652
2224.000000	100.078553
2223.000000	100.121307
2222.000000	100.074154
2221.000000	100.062535
2220.000000	100.103721
2219.000000	100.076549
2218.000000	100.000505
2217.000000	100.019399
2216.000000	100.052833
2215.000000	99.961438
2214.000000	100.062434
2213.000000	99.986562
2212.000000	99.871216
2211.000000	99.838995
2210.000000	99.968760
2209.000000	99.854273
2208.000000	99.899811
2207.000000	99.972009
2206.000000	99.979077
2205.000000	100.019108
2204.000000	100.024362
2203.000000	99.808052
2202.000000	100.008889
2201.000000	100.143981
2200.000000	99.972257
2199.000000	99.909638
2198.000000	100.226693
2197.000000	100.176793
2196.000000	99.950433
2195.000000	100.057151
2194.000000	99.971046
2193.000000	99.997678
2192.000000	100.079081
2191.000000	100.014130
2190.000000	99.868924
2189.000000	99.866770
2188.000000	99.858785
2187.000000	99.820448
2186.000000	100.014219
2185.000000	100.072314
2184.000000	99.900456
2183.000000	100.077910
2182.000000	100.077221
2181.000000	99.997077
2180.000000	100.079160
2179.000000	99.926846
2178.000000	99.790700
2177.000000	100.120868
2176.000000	100.163433
2175.000000	100.227089
2174.000000	100.306937
2173.000000	100.181363
2172.000000	100.049505
2171.000000	99.918810
2170.000000	100.030991
2169.000000	99.914594
2168.000000	100.280225
2167.000000	100.047818
2166.000000	100.248058
2165.000000	100.223917
2164.000000	99.893818
2163.000000	100.031414
2162.000000	100.029598
2161.000000	99.944175
2160.000000	100.027697
2159.000000	100.033599
2158.000000	100.212132
2157.000000	100.059058
2156.000000	99.959755
2155.000000	99.923596
2154.000000	100.047755
2153.000000	100.099353
2152.000000	99.831488
2151.000000	99.944144
2150.000000	100.141543
2149.000000	99.913904
2148.000000	100.112305
2147.000000	100.059464
2146.000000	99.989646
2145.000000	99.802732
2144.000000	100.174872
2143.000000	99.976790
2142.000000	99.847983
2141.000000	99.987450
2140.000000	99.942811
2139.000000	99.859789
2138.000000	100.170978
2137.000000	100.193199
2136.000000	100.007130
2135.000000	100.033250
2134.000000	99.853247
2133.000000	100.104761
2132.000000	100.065734
2131.000000	100.138729
2130.000000	100.138387
2129.000000	99.957220
2128.000000	100.028108
2127.000000	100.111043
2126.000000	99.898096
2125.000000	100.075261
2124.000000	100.000604
2123.000000	99.817026
2122.000000	100.022065
2121.000000	100.068234
2120.000000	99.847019
2119.000000	99.941550
2118.000000	99.902426
2117.000000	100.077026
2116.000000	100.076635
2115.000000	100.193146
2114.000000	100.105030
2113.000000	99.989530
2112.000000	100.043837
2111.000000	100.022951
2110.000000	99.935403
2109.000000	100.120355
2108.000000	100.008462
2107.000000	99.943202
2106.000000	99.909708
2105.000000	100.191864
2104.000000	100.062659
2103.000000	100.018628
2102.000000	99.999093
2101.000000	99.943107
2100.000000	100.077867
2099.000000	99.873049
2098.000000	100.061115
2097.000000	100.000907
2096.000000	99.907329
2095.000000	100.093603
2094.000000	100.122424
2093.000000	100.100244
2092.000000	100.062337
2091.000000	99.984573
2090.000000	99.989309
2089.000000	99.896045
2088.000000	99.941578
2087.000000	99.961310
2086.000000	99.988409
2085.000000	100.059325
2084.000000	99.955325
2083.000000	99.990823
2082.000000	100.006455
2081.000000	99.927828
2080.000000	99.973884
2079.000000	100.093499
2078.000000	100.035807
2077.000000	99.864269
2076.000000	99.915771
2075.000000	99.891680
2074.000000	99.947566
2073.000000	100.003226
2072.000000	100.070029
2071.000000	100.027851
2070.000000	100.121285
2069.000000	100.081067
2068.000000	100.038652
2067.000000	100.050695
2066.000000	100.003634
2065.000000	100.097676
2064.000000	99.994347
2063.000000	99.933422
2062.000000	100.030804
2061.000000	100.002423
2060.000000	100.017461
2059.000000	99.928786
2058.000000	99.900294
2057.000000	99.954618
2056.000000	100.005449
2055.000000	100.048761
2054.000000	99.970630
2053.000000	99.971330
2052.000000	99.987883
2051.000000	99.953361
2050.000000	99.998080
2049.000000	100.055479
2048.000000	99.980004
2047.000000	99.990809
2046.000000	99.992222
2045.000000	99.948501
2044.000000	99.954663
2043.000000	99.974653
2042.000000	99.977282
2041.000000	100.070215
2040.000000	100.049200
2039.000000	99.979301
2038.000000	100.008485
2037.000000	100.022030
2036.000000	100.000000
2035.000000	100.025465
2034.000000	100.018090
2033.000000	99.970086
2032.000000	100.043993
2031.000000	100.002831
2030.000000	99.944223
2029.000000	99.978884
2028.000000	100.001516
2027.000000	100.017692
2026.000000	100.078274
2025.000000	100.054204
2024.000000	100.020628
2023.000000	99.992617
2022.000000	99.902228
2021.000000	99.964312
2020.000000	100.027608
2019.000000	100.035918
2018.000000	100.063662
2017.000000	100.050807
2016.000000	100.012143
2015.000000	99.983101
2014.000000	99.967621
2013.000000	99.970157
2012.000000	100.019938
2011.000000	100.076139
2010.000000	100.025915
2009.000000	99.944333
2008.000000	100.027040
2007.000000	100.035444
2006.000000	99.997468
2005.000000	100.017522
2004.000000	100.024818
2003.000000	99.994124
2002.000000	99.988348
2001.000000	100.017628
2000.000000	99.982378
1999.000000	99.997367
1998.000000	100.042544
1997.000000	100.019247
1996.000000	99.981263
1995.000000	99.965049
1994.000000	99.972241
1993.000000	100.005369
1992.000000	99.944787
1991.000000	99.947518
1990.000000	99.977699
1989.000000	99.998378
1988.000000	99.981457
1987.000000	99.999189
1986.000000	99.984596
1985.000000	99.962200
1984.000000	99.960481
1983.000000	99.988956
1982.000000	100.019767
1981.000000	100.045019
1980.000000	100.018961
1979.000000	99.964526
1978.000000	100.025548
1977.000000	99.997770
1976.000000	99.949419
1975.000000	100.013587
1974.000000	100.031232
1973.000000	100.034587
1972.000000	100.050702
1971.000000	100.050389
1970.000000	99.972845
1969.000000	99.999797
1968.000000	100.001723
1967.000000	100.000000
1966.000000	100.025744
1965.000000	100.031837
1964.000000	100.024431
1963.000000	100.017239
1962.000000	100.038328
1961.000000	100.000811
1960.000000	99.997567
1959.000000	99.994223
1958.000000	100.020481
1957.000000	99.970405
1956.000000	100.009222
1955.000000	99.971222
1954.000000	100.013276
1953.000000	99.988041
1952.000000	100.001317
1951.000000	100.012663
1950.000000	99.966570
1949.000000	100.016213
1948.000000	100.084024
1947.000000	99.945202
1946.000000	99.975685
1945.000000	100.044897
1944.000000	99.978125
1943.000000	100.017830
1942.000000	100.007496
1941.000000	99.978335
1940.000000	99.956352
1939.000000	99.989772
1938.000000	100.032702
1937.000000	99.982291
1936.000000	100.017504
1935.000000	99.992109
1934.000000	99.983911
1933.000000	100.072061
1932.000000	99.908180
1931.000000	99.958832
1930.000000	100.019529
1929.000000	100.012547
1928.000000	100.016589
1927.000000	100.042695
1926.000000	99.987055
1925.000000	99.977648
1924.000000	99.933166
1923.000000	100.010721
1922.000000	100.042110
1921.000000	100.047144
1920.000000	99.913736
1919.000000	99.992209
1918.000000	99.985031
1917.000000	100.000506
1916.000000	99.932550
1915.000000	99.928637
1914.000000	99.960858
1913.000000	100.045632
1912.000000	99.954467
1911.000000	100.048899
1910.000000	99.970047
1909.000000	99.885890
1908.000000	99.949110
1907.000000	99.996052
1906.000000	100.005974
1905.000000	99.984407
1904.000000	100.063527
1903.000000	99.994736
1902.000000	99.939252
1901.000000	100.037782
1900.000000	100.100118
1899.000000	99.989059
1898.000000	100.061408
1897.000000	99.974874
1896.000000	99.978826
1895.000000	100.001722
1894.000000	100.004660
1893.000000	99.986530
1892.000000	100.068299
1891.000000	100.055135
1890.000000	100.056161
1889.000000	100.039719
1888.000000	100.028866
1887.000000	99.971042
1886.000000	100.002632
1885.000000	99.923725
1884.000000	99.968925
1883.000000	99.961636
1882.000000	99.952048
1881.000000	99.971987
1880.000000	100.006575
1879.000000	99.937398
1878.000000	100.032479
1877.000000	100.093322
1876.000000	100.027215
1875.000000	100.014667
1874.000000	99.982605
1873.000000	99.993429
1872.000000	99.991408
1871.000000	100.077185
1870.000000	100.029627
1869.000000	100.006979
1868.000000	99.995753
1867.000000	100.022156
1866.000000	99.988167
1865.000000	100.039252
1864.000000	99.963386
1863.000000	100.002833
1862.000000	100.031473
1861.000000	100.017707
1860.000000	100.030662
1859.000000	100.037241
1858.000000	99.993525
1857.000000	99.985435
1856.000000	99.988268
1855.000000	99.975928
1854.000000	99.995852
1853.000000	99.991402
1852.000000	99.958836
1851.000000	99.959447
1850.000000	99.978661
1849.000000	100.002933
1848.000000	100.046226
1847.000000	100.053427
1846.000000	100.001012
1845.000000	100.018111
1844.000000	100.021649
1843.000000	99.995246
1842.000000	99.960761
1841.000000	99.916697
1840.000000	99.957327
1839.000000	100.006574
1838.000000	100.002832
1837.000000	99.985533
1836.000000	99.995041
1835.000000	100.012956
1834.000000	100.002024
1833.000000	100.038771
1832.000000	100.041204
1831.000000	99.987247
1830.000000	99.979349
1829.000000	99.992305
1828.000000	99.976513
1827.000000	99.966587
1826.000000	99.986633
1825.000000	100.002228
1824.000000	100.013266
1823.000000	100.018833
1822.000000	100.027341
1821.000000	100.017115
1820.000000	99.993317
1819.000000	99.988861
1818.000000	100.000709
1817.000000	99.965972
1816.000000	99.986531
1815.000000	100.017421
1814.000000	99.985517
1813.000000	99.966075
1812.000000	99.966078
1811.000000	99.964661
1810.000000	99.979440
1809.000000	99.995238
1808.000000	100.004661
1807.000000	100.016718
1806.000000	100.022798
1805.000000	99.999899
1804.000000	99.983486
1803.000000	100.004561
1802.000000	100.003952
1801.000000	99.991792
1800.000000	99.994933
1799.000000	100.004966
1798.000000	99.984901
1797.000000	99.979936
1796.000000	99.992703
1795.000000	99.999899
1794.000000	100.019766
1793.000000	100.019462
1792.000000	100.008616
1791.000000	99.988952
1790.000000	99.974053
1789.000000	100.010035
1788.000000	100.019364
1787.000000	100.001723
1786.000000	100.016524
1785.000000	100.014194
1784.000000	99.991788
1783.000000	99.956525
1782.000000	99.986721
1781.000000	100.003142
1780.000000	100.008312
1779.000000	100.024025
1778.000000	100.045727
1777.000000	100.033864
1776.000000	100.005779
1775.000000	99.992195
1774.000000	99.992195
1773.000000	100.000811
1772.000000	99.974664
1771.000000	99.982464
1770.000000	99.987836
1769.000000	99.990269
1768.000000	99.989966
1767.000000	100.017433
1766.000000	100.001419
1765.000000	100.012974
1764.000000	99.990979
1763.000000	99.964735
1762.000000	99.972536
1761.000000	99.985402
1760.000000	100.007807
1759.000000	99.993210
1758.000000	100.010845
1757.000000	100.016725
1756.000000	99.976284
1755.000000	99.982668
1754.000000	99.997466
1753.000000	99.991691
1752.000000	100.011857
1751.000000	99.990373
1750.000000	100.002128
1749.000000	100.002533
1748.000000	99.985308
1747.000000	99.983785
1746.000000	99.999696
1745.000000	99.961595
1744.000000	100.035579
1743.000000	99.977303
1742.000000	99.979833
1741.000000	100.009326
1740.000000	100.040249
1739.000000	100.011349
1738.000000	99.963125
1737.000000	99.993008
1736.000000	99.984803
1735.000000	99.978216
1734.000000	100.006890
1733.000000	99.992298
1732.000000	99.985814
1731.000000	100.021085
1730.000000	100.003547
1729.000000	99.980852
1728.000000	99.961396
1727.000000	100.011755
1726.000000	100.009729
1725.000000	99.988550
1724.000000	99.979231
1723.000000	99.982066
1722.000000	99.979228
1721.000000	100.011957
1720.000000	100.011450
1719.000000	100.007803
1718.000000	99.994021
1717.000000	100.043471
1716.000000	100.014083
1715.000000	99.967480
1714.000000	100.014894
1713.000000	100.014793
1712.000000	100.018342
1711.000000	100.001925
1710.000000	100.003850
1709.000000	100.013377
1708.000000	100.014086
1707.000000	99.994629
1706.000000	99.993819
1705.000000	99.960285
1704.000000	99.992805
1703.000000	99.973354
1702.000000	100.001013
1701.000000	100.000608
1700.000000	99.973964
1699.000000	100.004356
1698.000000	100.020063
1697.000000	99.997163
1696.000000	99.985005
1695.000000	100.018139
1694.000000	100.035569
1693.000000	99.998075
1692.000000	99.996758
1691.000000	100.043168
1690.000000	99.994934
1689.000000	100.000101
1688.000000	99.990071
1687.000000	100.025633
1686.000000	99.980957
1685.000000	100.013575
1684.000000	99.981061
1683.000000	99.972248
1682.000000	100.003646
1681.000000	100.005471
1680.000000	99.999392
1679.000000	100.020670
1678.000000	100.004155
1677.000000	99.980346
1676.000000	99.986323
1675.000000	99.993213
1674.000000	100.006382
1673.000000	100.003647
1672.000000	99.988045
1671.000000	99.987235
1670.000000	99.985313
1669.000000	100.011344
1668.000000	99.985115
1667.000000	100.001215
1666.000000	100.029270
1665.000000	100.007190
1664.000000	100.006786
1663.000000	99.987342
1662.000000	100.008911
1661.000000	100.006685
1660.000000	100.002633
1659.000000	99.991189
1658.000000	100.003747
1657.000000	99.971852
1656.000000	99.984104
1655.000000	99.989773
1654.000000	99.999595
1653.000000	99.990888
1652.000000	100.005670
1651.000000	99.996760
1650.000000	100.011142
1649.000000	100.021370
1648.000000	99.983595
1647.000000	100.006076
1646.000000	100.013674
1645.000000	100.001823
1644.000000	100.016609
1643.000000	99.982991
1642.000000	99.993520
1641.000000	100.000405
1640.000000	99.974889
1639.000000	99.989368
1638.000000	100.006480
1637.000000	100.018938
1636.000000	99.995038
1635.000000	100.013571
1634.000000	99.998683
1633.000000	100.004253
1632.000000	100.013267
1631.000000	99.985722
1630.000000	99.975597
1629.000000	99.992708
1628.000000	100.016103
1627.000000	99.983192
1626.000000	99.995747
1625.000000	99.996050
1624.000000	99.989469
1623.000000	100.021165
1622.000000	100.007189
1621.000000	100.007190
1620.000000	100.016101
1619.000000	100.016001
1618.000000	100.006177
1617.000000	100.009620
1616.000000	99.989469
1615.000000	99.983090
1614.000000	100.007595
1613.000000	100.014077
1612.000000	100.006886
1611.000000	100.009924
1610.000000	100.006278
1609.000000	99.983396
1608.000000	99.985724
1607.000000	100.003139
1606.000000	100.006379
1605.000000	100.019543
1604.000000	100.012253
1603.000000	100.013164
1602.000000	100.020050
1601.000000	99.998886
1600.000000	100.006076
1599.000000	99.994026
1598.000000	99.979750
1597.000000	100.003341
1596.000000	100.005164
1595.000000	99.994735
1594.000000	100.013062
1593.000000	100.009721
1592.000000	99.999393
1591.000000	99.995140
1590.000000	100.006683
1589.000000	99.991900
1588.000000	99.993824
1587.000000	100.006582
1586.000000	99.989268
1585.000000	100.001114
1584.000000	100.017721
1583.000000	100.002633
1582.000000	99.997874
1581.000000	99.991090
1580.000000	99.981170
1579.000000	99.989978
1578.000000	99.994432
1577.000000	99.987953
1576.000000	99.985929
1575.000000	100.019238
1574.000000	100.010125
1573.000000	99.999190
1572.000000	100.010125
1571.000000	99.981677
1570.000000	99.993623
1569.000000	100.004859
1568.000000	99.989877
1567.000000	100.011338
1566.000000	100.008402
1565.000000	99.999595
1564.000000	99.999798
1563.000000	99.991497
1562.000000	99.988562
1561.000000	99.998279
1560.000000	100.001721
1559.000000	100.002530
1558.000000	100.007491
1557.000000	100.010933
1556.000000	100.017717
1555.000000	100.017715
1554.000000	100.013362
1553.000000	99.999798
1552.000000	100.004959
1551.000000	99.981784
1550.000000	100.001822
1549.000000	99.997470
1548.000000	99.995850
1547.000000	99.985831
1546.000000	100.002733
1545.000000	100.008604
1544.000000	100.000911
1543.000000	100.009109
1542.000000	100.000708
1541.000000	100.008704
1540.000000	99.985124
1539.000000	100.009818
1538.000000	100.004048
1537.000000	99.990386
1536.000000	99.979965
1535.000000	99.995042
1534.000000	100.003542
1533.000000	100.016800
1532.000000	99.985832
1531.000000	99.988666
1530.000000	99.998583
1529.000000	99.992107
1528.000000	100.001620
1527.000000	100.019943
1526.000000	100.019033
1525.000000	99.997469
1524.000000	99.989776
1523.000000	99.980466
1522.000000	99.998482
1521.000000	100.001316
1520.000000	99.987552
1519.000000	99.998178
1518.000000	99.982088
1517.000000	99.996964
1516.000000	100.002227
1515.000000	99.992410
1514.000000	99.999089
1513.000000	100.010427
1512.000000	99.993117
1511.000000	100.004151
1510.000000	100.016703
1509.000000	99.998684
1508.000000	99.981376
1507.000000	100.008300
1506.000000	100.001113
1505.000000	99.980364
1504.000000	99.990685
1503.000000	100.019340
1502.000000	99.990585
1501.000000	99.980768
1500.000000	99.981982
1499.000000	99.985727
1498.000000	99.970648
1497.000000	99.995040
1496.000000	100.007593
1495.000000	100.011643
1494.000000	99.993218
1493.000000	100.005567
1492.000000	100.009920
1491.000000	100.004049
1490.000000	99.980771
