PE UV       SUBTECH     SPECTRUM    ASCII       PEDS        4.00        
   -1
TDAgneauUK 52.Sample.asc
18/03/01
12:15:07.00
18/03/01
12:15:07.00
Administrator

200.000000
1
Lambda 750
750N8071901
PerkinElmer UV WinLab 6.0.4.0738 / 1.61.00 Lambda 900

0
0
3350/servo 860.8/2
0
0
UV/VIS
1
1
1
CommonBeamDepol,150mm sphere / downward view
0
0
0
0
Program
Program
3350/servo 860.8/2
3350/0.2 860.8/0.2
3350/0.2 860.8/0.2
0
1
 
 
 
0
 
860.8
319.2
860.8
Front
100
on
 
 
0
0
0
 
0
 
 
 
0
 
 
0
0
0
0
0
 
 
 
 
0
0


0
0
#HDR
-1
-1
#GR
nm
%T
1.0
0.0
2350.000000
-1.000000
2151
8
27.482002
0.027178
#DATA
2350.000000	6.999969
2349.000000	6.813963
2348.000000	6.755118
2347.000000	7.497460
2346.000000	7.280021
2345.000000	7.093846
2344.000000	6.912445
2343.000000	6.627407
2342.000000	6.537344
2341.000000	7.022721
2340.000000	7.037491
2339.000000	7.244844
2338.000000	7.343654
2337.000000	7.172409
2336.000000	7.379454
2335.000000	7.485118
2334.000000	7.173980
2333.000000	7.802552
2332.000000	7.895672
2331.000000	7.415836
2330.000000	7.409774
2329.000000	7.605540
2328.000000	7.367624
2327.000000	7.041116
2326.000000	7.485875
2325.000000	7.558504
2324.000000	7.386832
2323.000000	7.340165
2322.000000	7.189322
2321.000000	7.431951
2320.000000	7.216179
2319.000000	7.213430
2318.000000	7.253325
2317.000000	7.171147
2316.000000	7.208531
2315.000000	7.238781
2314.000000	7.079389
2313.000000	6.993086
2312.000000	7.146928
2311.000000	6.969509
2310.000000	6.991792
2309.000000	6.978064
2308.000000	6.750104
2307.000000	6.731286
2306.000000	6.505644
2305.000000	6.491548
2304.000000	6.786495
2303.000000	6.772887
2302.000000	6.886919
2301.000000	6.643305
2300.000000	6.442241
2299.000000	6.524900
2298.000000	6.314815
2297.000000	6.259731
2296.000000	6.315364
2295.000000	6.610904
2294.000000	6.430059
2293.000000	6.413596
2292.000000	6.032592
2291.000000	6.088623
2290.000000	6.198965
2289.000000	6.248355
2288.000000	5.992979
2287.000000	6.091921
2286.000000	6.101181
2285.000000	6.033371
2284.000000	6.000292
2283.000000	6.090781
2282.000000	6.137477
2281.000000	6.109877
2280.000000	5.970470
2279.000000	5.976973
2278.000000	5.923207
2277.000000	5.846167
2276.000000	5.928047
2275.000000	6.077737
2274.000000	6.179238
2273.000000	6.152711
2272.000000	6.216302
2271.000000	6.180412
2270.000000	6.198386
2269.000000	6.215542
2268.000000	6.228001
2267.000000	6.284392
2266.000000	6.462653
2265.000000	6.562040
2264.000000	6.650982
2263.000000	6.622886
2262.000000	6.509232
2261.000000	6.609404
2260.000000	6.749569
2259.000000	6.925461
2258.000000	7.144969
2257.000000	7.166217
2256.000000	7.160810
2255.000000	7.251887
2254.000000	7.204633
2253.000000	7.226805
2252.000000	7.305030
2251.000000	7.405777
2250.000000	7.576487
2249.000000	7.725727
2248.000000	7.902502
2247.000000	8.047371
2246.000000	8.127069
2245.000000	8.201605
2244.000000	8.197956
2243.000000	8.336539
2242.000000	8.363877
2241.000000	8.389637
2240.000000	8.691191
2239.000000	8.703918
2238.000000	8.676593
2237.000000	8.772782
2236.000000	8.786150
2235.000000	8.826138
2234.000000	8.916155
2233.000000	8.961009
2232.000000	8.927608
2231.000000	8.928962
2230.000000	9.030077
2229.000000	9.087246
2228.000000	9.009887
2227.000000	8.949320
2226.000000	8.863090
2225.000000	8.786368
2224.000000	8.941727
2223.000000	9.147503
2222.000000	9.214030
2221.000000	9.248959
2220.000000	9.168269
2219.000000	8.960331
2218.000000	8.981903
2217.000000	8.982660
2216.000000	8.891507
2215.000000	8.953092
2214.000000	8.997767
2213.000000	8.995670
2212.000000	8.955098
2211.000000	8.775569
2210.000000	8.666396
2209.000000	8.686600
2208.000000	8.671701
2207.000000	8.663382
2206.000000	8.777071
2205.000000	8.676612
2204.000000	8.502582
2203.000000	8.486389
2202.000000	8.436932
2201.000000	8.455831
2200.000000	8.405433
2199.000000	8.394195
2198.000000	8.401110
2197.000000	8.354884
2196.000000	8.126102
2195.000000	8.145325
2194.000000	8.201489
2193.000000	8.070609
2192.000000	8.044330
2191.000000	7.910015
2190.000000	7.913900
2189.000000	7.831687
2188.000000	7.864800
2187.000000	7.660297
2186.000000	7.653978
2185.000000	7.675867
2184.000000	7.710242
2183.000000	7.814967
2182.000000	7.797828
2181.000000	7.751500
2180.000000	7.626470
2179.000000	7.653327
2178.000000	7.561618
2177.000000	7.676251
2176.000000	7.656779
2175.000000	7.865625
2174.000000	7.889173
2173.000000	7.632839
2172.000000	7.627395
2171.000000	7.816003
2170.000000	7.723303
2169.000000	7.869384
2168.000000	7.937671
2167.000000	7.814189
2166.000000	7.879082
2165.000000	7.958831
2164.000000	8.027273
2163.000000	8.045155
2162.000000	8.161151
2161.000000	8.174573
2160.000000	8.092403
2159.000000	8.331788
2158.000000	8.372442
2157.000000	8.485441
2156.000000	8.394537
2155.000000	8.479261
2154.000000	8.792081
2153.000000	8.718358
2152.000000	8.876002
2151.000000	8.703077
2150.000000	8.705218
2149.000000	8.998895
2148.000000	8.951664
2147.000000	9.021928
2146.000000	9.124368
2145.000000	9.179289
2144.000000	9.342420
2143.000000	9.214336
2142.000000	9.475560
2141.000000	9.574829
2140.000000	9.625996
2139.000000	9.800106
2138.000000	9.869978
2137.000000	9.770240
2136.000000	9.827942
2135.000000	9.850685
2134.000000	9.985640
2133.000000	9.783069
2132.000000	10.118901
2131.000000	10.164984
2130.000000	10.282511
2129.000000	10.341072
2128.000000	10.288289
2127.000000	10.228804
2126.000000	10.314049
2125.000000	10.341159
2124.000000	10.252317
2123.000000	10.378611
2122.000000	10.469182
2121.000000	10.477957
2120.000000	10.450790
2119.000000	10.499193
2118.000000	10.564320
2117.000000	10.594640
2116.000000	10.797814
2115.000000	10.649679
2114.000000	10.640213
2113.000000	10.701293
2112.000000	10.669179
2111.000000	10.582122
2110.000000	10.545926
2109.000000	10.773624
2108.000000	10.642396
2107.000000	10.735512
2106.000000	10.744181
2105.000000	10.666729
2104.000000	10.794455
2103.000000	10.868751
2102.000000	10.854915
2101.000000	10.920977
2100.000000	11.006192
2099.000000	10.896983
2098.000000	10.737981
2097.000000	10.703970
2096.000000	10.818198
2095.000000	10.681286
2094.000000	10.798365
2093.000000	10.777757
2092.000000	10.883789
2091.000000	10.769998
2090.000000	10.757390
2089.000000	10.891424
2088.000000	10.794471
2087.000000	10.805232
2086.000000	10.683353
2085.000000	10.715029
2084.000000	10.690158
2083.000000	10.651634
2082.000000	10.723858
2081.000000	10.680689
2080.000000	10.591734
2079.000000	10.514069
2078.000000	10.482240
2077.000000	10.433406
2076.000000	10.423281
2075.000000	10.361793
2074.000000	10.312489
2073.000000	10.281552
2072.000000	10.205354
2071.000000	10.036126
2070.000000	10.068167
2069.000000	10.036284
2068.000000	9.895941
2067.000000	9.759287
2066.000000	9.686965
2065.000000	9.671872
2064.000000	9.579559
2063.000000	9.448087
2062.000000	9.384013
2061.000000	9.346713
2060.000000	9.278164
2059.000000	9.181287
2058.000000	9.103887
2057.000000	8.993201
2056.000000	9.007144
2055.000000	8.867958
2054.000000	8.775008
2053.000000	8.714084
2052.000000	8.664790
2051.000000	8.562240
2050.000000	8.463652
2049.000000	8.440232
2048.000000	8.394831
2047.000000	8.370516
2046.000000	8.378082
2045.000000	8.382552
2044.000000	8.365627
2043.000000	8.343918
2042.000000	8.328266
2041.000000	8.335931
2040.000000	8.368852
2039.000000	8.331333
2038.000000	8.340312
2037.000000	8.457944
2036.000000	8.547172
2035.000000	8.623155
2034.000000	8.626716
2033.000000	8.658779
2032.000000	8.758555
2031.000000	8.804886
2030.000000	8.856518
2029.000000	8.977149
2028.000000	9.044867
2027.000000	9.059940
2026.000000	9.181118
2025.000000	9.299889
2024.000000	9.278640
2023.000000	9.281928
2022.000000	9.404744
2021.000000	9.489823
2020.000000	9.589062
2019.000000	9.624671
2018.000000	9.652083
2017.000000	9.681905
2016.000000	9.676143
2015.000000	9.695544
2014.000000	9.738637
2013.000000	9.773544
2012.000000	9.772676
2011.000000	9.755999
2010.000000	9.740620
2009.000000	9.697355
2008.000000	9.685998
2007.000000	9.676729
2006.000000	9.640500
2005.000000	9.627044
2004.000000	9.599044
2003.000000	9.609508
2002.000000	9.585924
2001.000000	9.546591
2000.000000	9.502081
1999.000000	9.448403
1998.000000	9.417684
1997.000000	9.394040
1996.000000	9.355725
1995.000000	9.315275
1994.000000	9.244599
1993.000000	9.172084
1992.000000	9.149225
1991.000000	9.119322
1990.000000	9.064647
1989.000000	9.010389
1988.000000	8.967524
1987.000000	8.935317
1986.000000	8.861441
1985.000000	8.793491
1984.000000	8.768629
1983.000000	8.726450
1982.000000	8.732371
1981.000000	8.706396
1980.000000	8.612379
1979.000000	8.590769
1978.000000	8.559062
1977.000000	8.512138
1976.000000	8.460281
1975.000000	8.390884
1974.000000	8.351753
1973.000000	8.369973
1972.000000	8.326349
1971.000000	8.281224
1970.000000	8.237232
1969.000000	8.215974
1968.000000	8.118300
1967.000000	8.040606
1966.000000	8.007357
1965.000000	7.955960
1964.000000	7.944939
1963.000000	7.923276
1962.000000	7.857450
1961.000000	7.804624
1960.000000	7.708250
1959.000000	7.698309
1958.000000	7.704564
1957.000000	7.661929
1956.000000	7.619721
1955.000000	7.566862
1954.000000	7.599042
1953.000000	7.556100
1952.000000	7.556610
1951.000000	7.548480
1950.000000	7.451239
1949.000000	7.426190
1948.000000	7.423150
1947.000000	7.427309
1946.000000	7.390445
1945.000000	7.457315
1944.000000	7.448203
1943.000000	7.518222
1942.000000	7.425024
1941.000000	7.439250
1940.000000	7.472626
1939.000000	7.474120
1938.000000	7.507437
1937.000000	7.570753
1936.000000	7.656773
1935.000000	7.637801
1934.000000	7.692901
1933.000000	7.743179
1932.000000	7.766977
1931.000000	7.890118
1930.000000	8.041707
1929.000000	8.115302
1928.000000	8.116790
1927.000000	8.237029
1926.000000	8.372320
1925.000000	8.494201
1924.000000	8.632011
1923.000000	8.736051
1922.000000	8.858021
1921.000000	9.058045
1920.000000	9.167228
1919.000000	9.250857
1918.000000	9.500128
1917.000000	9.635607
1916.000000	9.771256
1915.000000	10.013441
1914.000000	10.236883
1913.000000	10.423034
1912.000000	10.628589
1911.000000	10.827770
1910.000000	11.050548
1909.000000	11.239000
1908.000000	11.359557
1907.000000	11.670491
1906.000000	11.939552
1905.000000	12.225167
1904.000000	12.410310
1903.000000	12.730160
1902.000000	12.978417
1901.000000	13.246163
1900.000000	13.507483
1899.000000	13.777704
1898.000000	14.149270
1897.000000	14.394309
1896.000000	14.629373
1895.000000	14.902519
1894.000000	15.189483
1893.000000	15.448305
1892.000000	15.754316
1891.000000	15.999801
1890.000000	16.333926
1889.000000	16.637595
1888.000000	16.781509
1887.000000	17.044861
1886.000000	17.321941
1885.000000	17.510844
1884.000000	17.710434
1883.000000	17.991089
1882.000000	18.190288
1881.000000	18.325456
1880.000000	18.521537
1879.000000	18.780693
1878.000000	18.881877
1877.000000	19.071140
1876.000000	19.183664
1875.000000	19.348008
1874.000000	19.469937
1873.000000	19.571178
1872.000000	19.638907
1871.000000	19.790799
1870.000000	19.850476
1869.000000	19.951226
1868.000000	20.029530
1867.000000	20.060905
1866.000000	20.098917
1865.000000	20.192468
1864.000000	20.203412
1863.000000	20.253520
1862.000000	20.289211
1861.000000	20.357090
1860.000000	20.359186
1859.000000	20.333655
1858.000000	20.380626
1857.000000	20.425300
1856.000000	20.421035
1855.000000	20.456889
1854.000000	20.475479
1853.000000	20.482721
1852.000000	20.479300
1851.000000	20.475763
1850.000000	20.479113
1849.000000	20.509098
1848.000000	20.495044
1847.000000	20.497260
1846.000000	20.477599
1845.000000	20.483470
1844.000000	20.470918
1843.000000	20.428294
1842.000000	20.391928
1841.000000	20.372711
1840.000000	20.359189
1839.000000	20.326288
1838.000000	20.310828
1837.000000	20.281914
1836.000000	20.224841
1835.000000	20.192123
1834.000000	20.140833
1833.000000	20.141604
1832.000000	20.121978
1831.000000	20.074848
1830.000000	20.072685
1829.000000	20.027107
1828.000000	19.985251
1827.000000	19.954988
1826.000000	19.927754
1825.000000	19.914564
1824.000000	19.876208
1823.000000	19.847282
1822.000000	19.842470
1821.000000	19.833044
1820.000000	19.809074
1819.000000	19.772887
1818.000000	19.756964
1817.000000	19.737876
1816.000000	19.707594
1815.000000	19.698010
1814.000000	19.671111
1813.000000	19.634819
1812.000000	19.612760
1811.000000	19.587185
1810.000000	19.572865
1809.000000	19.566308
1808.000000	19.544712
1807.000000	19.522252
1806.000000	19.506609
1805.000000	19.485776
1804.000000	19.452901
1803.000000	19.425495
1802.000000	19.400271
1801.000000	19.399363
1800.000000	19.398790
1799.000000	19.370294
1798.000000	19.355353
1797.000000	19.345521
1796.000000	19.326206
1795.000000	19.310649
1794.000000	19.303117
1793.000000	19.291665
1792.000000	19.280279
1791.000000	19.278045
1790.000000	19.255519
1789.000000	19.224440
1788.000000	19.227925
1787.000000	19.206533
1786.000000	19.192946
1785.000000	19.189160
1784.000000	19.153596
1783.000000	19.118791
1782.000000	19.107424
1781.000000	19.096633
1780.000000	19.058216
1779.000000	19.039049
1778.000000	19.029363
1777.000000	18.971452
1776.000000	18.935409
1775.000000	18.888105
1774.000000	18.835035
1773.000000	18.801627
1772.000000	18.750635
1771.000000	18.705540
1770.000000	18.670407
1769.000000	18.601444
1768.000000	18.556236
1767.000000	18.538363
1766.000000	18.514749
1765.000000	18.448033
1764.000000	18.384910
1763.000000	18.329681
1762.000000	18.308494
1761.000000	18.263874
1760.000000	18.214096
1759.000000	18.160424
1758.000000	18.136270
1757.000000	18.089924
1756.000000	18.064630
1755.000000	18.006717
1754.000000	17.946877
1753.000000	17.917267
1752.000000	17.890588
1751.000000	17.860799
1750.000000	17.804392
1749.000000	17.746802
1748.000000	17.723753
1747.000000	17.673844
1746.000000	17.627779
1745.000000	17.571289
1744.000000	17.521939
1743.000000	17.477079
1742.000000	17.426055
1741.000000	17.372915
1740.000000	17.350527
1739.000000	17.312483
1738.000000	17.304459
1737.000000	17.269127
1736.000000	17.234995
1735.000000	17.222246
1734.000000	17.237776
1733.000000	17.238402
1732.000000	17.230685
1731.000000	17.209748
1730.000000	17.218158
1729.000000	17.247026
1728.000000	17.273555
1727.000000	17.321343
1726.000000	17.324976
1725.000000	17.359270
1724.000000	17.431231
1723.000000	17.463555
1722.000000	17.570875
1721.000000	17.619426
1720.000000	17.668575
1719.000000	17.731892
1718.000000	17.786786
1717.000000	17.848389
1716.000000	17.895623
1715.000000	17.944219
1714.000000	17.988995
1713.000000	18.040952
1712.000000	18.103924
1711.000000	18.144662
1710.000000	18.166430
1709.000000	18.214146
1708.000000	18.269762
1707.000000	18.253881
1706.000000	18.260329
1705.000000	18.307980
1704.000000	18.333078
1703.000000	18.316877
1702.000000	18.334411
1701.000000	18.368920
1700.000000	18.387994
1699.000000	18.351321
1698.000000	18.428519
1697.000000	18.412266
1696.000000	18.462423
1695.000000	18.470734
1694.000000	18.476500
1693.000000	18.529619
1692.000000	18.572361
1691.000000	18.611104
1690.000000	18.693497
1689.000000	18.748610
1688.000000	18.818470
1687.000000	18.887138
1686.000000	18.977918
1685.000000	19.069438
1684.000000	19.206918
1683.000000	19.284393
1682.000000	19.390692
1681.000000	19.503398
1680.000000	19.648244
1679.000000	19.754582
1678.000000	19.862814
1677.000000	19.978924
1676.000000	20.089060
1675.000000	20.233603
1674.000000	20.341929
1673.000000	20.458492
1672.000000	20.590404
1671.000000	20.701489
1670.000000	20.802119
1669.000000	20.928246
1668.000000	21.009542
1667.000000	21.125395
1666.000000	21.167444
1665.000000	21.203682
1664.000000	21.276261
1663.000000	21.337241
1662.000000	21.385022
1661.000000	21.447575
1660.000000	21.498239
1659.000000	21.554162
1658.000000	21.603662
1657.000000	21.614151
1656.000000	21.662493
1655.000000	21.694119
1654.000000	21.707147
1653.000000	21.736236
1652.000000	21.737242
1651.000000	21.746274
1650.000000	21.756482
1649.000000	21.716481
1648.000000	21.720995
1647.000000	21.712971
1646.000000	21.708445
1645.000000	21.700685
1644.000000	21.704058
1643.000000	21.676423
1642.000000	21.655184
1641.000000	21.635305
1640.000000	21.612117
1639.000000	21.590570
1638.000000	21.573153
1637.000000	21.560133
1636.000000	21.540828
1635.000000	21.516323
1634.000000	21.484063
1633.000000	21.462097
1632.000000	21.448087
1631.000000	21.411670
1630.000000	21.385273
1629.000000	21.361777
1628.000000	21.323449
1627.000000	21.304584
1626.000000	21.287879
1625.000000	21.260212
1624.000000	21.239708
1623.000000	21.199517
1622.000000	21.171528
1621.000000	21.141373
1620.000000	21.108913
1619.000000	21.077793
1618.000000	21.034647
1617.000000	20.994202
1616.000000	20.958331
1615.000000	20.935942
1614.000000	20.913710
1613.000000	20.862234
1612.000000	20.831997
1611.000000	20.813067
1610.000000	20.773624
1609.000000	20.724740
1608.000000	20.688693
1607.000000	20.661769
1606.000000	20.607662
1605.000000	20.564734
1604.000000	20.536719
1603.000000	20.503226
1602.000000	20.466644
1601.000000	20.417982
1600.000000	20.379365
1599.000000	20.347915
1598.000000	20.305837
1597.000000	20.264482
1596.000000	20.229694
1595.000000	20.201225
1594.000000	20.163037
1593.000000	20.118552
1592.000000	20.082507
1591.000000	20.058760
1590.000000	20.032830
1589.000000	19.988638
1588.000000	19.960233
1587.000000	19.944348
1586.000000	19.913075
1585.000000	19.873450
1584.000000	19.847530
1583.000000	19.828697
1582.000000	19.790663
1581.000000	19.746326
1580.000000	19.722078
1579.000000	19.714786
1578.000000	19.684178
1577.000000	19.639581
1576.000000	19.610795
1575.000000	19.589234
1574.000000	19.563127
1573.000000	19.528619
1572.000000	19.505454
1571.000000	19.479365
1570.000000	19.446121
1569.000000	19.423375
1568.000000	19.396523
1567.000000	19.386229
1566.000000	19.362150
1565.000000	19.334554
1564.000000	19.320480
1563.000000	19.301276
1562.000000	19.276384
1561.000000	19.267921
1560.000000	19.255624
1559.000000	19.227497
1558.000000	19.219789
1557.000000	19.213453
1556.000000	19.195866
1555.000000	19.179351
1554.000000	19.151543
1553.000000	19.136317
1552.000000	19.130826
1551.000000	19.097567
1550.000000	19.074678
1549.000000	19.049005
1548.000000	19.020393
1547.000000	18.988964
1546.000000	18.966094
1545.000000	18.917970
1544.000000	18.867701
1543.000000	18.826702
1542.000000	18.765984
1541.000000	18.707961
1540.000000	18.668568
1539.000000	18.607660
1538.000000	18.536663
1537.000000	18.479427
1536.000000	18.421335
1535.000000	18.363321
1534.000000	18.311649
1533.000000	18.256797
1532.000000	18.195976
1531.000000	18.131458
1530.000000	18.081686
1529.000000	18.017303
1528.000000	17.955767
1527.000000	17.915178
1526.000000	17.870621
1525.000000	17.829131
1524.000000	17.784297
1523.000000	17.737038
1522.000000	17.691716
1521.000000	17.659725
1520.000000	17.626504
1519.000000	17.591248
1518.000000	17.577993
1517.000000	17.531549
1516.000000	17.499270
1515.000000	17.464488
1514.000000	17.435587
1513.000000	17.415648
1512.000000	17.402113
1511.000000	17.378193
1510.000000	17.382921
1509.000000	17.346934
1508.000000	17.327394
1507.000000	17.324013
1506.000000	17.313066
1505.000000	17.314590
1504.000000	17.289424
1503.000000	17.311156
1502.000000	17.298818
1501.000000	17.302439
1500.000000	17.287558
1499.000000	17.306245
1498.000000	17.331784
1497.000000	17.365965
1496.000000	17.373406
1495.000000	17.379448
1494.000000	17.401217
1493.000000	17.421244
1492.000000	17.449381
1491.000000	17.473530
1490.000000	17.511284
1489.000000	17.556072
1488.000000	17.591918
1487.000000	17.641344
1486.000000	17.697469
1485.000000	17.752120
1484.000000	17.803526
1483.000000	17.872441
1482.000000	17.913355
1481.000000	17.991976
1480.000000	18.052463
1479.000000	18.107531
1478.000000	18.154834
1477.000000	18.193467
1476.000000	18.252018
1475.000000	18.307458
1474.000000	18.362191
1473.000000	18.416319
1472.000000	18.465010
1471.000000	18.547310
1470.000000	18.602932
1469.000000	18.665997
1468.000000	18.684247
1467.000000	18.738430
1466.000000	18.802310
1465.000000	18.836850
1464.000000	18.831370
1463.000000	18.888587
1462.000000	18.937398
1461.000000	18.979094
1460.000000	19.009571
1459.000000	19.048189
1458.000000	19.101676
1457.000000	19.131844
1456.000000	19.154016
1455.000000	19.192377
1454.000000	19.220356
1453.000000	19.269862
