PE UV       SUBTECH     SPECTRUM    ASCII       PEDS        4.00        
   -1
TDAgneauUK 32.Sample.Cycle1.asc
18/03/01
12:35:59.00
18/03/01
12:35:59.00
Administrator

200.000000
1
Lambda 750
750N8071901
PerkinElmer UV WinLab 6.0.4.0738 / 1.61.00 Lambda 900

0
0
3350/servo 860.8/2
0
0
UV/VIS
1
1
1
CommonBeamDepol,150mm sphere / downward view
0
0
0
0
Program
Program
3350/servo 860.8/2
3350/0.2 860.8/0.2
3350/0.2 860.8/0.2
0
1
 
 
 
0
 
860.8
319.2
860.8
Front
100
on
 
 
0
0
0
 
0
 
 
 
0
 
 
0
0
0
0
0
 
 
 
 
0
0


0
0
#HDR
-1
-1
#GR
nm
%T
1.0
0.0
2350.000000
-1.000000
2151
8
27.376412
0.009897
#DATA
2350.000000	6.411397
2349.000000	6.465486
2348.000000	6.426051
2347.000000	6.957662
2346.000000	6.436229
2345.000000	6.412033
2344.000000	6.663772
2343.000000	6.243368
2342.000000	6.564786
2341.000000	6.427829
2340.000000	6.481639
2339.000000	6.554207
2338.000000	7.025125
2337.000000	6.979445
2336.000000	6.976374
2335.000000	7.099111
2334.000000	6.974941
2333.000000	7.000796
2332.000000	7.274272
2331.000000	7.247246
2330.000000	7.151600
2329.000000	7.219609
2328.000000	7.129295
2327.000000	7.080845
2326.000000	7.039178
2325.000000	6.889611
2324.000000	6.896371
2323.000000	6.961938
2322.000000	6.911993
2321.000000	6.910198
2320.000000	6.855147
2319.000000	6.872735
2318.000000	6.994606
2317.000000	6.916277
2316.000000	6.894229
2315.000000	6.791171
2314.000000	6.705146
2313.000000	6.679484
2312.000000	6.393919
2311.000000	6.453913
2310.000000	6.356802
2309.000000	6.354006
2308.000000	6.335283
2307.000000	6.393972
2306.000000	6.424886
2305.000000	6.298619
2304.000000	6.422055
2303.000000	6.482846
2302.000000	6.251026
2301.000000	6.124085
2300.000000	5.969461
2299.000000	6.032315
2298.000000	6.150059
2297.000000	6.209216
2296.000000	6.192499
2295.000000	5.989979
2294.000000	5.835285
2293.000000	5.860426
2292.000000	5.837262
2291.000000	5.903731
2290.000000	6.022539
2289.000000	5.995173
2288.000000	5.779139
2287.000000	5.786166
2286.000000	5.851049
2285.000000	5.756783
2284.000000	5.653122
2283.000000	5.586263
2282.000000	5.555527
2281.000000	5.699773
2280.000000	5.708406
2279.000000	5.770965
2278.000000	5.614861
2277.000000	5.685857
2276.000000	5.861881
2275.000000	5.678583
2274.000000	5.579222
2273.000000	5.802264
2272.000000	5.834628
2271.000000	5.880153
2270.000000	5.819155
2269.000000	5.888797
2268.000000	5.887059
2267.000000	5.833222
2266.000000	5.827439
2265.000000	6.027870
2264.000000	6.224821
2263.000000	6.171017
2262.000000	6.292248
2261.000000	6.350073
2260.000000	6.237714
2259.000000	6.375992
2258.000000	6.728847
2257.000000	6.809314
2256.000000	6.680894
2255.000000	6.725334
2254.000000	6.799668
2253.000000	6.967131
2252.000000	7.143690
2251.000000	7.117514
2250.000000	7.105261
2249.000000	7.229998
2248.000000	7.341900
2247.000000	7.454371
2246.000000	7.625045
2245.000000	7.701253
2244.000000	7.790484
2243.000000	7.923088
2242.000000	8.021461
2241.000000	8.043005
2240.000000	8.049361
2239.000000	8.214993
2238.000000	8.228812
2237.000000	8.140049
2236.000000	8.273896
2235.000000	8.421830
2234.000000	8.305513
2233.000000	8.287914
2232.000000	8.536041
2231.000000	8.638434
2230.000000	8.595244
2229.000000	8.650341
2228.000000	8.697351
2227.000000	8.749560
2226.000000	8.710421
2225.000000	8.613383
2224.000000	8.595858
2223.000000	8.561649
2222.000000	8.668975
2221.000000	8.771514
2220.000000	8.732505
2219.000000	8.598808
2218.000000	8.489236
2217.000000	8.375652
2216.000000	8.443774
2215.000000	8.446111
2214.000000	8.469004
2213.000000	8.489880
2212.000000	8.399460
2211.000000	8.250244
2210.000000	8.292391
2209.000000	8.301707
2208.000000	8.235252
2207.000000	8.249774
2206.000000	8.194039
2205.000000	8.164227
2204.000000	8.146828
2203.000000	8.026388
2202.000000	7.802348
2201.000000	7.880950
2200.000000	7.889567
2199.000000	7.860341
2198.000000	7.891976
2197.000000	7.908563
2196.000000	7.751541
2195.000000	7.622983
2194.000000	7.670770
2193.000000	7.611459
2192.000000	7.501943
2191.000000	7.606158
2190.000000	7.623978
2189.000000	7.501840
2188.000000	7.502493
2187.000000	7.483928
2186.000000	7.332228
2185.000000	7.227612
2184.000000	7.285263
2183.000000	7.283038
2182.000000	7.367884
2181.000000	7.337920
2180.000000	7.226375
2179.000000	7.207184
2178.000000	7.125497
2177.000000	7.164811
2176.000000	7.244016
2175.000000	7.309921
2174.000000	7.403294
2173.000000	7.271619
2172.000000	7.318800
2171.000000	7.194732
2170.000000	7.287154
2169.000000	7.359948
2168.000000	7.421924
2167.000000	7.676116
2166.000000	7.383425
2165.000000	7.293894
2164.000000	7.503694
2163.000000	7.505750
2162.000000	7.489604
2161.000000	7.389278
2160.000000	7.687309
2159.000000	7.761666
2158.000000	7.678079
2157.000000	7.887561
2156.000000	8.064970
2155.000000	8.135206
2154.000000	8.134557
2153.000000	8.405907
2152.000000	8.416263
2151.000000	8.238697
2150.000000	8.324658
2149.000000	8.364796
2148.000000	8.514828
2147.000000	8.654391
2146.000000	8.813093
2145.000000	8.887978
2144.000000	9.030232
2143.000000	8.787073
2142.000000	8.907040
2141.000000	8.872439
2140.000000	8.962696
2139.000000	9.145202
2138.000000	9.191744
2137.000000	9.312999
2136.000000	9.291964
2135.000000	9.439096
2134.000000	9.580024
2133.000000	9.350054
2132.000000	9.615817
2131.000000	9.784887
2130.000000	9.820380
2129.000000	9.776350
2128.000000	9.790248
2127.000000	9.840294
2126.000000	9.861525
2125.000000	9.833766
2124.000000	9.767934
2123.000000	9.924060
2122.000000	9.947084
2121.000000	9.851378
2120.000000	9.952725
2119.000000	9.983857
2118.000000	9.870396
2117.000000	10.126973
2116.000000	10.163526
2115.000000	10.098292
2114.000000	10.222720
2113.000000	10.179633
2112.000000	10.138633
2111.000000	10.124329
2110.000000	10.065786
2109.000000	10.083049
2108.000000	10.236497
2107.000000	10.148551
2106.000000	10.181556
2105.000000	10.216300
2104.000000	10.272326
2103.000000	10.171294
2102.000000	10.210071
2101.000000	10.292563
2100.000000	10.410839
2099.000000	10.316866
2098.000000	10.288159
2097.000000	10.296167
2096.000000	10.378794
2095.000000	10.328205
2094.000000	10.356064
2093.000000	10.395724
2092.000000	10.488096
2091.000000	10.275708
2090.000000	10.305781
2089.000000	10.276579
2088.000000	10.266595
2087.000000	10.248872
2086.000000	10.402728
2085.000000	10.336081
2084.000000	10.259681
2083.000000	10.236861
2082.000000	10.072864
2081.000000	10.040074
2080.000000	10.043315
2079.000000	9.982556
2078.000000	10.017997
2077.000000	10.010670
2076.000000	9.982932
2075.000000	9.880629
2074.000000	9.838577
2073.000000	9.760920
2072.000000	9.745755
2071.000000	9.709011
2070.000000	9.609544
2069.000000	9.504466
2068.000000	9.452202
2067.000000	9.377989
2066.000000	9.223158
2065.000000	9.096215
2064.000000	9.004608
2063.000000	8.927670
2062.000000	8.902227
2061.000000	8.877537
2060.000000	8.766172
2059.000000	8.690524
2058.000000	8.612512
2057.000000	8.527043
2056.000000	8.555487
2055.000000	8.457190
2054.000000	8.344513
2053.000000	8.203830
2052.000000	8.069908
2051.000000	8.062255
2050.000000	8.089318
2049.000000	8.100148
2048.000000	7.983127
2047.000000	7.922499
2046.000000	7.886349
2045.000000	7.845360
2044.000000	7.843528
2043.000000	7.853040
2042.000000	7.894782
2041.000000	7.916048
2040.000000	7.968556
2039.000000	7.964061
2038.000000	7.907899
2037.000000	7.959333
2036.000000	8.047658
2035.000000	8.116959
2034.000000	8.164466
2033.000000	8.211186
2032.000000	8.296629
2031.000000	8.342078
2030.000000	8.378784
2029.000000	8.471460
2028.000000	8.545497
2027.000000	8.586577
2026.000000	8.685123
2025.000000	8.759417
2024.000000	8.799294
2023.000000	8.849157
2022.000000	8.902741
2021.000000	8.964266
2020.000000	9.044369
2019.000000	9.070407
2018.000000	9.098937
2017.000000	9.172742
2016.000000	9.226401
2015.000000	9.215924
2014.000000	9.231729
2013.000000	9.246648
2012.000000	9.270239
2011.000000	9.305132
2010.000000	9.288726
2009.000000	9.220760
2008.000000	9.185692
2007.000000	9.173926
2006.000000	9.169757
2005.000000	9.170691
2004.000000	9.120000
2003.000000	9.078398
2002.000000	9.086914
2001.000000	9.068277
2000.000000	9.016967
1999.000000	8.949858
1998.000000	8.889958
1997.000000	8.877521
1996.000000	8.833042
1995.000000	8.802499
1994.000000	8.709196
1993.000000	8.647541
1992.000000	8.583173
1991.000000	8.565934
1990.000000	8.564086
1989.000000	8.529289
1988.000000	8.494560
1987.000000	8.443658
1986.000000	8.390436
1985.000000	8.343860
1984.000000	8.320888
1983.000000	8.280583
1982.000000	8.254948
1981.000000	8.202634
1980.000000	8.173050
1979.000000	8.084653
1978.000000	8.069436
1977.000000	8.019096
1976.000000	7.945921
1975.000000	7.944638
1974.000000	7.886023
1973.000000	7.849733
1972.000000	7.836773
1971.000000	7.801219
1970.000000	7.735206
1969.000000	7.696142
1968.000000	7.663746
1967.000000	7.590560
1966.000000	7.536861
1965.000000	7.511762
1964.000000	7.498662
1963.000000	7.430273
1962.000000	7.337492
1961.000000	7.378454
1960.000000	7.344862
1959.000000	7.282634
1958.000000	7.257644
1957.000000	7.195908
1956.000000	7.195782
1955.000000	7.185751
1954.000000	7.102386
1953.000000	7.081890
1952.000000	7.034278
1951.000000	7.074568
1950.000000	7.080128
1949.000000	7.009170
1948.000000	6.965313
1947.000000	6.932257
1946.000000	6.934597
1945.000000	6.939707
1944.000000	6.960508
1943.000000	7.047673
1942.000000	7.079584
1941.000000	7.058591
1940.000000	7.067486
1939.000000	7.126083
1938.000000	7.134418
1937.000000	7.098037
1936.000000	7.141661
1935.000000	7.233457
1934.000000	7.253211
1933.000000	7.327798
1932.000000	7.325678
1931.000000	7.421018
1930.000000	7.548935
1929.000000	7.652933
1928.000000	7.739316
1927.000000	7.864731
1926.000000	7.930743
1925.000000	8.098502
1924.000000	8.150918
1923.000000	8.347561
1922.000000	8.397495
1921.000000	8.557513
1920.000000	8.715086
1919.000000	8.815412
1918.000000	8.992271
1917.000000	9.180978
1916.000000	9.303010
1915.000000	9.540910
1914.000000	9.741648
1913.000000	9.961055
1912.000000	10.066568
1911.000000	10.211958
1910.000000	10.464385
1909.000000	10.739227
1908.000000	10.834750
1907.000000	11.126361
1906.000000	11.402301
1905.000000	11.670506
1904.000000	11.915736
1903.000000	12.158572
1902.000000	12.402962
1901.000000	12.734019
1900.000000	13.055627
1899.000000	13.284079
1898.000000	13.588259
1897.000000	13.843667
1896.000000	14.111282
1895.000000	14.415010
1894.000000	14.694809
1893.000000	14.984898
1892.000000	15.237255
1891.000000	15.503039
1890.000000	15.794442
1889.000000	16.042573
1888.000000	16.339017
1887.000000	16.590663
1886.000000	16.764916
1885.000000	17.030432
1884.000000	17.219852
1883.000000	17.485499
1882.000000	17.699316
1881.000000	17.896800
1880.000000	18.042995
1879.000000	18.234640
1878.000000	18.411313
1877.000000	18.618485
1876.000000	18.737028
1875.000000	18.883645
1874.000000	19.030532
1873.000000	19.170798
1872.000000	19.281460
1871.000000	19.352222
1870.000000	19.433397
1869.000000	19.524477
1868.000000	19.640088
1867.000000	19.681999
1866.000000	19.696357
1865.000000	19.752296
1864.000000	19.798452
1863.000000	19.838151
1862.000000	19.909599
1861.000000	19.922465
1860.000000	19.915323
1859.000000	19.943857
1858.000000	20.003913
1857.000000	20.001845
1856.000000	20.011132
1855.000000	20.077078
1854.000000	20.081595
1853.000000	20.102244
1852.000000	20.086132
1851.000000	20.078652
1850.000000	20.076657
1849.000000	20.064778
1848.000000	20.048164
1847.000000	20.069528
1846.000000	20.065205
1845.000000	20.070865
1844.000000	20.003608
1843.000000	19.973809
1842.000000	19.984535
1841.000000	19.961527
1840.000000	19.956374
1839.000000	19.955635
1838.000000	19.932435
1837.000000	19.886800
1836.000000	19.841350
1835.000000	19.823334
1834.000000	19.774352
1833.000000	19.730950
1832.000000	19.716804
1831.000000	19.675146
1830.000000	19.667765
1829.000000	19.625879
1828.000000	19.575941
1827.000000	19.554082
1826.000000	19.515994
1825.000000	19.490426
1824.000000	19.485893
1823.000000	19.470561
1822.000000	19.438344
1821.000000	19.423013
1820.000000	19.413825
1819.000000	19.373048
1818.000000	19.338877
1817.000000	19.303879
1816.000000	19.287942
1815.000000	19.279346
1814.000000	19.259060
1813.000000	19.236373
1812.000000	19.224099
1811.000000	19.195527
1810.000000	19.183609
1809.000000	19.182348
1808.000000	19.138339
1807.000000	19.094592
1806.000000	19.085142
1805.000000	19.055598
1804.000000	19.027299
1803.000000	19.026409
1802.000000	19.027548
1801.000000	19.014074
1800.000000	18.979135
1799.000000	18.953138
1798.000000	18.939691
1797.000000	18.929426
1796.000000	18.912359
1795.000000	18.903523
1794.000000	18.900190
1793.000000	18.890356
1792.000000	18.863964
1791.000000	18.849260
1790.000000	18.854288
1789.000000	18.847468
1788.000000	18.836706
1787.000000	18.819582
1786.000000	18.801073
1785.000000	18.786382
1784.000000	18.743378
1783.000000	18.721297
1782.000000	18.713295
1781.000000	18.689104
1780.000000	18.662513
1779.000000	18.641208
1778.000000	18.593151
1777.000000	18.523457
1776.000000	18.511965
1775.000000	18.477871
1774.000000	18.408256
1773.000000	18.380231
1772.000000	18.337234
1771.000000	18.296845
1770.000000	18.262065
1769.000000	18.203110
1768.000000	18.162272
1767.000000	18.112066
1766.000000	18.065273
1765.000000	18.010775
1764.000000	17.992393
1763.000000	17.950455
1762.000000	17.903941
1761.000000	17.855028
1760.000000	17.817709
1759.000000	17.771724
1758.000000	17.699832
1757.000000	17.643665
1756.000000	17.630743
1755.000000	17.609222
1754.000000	17.561402
1753.000000	17.515241
1752.000000	17.461304
1751.000000	17.414903
1750.000000	17.364556
1749.000000	17.319189
1748.000000	17.269418
1747.000000	17.222452
1746.000000	17.168603
1745.000000	17.133057
1744.000000	17.085906
1743.000000	17.078635
1742.000000	17.012563
1741.000000	16.990283
1740.000000	16.923891
1739.000000	16.887874
1738.000000	16.869674
1737.000000	16.846280
1736.000000	16.813240
1735.000000	16.800624
1734.000000	16.820386
1733.000000	16.814755
1732.000000	16.796234
1731.000000	16.812188
1730.000000	16.843334
1729.000000	16.840096
1728.000000	16.861584
1727.000000	16.888266
1726.000000	16.939879
1725.000000	16.985539
1724.000000	17.013199
1723.000000	17.083217
1722.000000	17.135003
1721.000000	17.180746
1720.000000	17.238243
1719.000000	17.345325
1718.000000	17.378248
1717.000000	17.421121
1716.000000	17.488690
1715.000000	17.556445
1714.000000	17.607131
1713.000000	17.660880
1712.000000	17.714502
1711.000000	17.756052
1710.000000	17.803014
1709.000000	17.815891
1708.000000	17.832111
1707.000000	17.846112
1706.000000	17.876181
1705.000000	17.877644
1704.000000	17.915769
1703.000000	17.924603
1702.000000	17.936634
1701.000000	17.948260
1700.000000	17.971075
1699.000000	17.946695
1698.000000	17.989131
1697.000000	18.022840
1696.000000	18.061057
1695.000000	18.090900
1694.000000	18.086793
1693.000000	18.135799
1692.000000	18.162950
1691.000000	18.211289
1690.000000	18.296563
1689.000000	18.322446
1688.000000	18.435226
1687.000000	18.502248
1686.000000	18.556146
1685.000000	18.664837
1684.000000	18.783278
1683.000000	18.882999
1682.000000	18.998821
1681.000000	19.111643
1680.000000	19.240865
1679.000000	19.372962
1678.000000	19.489188
1677.000000	19.602882
1676.000000	19.706199
1675.000000	19.848293
1674.000000	19.965121
1673.000000	20.080054
1672.000000	20.191609
1671.000000	20.307226
1670.000000	20.433136
1669.000000	20.551590
1668.000000	20.623426
1667.000000	20.750791
1666.000000	20.815423
1665.000000	20.841488
1664.000000	20.928668
1663.000000	20.983968
1662.000000	21.049934
1661.000000	21.111303
1660.000000	21.157970
1659.000000	21.199200
1658.000000	21.249798
1657.000000	21.304975
1656.000000	21.322461
1655.000000	21.331677
1654.000000	21.348169
1653.000000	21.367207
1652.000000	21.384432
1651.000000	21.396982
1650.000000	21.392714
1649.000000	21.384418
1648.000000	21.382321
1647.000000	21.357992
1646.000000	21.359317
1645.000000	21.347754
1644.000000	21.345532
1643.000000	21.329583
1642.000000	21.316171
1641.000000	21.295644
1640.000000	21.271203
1639.000000	21.265428
1638.000000	21.249830
1637.000000	21.217815
1636.000000	21.192567
1635.000000	21.173710
1634.000000	21.163915
1633.000000	21.131638
1632.000000	21.109430
1631.000000	21.086275
1630.000000	21.041288
1629.000000	21.016447
1628.000000	20.993165
1627.000000	20.959105
1626.000000	20.920621
1625.000000	20.892098
1624.000000	20.870432
1623.000000	20.845578
1622.000000	20.824532
1621.000000	20.772639
1620.000000	20.737144
1619.000000	20.716195
1618.000000	20.679544
1617.000000	20.643862
1616.000000	20.616606
1615.000000	20.589474
1614.000000	20.558116
1613.000000	20.515169
1612.000000	20.475558
1611.000000	20.442430
1610.000000	20.405985
1609.000000	20.357521
1608.000000	20.320729
1607.000000	20.284708
1606.000000	20.243268
1605.000000	20.203760
1604.000000	20.157798
1603.000000	20.121038
1602.000000	20.088917
1601.000000	20.047646
1600.000000	20.008015
1599.000000	19.975410
1598.000000	19.933887
1597.000000	19.897997
1596.000000	19.858873
1595.000000	19.828150
1594.000000	19.807383
1593.000000	19.761314
1592.000000	19.718661
1591.000000	19.702669
1590.000000	19.665981
1589.000000	19.608008
1588.000000	19.591679
1587.000000	19.579761
1586.000000	19.537192
1585.000000	19.506501
1584.000000	19.472187
1583.000000	19.448474
1582.000000	19.412724
1581.000000	19.373371
1580.000000	19.352185
1579.000000	19.332911
1578.000000	19.317194
1577.000000	19.269080
1576.000000	19.241959
1575.000000	19.217563
1574.000000	19.173743
1573.000000	19.141668
1572.000000	19.127413
1571.000000	19.107179
1570.000000	19.078315
1569.000000	19.040785
1568.000000	19.014469
1567.000000	18.998959
1566.000000	18.976714
1565.000000	18.960975
1564.000000	18.942586
1563.000000	18.920950
1562.000000	18.896403
1561.000000	18.874440
1560.000000	18.868923
1559.000000	18.852877
1558.000000	18.822837
1557.000000	18.803799
1556.000000	18.796487
1555.000000	18.791530
1554.000000	18.774676
1553.000000	18.763197
1552.000000	18.744644
1551.000000	18.712705
1550.000000	18.692034
1549.000000	18.672972
1548.000000	18.637973
1547.000000	18.595923
1546.000000	18.560981
1545.000000	18.520896
1544.000000	18.467915
1543.000000	18.428544
1542.000000	18.368483
1541.000000	18.307311
1540.000000	18.261843
1539.000000	18.188843
1538.000000	18.145228
1537.000000	18.094107
1536.000000	18.027019
1535.000000	17.957138
1534.000000	17.892861
1533.000000	17.845732
1532.000000	17.774403
1531.000000	17.718720
1530.000000	17.663837
1529.000000	17.603945
1528.000000	17.552477
1527.000000	17.509082
1526.000000	17.464925
1525.000000	17.401675
1524.000000	17.353727
1523.000000	17.327624
1522.000000	17.279681
1521.000000	17.247444
1520.000000	17.208735
1519.000000	17.182366
1518.000000	17.159479
1517.000000	17.130539
1516.000000	17.082748
1515.000000	17.051795
1514.000000	17.020196
1513.000000	17.012939
1512.000000	17.004096
1511.000000	16.977753
1510.000000	16.959477
1509.000000	16.926979
1508.000000	16.924061
1507.000000	16.919463
1506.000000	16.903084
1505.000000	16.892706
1504.000000	16.874963
1503.000000	16.881744
1502.000000	16.870014
1501.000000	16.870454
1500.000000	16.884741
1499.000000	16.887286
1498.000000	16.925797
1497.000000	16.949469
1496.000000	16.946949
1495.000000	16.966687
1494.000000	16.971095
1493.000000	16.993331
1492.000000	17.019745
1491.000000	17.060565
1490.000000	17.098145
1489.000000	17.139236
1488.000000	17.164231
1487.000000	17.221886
1486.000000	17.290077
1485.000000	17.338257
1484.000000	17.377083
1483.000000	17.460533
1482.000000	17.481446
1481.000000	17.571323
1480.000000	17.626322
1479.000000	17.675530
1478.000000	17.722576
1477.000000	17.780353
1476.000000	17.834948
1475.000000	17.902975
1474.000000	17.961336
1473.000000	18.002352
1472.000000	18.056562
1471.000000	18.136065
1470.000000	18.194666
1469.000000	18.234006
1468.000000	18.271312
1467.000000	18.302490
1466.000000	18.366749
1465.000000	18.414443
1464.000000	18.450982
1463.000000	18.469544
1462.000000	18.531769
1461.000000	18.589330
1460.000000	18.615342
1459.000000	18.642500
1458.000000	18.681160
1457.000000	18.722989
1456.000000	18.770915
1455.000000	18.808813
1454.000000	18.836862
1453.000000	18.894029
1452.000000	18.946245
