PE UV       SUBTECH     SPECTRUM    ASCII       PEDS        4.00        
   -1
TDChevreUK 12.Sample.asc
18/03/01
15:49:00.00
18/03/01
15:49:00.00
Administrator

200.000000
1
Lambda 750
750N8071901
PerkinElmer UV WinLab 6.0.4.0738 / 1.61.00 Lambda 900

0
0
3350/servo 860.8/2
0
0
UV/VIS
1
1
1
CommonBeamDepol,150mm sphere / downward view
0
0
0
0
Program
Program
3350/servo 860.8/2
3350/0.2 860.8/0.2
3350/0.2 860.8/0.2
0
1
 
 
 
0
 
860.8
319.2
860.8
Front
100
on
 
 
0
0
0
 
0
 
 
 
0
 
 
0
0
0
0
0
 
 
 
 
0
0


0
0
#HDR
-1
-1
#GR
nm
%T
1.0
0.0
2350.000000
-1.000000
2151
8
38.274272
0.198030
#DATA
2350.000000	8.391313
2349.000000	8.442124
2348.000000	7.920643
2347.000000	8.652984
2346.000000	8.518796
2345.000000	8.597554
2344.000000	8.810382
2343.000000	8.335855
2342.000000	8.504058
2341.000000	8.119385
2340.000000	8.694421
2339.000000	9.191664
2338.000000	8.869074
2337.000000	8.939736
2336.000000	9.323752
2335.000000	9.435488
2334.000000	9.304623
2333.000000	9.299473
2332.000000	9.452653
2331.000000	9.318182
2330.000000	9.414594
2329.000000	9.364442
2328.000000	9.057766
2327.000000	8.933803
2326.000000	9.193779
2325.000000	9.069439
2324.000000	9.061050
2323.000000	9.032499
2322.000000	9.032037
2321.000000	8.866236
2320.000000	8.936943
2319.000000	9.069387
2318.000000	9.050764
2317.000000	9.058859
2316.000000	9.163315
2315.000000	8.862620
2314.000000	8.823532
2313.000000	8.539716
2312.000000	8.469394
2311.000000	8.500117
2310.000000	8.418917
2309.000000	8.612248
2308.000000	8.487448
2307.000000	8.502264
2306.000000	8.343134
2305.000000	8.199418
2304.000000	8.171455
2303.000000	8.042285
2302.000000	8.039416
2301.000000	8.059272
2300.000000	8.065902
2299.000000	7.983911
2298.000000	7.894825
2297.000000	7.786580
2296.000000	7.784136
2295.000000	7.890785
2294.000000	7.739857
2293.000000	7.665601
2292.000000	7.723949
2291.000000	7.500798
2290.000000	7.520466
2289.000000	7.685560
2288.000000	7.839157
2287.000000	7.568872
2286.000000	7.323075
2285.000000	7.566782
2284.000000	7.529471
2283.000000	7.454816
2282.000000	7.413191
2281.000000	7.435870
2280.000000	7.459138
2279.000000	7.584277
2278.000000	7.350642
2277.000000	7.298611
2276.000000	7.471590
2275.000000	7.626518
2274.000000	7.607778
2273.000000	7.694686
2272.000000	7.733108
2271.000000	7.693146
2270.000000	7.823298
2269.000000	7.839872
2268.000000	7.852875
2267.000000	7.944194
2266.000000	7.940614
2265.000000	8.100329
2264.000000	8.195639
2263.000000	8.201239
2262.000000	8.249904
2261.000000	8.251845
2260.000000	8.374634
2259.000000	8.505284
2258.000000	8.642425
2257.000000	8.810625
2256.000000	8.841057
2255.000000	8.869954
2254.000000	9.021366
2253.000000	9.180261
2252.000000	9.361277
2251.000000	9.496180
2250.000000	9.683844
2249.000000	9.909841
2248.000000	10.092673
2247.000000	10.211505
2246.000000	10.267203
2245.000000	10.433928
2244.000000	10.643207
2243.000000	10.781623
2242.000000	10.871588
2241.000000	10.904505
2240.000000	10.939813
2239.000000	11.095246
2238.000000	11.170512
2237.000000	11.346929
2236.000000	11.481395
2235.000000	11.516723
2234.000000	11.614564
2233.000000	11.713602
2232.000000	11.753092
2231.000000	11.792421
2230.000000	11.864002
2229.000000	11.817013
2228.000000	11.765723
2227.000000	11.707354
2226.000000	11.611654
2225.000000	11.557503
2224.000000	11.633695
2223.000000	11.639340
2222.000000	11.729548
2221.000000	11.713713
2220.000000	11.541521
2219.000000	11.482767
2218.000000	11.518188
2217.000000	11.625891
2216.000000	11.572948
2215.000000	11.500731
2214.000000	11.531627
2213.000000	11.557309
2212.000000	11.476492
2211.000000	11.447837
2210.000000	11.359078
2209.000000	11.259778
2208.000000	11.204511
2207.000000	11.156897
2206.000000	11.130698
2205.000000	11.052160
2204.000000	10.944856
2203.000000	10.930752
2202.000000	10.912858
2201.000000	10.775458
2200.000000	10.595454
2199.000000	10.607453
2198.000000	10.617716
2197.000000	10.659014
2196.000000	10.563136
2195.000000	10.430306
2194.000000	10.325809
2193.000000	10.146738
2192.000000	10.289004
2191.000000	10.171690
2190.000000	10.120470
2189.000000	10.128002
2188.000000	10.067632
2187.000000	9.963183
2186.000000	10.069976
2185.000000	9.870036
2184.000000	9.870673
2183.000000	9.948940
2182.000000	10.054398
2181.000000	10.001078
2180.000000	9.834852
2179.000000	9.762603
2178.000000	9.748417
2177.000000	9.783356
2176.000000	9.783966
2175.000000	9.736693
2174.000000	9.703499
2173.000000	9.807401
2172.000000	9.912262
2171.000000	9.905439
2170.000000	9.906352
2169.000000	9.985554
2168.000000	10.023619
2167.000000	10.065113
2166.000000	10.214396
2165.000000	10.227083
2164.000000	10.239155
2163.000000	10.257446
2162.000000	10.435128
2161.000000	10.302734
2160.000000	10.429420
2159.000000	10.454013
2158.000000	10.654801
2157.000000	10.688982
2156.000000	10.875165
2155.000000	10.943689
2154.000000	11.199505
2153.000000	11.299214
2152.000000	11.515806
2151.000000	11.388023
2150.000000	11.399006
2149.000000	11.683881
2148.000000	11.899254
2147.000000	11.704757
2146.000000	11.738102
2145.000000	11.907456
2144.000000	12.064531
2143.000000	11.950916
2142.000000	12.287335
2141.000000	12.549987
2140.000000	12.566498
2139.000000	12.632942
2138.000000	12.950149
2137.000000	12.899573
2136.000000	12.833966
2135.000000	12.938910
2134.000000	13.149286
2133.000000	13.052636
2132.000000	13.077796
2131.000000	13.265812
2130.000000	13.483934
2129.000000	13.594599
2128.000000	13.436953
2127.000000	13.415335
2126.000000	13.485181
2125.000000	13.536745
2124.000000	13.568167
2123.000000	13.732626
2122.000000	13.853214
2121.000000	13.815484
2120.000000	13.803869
2119.000000	13.940073
2118.000000	13.908811
2117.000000	13.941279
2116.000000	13.976056
2115.000000	14.031036
2114.000000	14.251832
2113.000000	14.110468
2112.000000	14.006625
2111.000000	14.112175
2110.000000	14.106066
2109.000000	14.157756
2108.000000	14.184217
2107.000000	14.143791
2106.000000	14.136623
2105.000000	14.300427
2104.000000	14.213356
2103.000000	14.287685
2102.000000	14.240506
2101.000000	14.327992
2100.000000	14.372890
2099.000000	14.336840
2098.000000	14.308996
2097.000000	14.319874
2096.000000	14.346023
2095.000000	14.259936
2094.000000	14.324870
2093.000000	14.277445
2092.000000	14.242773
2091.000000	14.108235
2090.000000	14.238900
2089.000000	14.226714
2088.000000	14.275555
2087.000000	14.200793
2086.000000	14.181035
2085.000000	14.157248
2084.000000	14.058767
2083.000000	14.010227
2082.000000	14.039462
2081.000000	13.935710
2080.000000	13.761362
2079.000000	13.745407
2078.000000	13.664542
2077.000000	13.776628
2076.000000	13.689267
2075.000000	13.548077
2074.000000	13.504785
2073.000000	13.401446
2072.000000	13.332479
2071.000000	13.179447
2070.000000	13.116751
2069.000000	13.022923
2068.000000	12.912465
2067.000000	12.814775
2066.000000	12.625927
2065.000000	12.569280
2064.000000	12.503975
2063.000000	12.387018
2062.000000	12.330072
2061.000000	12.136681
2060.000000	12.037325
2059.000000	11.899094
2058.000000	11.760234
2057.000000	11.760435
2056.000000	11.738988
2055.000000	11.612717
2054.000000	11.459331
2053.000000	11.316728
2052.000000	11.223930
2051.000000	11.100612
2050.000000	11.068759
2049.000000	11.031133
2048.000000	10.991259
2047.000000	10.971210
2046.000000	10.827248
2045.000000	10.760808
2044.000000	10.769207
2043.000000	10.749853
2042.000000	10.722680
2041.000000	10.785911
2040.000000	10.833749
2039.000000	10.803898
2038.000000	10.830941
2037.000000	10.915426
2036.000000	11.000687
2035.000000	11.046785
2034.000000	11.078749
2033.000000	11.183986
2032.000000	11.287938
2031.000000	11.349613
2030.000000	11.471340
2029.000000	11.621838
2028.000000	11.722164
2027.000000	11.799691
2026.000000	11.946131
2025.000000	12.036563
2024.000000	12.075575
2023.000000	12.156537
2022.000000	12.253321
2021.000000	12.320879
2020.000000	12.349695
2019.000000	12.403553
2018.000000	12.469915
2017.000000	12.497065
2016.000000	12.505034
2015.000000	12.574479
2014.000000	12.638483
2013.000000	12.639379
2012.000000	12.639120
2011.000000	12.636850
2010.000000	12.616021
2009.000000	12.556957
2008.000000	12.530508
2007.000000	12.526684
2006.000000	12.482506
2005.000000	12.446068
2004.000000	12.390448
2003.000000	12.355235
2002.000000	12.295658
2001.000000	12.200840
2000.000000	12.142296
1999.000000	12.105030
1998.000000	12.059225
1997.000000	11.997832
1996.000000	11.940950
1995.000000	11.872228
1994.000000	11.812888
1993.000000	11.779056
1992.000000	11.690238
1991.000000	11.573408
1990.000000	11.521993
1989.000000	11.413002
1988.000000	11.364615
1987.000000	11.303918
1986.000000	11.234937
1985.000000	11.199029
1984.000000	11.141882
1983.000000	11.086952
1982.000000	11.031919
1981.000000	10.995251
1980.000000	10.910413
1979.000000	10.795145
1978.000000	10.755011
1977.000000	10.695959
1976.000000	10.630439
1975.000000	10.596233
1974.000000	10.529737
1973.000000	10.456330
1972.000000	10.398883
1971.000000	10.368790
1970.000000	10.302921
1969.000000	10.263928
1968.000000	10.216137
1967.000000	10.161546
1966.000000	10.136628
1965.000000	10.069657
1964.000000	9.984196
1963.000000	9.927902
1962.000000	9.842806
1961.000000	9.788243
1960.000000	9.774922
1959.000000	9.744140
1958.000000	9.707625
1957.000000	9.660745
1956.000000	9.603925
1955.000000	9.596101
1954.000000	9.553102
1953.000000	9.499182
1952.000000	9.476527
1951.000000	9.445008
1950.000000	9.416379
1949.000000	9.403445
1948.000000	9.385310
1947.000000	9.347072
1946.000000	9.340744
1945.000000	9.354116
1944.000000	9.355201
1943.000000	9.387015
1942.000000	9.372892
1941.000000	9.378942
1940.000000	9.445796
1939.000000	9.515992
1938.000000	9.615560
1937.000000	9.676489
1936.000000	9.671577
1935.000000	9.714847
1934.000000	9.809657
1933.000000	9.945307
1932.000000	9.979219
1931.000000	10.093402
1930.000000	10.160138
1929.000000	10.260250
1928.000000	10.429130
1927.000000	10.586295
1926.000000	10.698892
1925.000000	10.858983
1924.000000	11.072172
1923.000000	11.246079
1922.000000	11.407265
1921.000000	11.611788
1920.000000	11.826282
1919.000000	12.098206
1918.000000	12.164103
1917.000000	12.530880
1916.000000	12.612399
1915.000000	12.953130
1914.000000	13.184231
1913.000000	13.477918
1912.000000	13.757738
1911.000000	14.121750
1910.000000	14.390043
1909.000000	14.560064
1908.000000	14.913998
1907.000000	15.243449
1906.000000	15.556062
1905.000000	15.938575
1904.000000	16.335015
1903.000000	16.684805
1902.000000	17.026563
1901.000000	17.436771
1900.000000	17.819649
1899.000000	18.236515
1898.000000	18.639832
1897.000000	18.997116
1896.000000	19.415573
1895.000000	19.793927
1894.000000	20.149265
1893.000000	20.592218
1892.000000	20.975180
1891.000000	21.329370
1890.000000	21.781046
1889.000000	22.100453
1888.000000	22.434862
1887.000000	22.789883
1886.000000	23.084656
1885.000000	23.448828
1884.000000	23.817689
1883.000000	24.178634
1882.000000	24.432896
1881.000000	24.701439
1880.000000	24.975949
1879.000000	25.258273
1878.000000	25.555818
1877.000000	25.776335
1876.000000	25.978287
1875.000000	26.170412
1874.000000	26.393215
1873.000000	26.541661
1872.000000	26.745333
1871.000000	26.943297
1870.000000	27.033780
1869.000000	27.167994
1868.000000	27.277875
1867.000000	27.368965
1866.000000	27.486015
1865.000000	27.576035
1864.000000	27.625266
1863.000000	27.696559
1862.000000	27.754125
1861.000000	27.757277
1860.000000	27.804235
1859.000000	27.872713
1858.000000	27.875450
1857.000000	27.908534
1856.000000	27.924375
1855.000000	27.958039
1854.000000	27.970438
1853.000000	28.014429
1852.000000	28.003139
1851.000000	28.002241
1850.000000	28.014041
1849.000000	28.011092
1848.000000	28.002278
1847.000000	27.990743
1846.000000	27.932842
1845.000000	27.936043
1844.000000	27.943078
1843.000000	27.899295
1842.000000	27.879241
1841.000000	27.842743
1840.000000	27.821304
1839.000000	27.781694
1838.000000	27.721817
1837.000000	27.664930
1836.000000	27.640930
1835.000000	27.588500
1834.000000	27.550505
1833.000000	27.530387
1832.000000	27.477102
1831.000000	27.401632
1830.000000	27.370812
1829.000000	27.330615
1828.000000	27.278792
1827.000000	27.226097
1826.000000	27.199667
1825.000000	27.157141
1824.000000	27.130506
1823.000000	27.086396
1822.000000	27.031614
1821.000000	26.998328
1820.000000	26.947183
1819.000000	26.902291
1818.000000	26.902122
1817.000000	26.853903
1816.000000	26.782383
1815.000000	26.787865
1814.000000	26.764737
1813.000000	26.703994
1812.000000	26.643640
1811.000000	26.622235
1810.000000	26.621672
1809.000000	26.606082
1808.000000	26.557898
1807.000000	26.495444
1806.000000	26.465066
1805.000000	26.435657
1804.000000	26.408146
1803.000000	26.380417
1802.000000	26.345248
1801.000000	26.326520
1800.000000	26.303261
1799.000000	26.286965
1798.000000	26.256231
1797.000000	26.238570
1796.000000	26.216429
1795.000000	26.178613
1794.000000	26.180033
1793.000000	26.160733
1792.000000	26.114351
1791.000000	26.092152
1790.000000	26.075803
1789.000000	26.054639
1788.000000	26.039012
1787.000000	26.022248
1786.000000	25.999124
1785.000000	25.969399
1784.000000	25.936608
1783.000000	25.889803
1782.000000	25.877478
1781.000000	25.846995
1780.000000	25.801037
1779.000000	25.760007
1778.000000	25.699263
1777.000000	25.624905
1776.000000	25.593115
1775.000000	25.538208
1774.000000	25.465203
1773.000000	25.406617
1772.000000	25.336437
1771.000000	25.285639
1770.000000	25.237547
1769.000000	25.163348
1768.000000	25.088079
1767.000000	25.043330
1766.000000	24.972077
1765.000000	24.891978
1764.000000	24.848775
1763.000000	24.773992
1762.000000	24.691459
1761.000000	24.636413
1760.000000	24.594125
1759.000000	24.502735
1758.000000	24.445334
1757.000000	24.381549
1756.000000	24.315446
1755.000000	24.267322
1754.000000	24.210323
1753.000000	24.131372
1752.000000	24.077745
1751.000000	24.023173
1750.000000	23.970170
1749.000000	23.873841
1748.000000	23.795647
1747.000000	23.728585
1746.000000	23.675620
1745.000000	23.615723
1744.000000	23.537521
1743.000000	23.459109
1742.000000	23.397563
1741.000000	23.324643
1740.000000	23.286846
1739.000000	23.238660
1738.000000	23.165401
1737.000000	23.144109
1736.000000	23.111183
1735.000000	23.069948
1734.000000	23.074632
1733.000000	23.055133
1732.000000	23.001356
1731.000000	22.997232
1730.000000	23.024485
1729.000000	23.019884
1728.000000	23.050548
1727.000000	23.106569
1726.000000	23.172393
1725.000000	23.205082
1724.000000	23.275619
1723.000000	23.347218
1722.000000	23.437497
1721.000000	23.516173
1720.000000	23.619223
1719.000000	23.692229
1718.000000	23.810180
1717.000000	23.870709
1716.000000	23.956491
1715.000000	24.024743
1714.000000	24.141124
1713.000000	24.180211
1712.000000	24.231919
1711.000000	24.343536
1710.000000	24.439126
1709.000000	24.433639
1708.000000	24.488780
1707.000000	24.529038
1706.000000	24.538862
1705.000000	24.583040
1704.000000	24.631065
1703.000000	24.665812
1702.000000	24.654994
1701.000000	24.680942
1700.000000	24.716065
1699.000000	24.726278
1698.000000	24.768671
1697.000000	24.800222
1696.000000	24.846960
1695.000000	24.877610
1694.000000	24.926835
1693.000000	24.965675
1692.000000	25.027126
1691.000000	25.099789
1690.000000	25.176351
1689.000000	25.258310
1688.000000	25.371029
1687.000000	25.503524
1686.000000	25.626281
1685.000000	25.752376
1684.000000	25.888659
1683.000000	26.043374
1682.000000	26.215953
1681.000000	26.373704
1680.000000	26.553157
1679.000000	26.706757
1678.000000	26.888270
1677.000000	27.078232
1676.000000	27.262256
1675.000000	27.438129
1674.000000	27.631036
1673.000000	27.808363
1672.000000	27.967135
1671.000000	28.150634
1670.000000	28.307265
1669.000000	28.502118
1668.000000	28.630679
1667.000000	28.778404
1666.000000	28.895312
1665.000000	28.984895
1664.000000	29.078269
1663.000000	29.164848
1662.000000	29.285876
1661.000000	29.360437
1660.000000	29.423256
1659.000000	29.501400
1658.000000	29.555097
1657.000000	29.608712
1656.000000	29.656644
1655.000000	29.699336
1654.000000	29.731199
1653.000000	29.743018
1652.000000	29.776796
1651.000000	29.774996
1650.000000	29.784478
1649.000000	29.761485
1648.000000	29.758376
1647.000000	29.770311
1646.000000	29.756275
1645.000000	29.711678
1644.000000	29.696667
1643.000000	29.657199
1642.000000	29.639339
1641.000000	29.641725
1640.000000	29.624338
1639.000000	29.577473
1638.000000	29.559697
1637.000000	29.532248
1636.000000	29.482148
1635.000000	29.452352
1634.000000	29.405766
1633.000000	29.364804
1632.000000	29.338479
1631.000000	29.295799
1630.000000	29.240775
1629.000000	29.200475
1628.000000	29.161658
1627.000000	29.100714
1626.000000	29.068365
1625.000000	29.025433
1624.000000	28.980140
1623.000000	28.939544
1622.000000	28.881076
1621.000000	28.820387
1620.000000	28.778226
1619.000000	28.734403
1618.000000	28.681633
1617.000000	28.640680
1616.000000	28.573613
1615.000000	28.508852
1614.000000	28.464812
1613.000000	28.418285
1612.000000	28.361747
1611.000000	28.309229
1610.000000	28.254805
1609.000000	28.184783
1608.000000	28.125370
1607.000000	28.070115
1606.000000	27.999935
1605.000000	27.938386
1604.000000	27.869057
1603.000000	27.804386
1602.000000	27.751725
1601.000000	27.688564
1600.000000	27.630685
1599.000000	27.575488
1598.000000	27.514258
1597.000000	27.458940
1596.000000	27.391209
1595.000000	27.331217
1594.000000	27.280782
1593.000000	27.239883
1592.000000	27.189390
1591.000000	27.124817
1590.000000	27.076760
1589.000000	27.024630
1588.000000	26.974414
1587.000000	26.936076
1586.000000	26.867781
1585.000000	26.813795
1584.000000	26.781042
1583.000000	26.739812
1582.000000	26.689414
1581.000000	26.635092
1580.000000	26.590631
1579.000000	26.551432
1578.000000	26.511650
1577.000000	26.475105
1576.000000	26.424322
1575.000000	26.381576
1574.000000	26.335282
1573.000000	26.285262
1572.000000	26.235057
1571.000000	26.184014
1570.000000	26.150976
1569.000000	26.113114
1568.000000	26.061104
1567.000000	26.022915
1566.000000	25.995169
1565.000000	25.952806
1564.000000	25.938895
1563.000000	25.922990
1562.000000	25.891332
1561.000000	25.852891
1560.000000	25.832103
1559.000000	25.796454
1558.000000	25.768163
1557.000000	25.759904
1556.000000	25.730036
1555.000000	25.706017
1554.000000	25.677525
1553.000000	25.642461
1552.000000	25.601793
1551.000000	25.564252
1550.000000	25.550102
1549.000000	25.505224
1548.000000	25.459522
1547.000000	25.413920
1546.000000	25.356228
1545.000000	25.312426
1544.000000	25.240379
1543.000000	25.169196
1542.000000	25.099512
1541.000000	25.029628
1540.000000	24.941811
1539.000000	24.865430
1538.000000	24.780173
1537.000000	24.683310
1536.000000	24.611722
1535.000000	24.522746
1534.000000	24.421517
1533.000000	24.344866
1532.000000	24.272661
1531.000000	24.176694
1530.000000	24.092115
1529.000000	24.014419
1528.000000	23.921407
1527.000000	23.874322
1526.000000	23.805113
1525.000000	23.723408
1524.000000	23.655000
1523.000000	23.601244
1522.000000	23.552962
1521.000000	23.485259
1520.000000	23.429099
1519.000000	23.382425
1518.000000	23.325700
1517.000000	23.271345
1516.000000	23.243118
1515.000000	23.186544
1514.000000	23.165064
1513.000000	23.126526
1512.000000	23.111610
1511.000000	23.095584
1510.000000	23.065733
1509.000000	23.030651
1508.000000	23.007817
1507.000000	22.988083
1506.000000	22.965779
1505.000000	22.949804
1504.000000	22.949470
1503.000000	22.952597
1502.000000	22.949890
1501.000000	22.968056
1500.000000	22.988462
1499.000000	22.984579
1498.000000	22.983308
1497.000000	22.994897
1496.000000	22.994230
1495.000000	23.015190
1494.000000	23.028656
1493.000000	23.048692
1492.000000	23.079360
1491.000000	23.137030
1490.000000	23.167356
1489.000000	23.207440
1488.000000	23.276745
1487.000000	23.317426
1486.000000	23.376181
1485.000000	23.440051
1484.000000	23.506658
1483.000000	23.600949
1482.000000	23.645231
1481.000000	23.735636
1480.000000	23.810714
1479.000000	23.872777
1478.000000	23.956405
1477.000000	23.993600
1476.000000	24.076774
1475.000000	24.156766
1474.000000	24.226900
1473.000000	24.283443
1472.000000	24.339142
1471.000000	24.416047
1470.000000	24.482566
1469.000000	24.538407
1468.000000	24.614531
1467.000000	24.690090
1466.000000	24.747396
1465.000000	24.779704
1464.000000	24.829414
1463.000000	24.886537
