PE UV       SUBTECH     SPECTRUM    ASCII       PEDS        4.00        
   -1
TDVeauUK 62.Sample.asc
18/03/01
10:09:41.00
18/03/01
10:09:41.00
Administrator

200.000000
1
Lambda 750
750N8071901
PerkinElmer UV WinLab 6.0.4.0738 / 1.61.00 Lambda 900

0
0
3350/servo 860.8/2
0
0
UV/VIS
1
1
1
CommonBeamDepol,150mm sphere / downward view
0
0
0
0
Program
Program
3350/servo 860.8/2
3350/0.2 860.8/0.2
3350/0.2 860.8/0.2
0
1
 
 
 
0
 
860.8
319.2
860.8
Front
100
on
 
 
0
0
0
 
0
 
 
 
0
 
 
0
0
0
0
0
 
 
 
 
0
0


0
0
#HDR
-1
-1
#GR
nm
%T
1.0
0.0
2350.000000
-1.000000
2151
8
49.092769
0.205270
#DATA
2350.000000	13.800085
2349.000000	13.942523
2348.000000	13.729884
2347.000000	14.358578
2346.000000	14.093015
2345.000000	13.961263
2344.000000	13.925999
2343.000000	13.892319
2342.000000	13.771357
2341.000000	13.870776
2340.000000	13.904798
2339.000000	14.058940
2338.000000	14.418717
2337.000000	14.231809
2336.000000	14.306022
2335.000000	14.731288
2334.000000	14.776117
2333.000000	14.738501
2332.000000	14.761852
2331.000000	14.596920
2330.000000	14.596911
2329.000000	14.350087
2328.000000	14.630833
2327.000000	14.638949
2326.000000	14.448032
2325.000000	14.590862
2324.000000	14.458411
2323.000000	14.489094
2322.000000	14.160461
2321.000000	14.106675
2320.000000	14.191197
2319.000000	14.265105
2318.000000	14.452843
2317.000000	14.334405
2316.000000	14.177112
2315.000000	14.276132
2314.000000	13.863339
2313.000000	13.678353
2312.000000	13.590011
2311.000000	13.566525
2310.000000	13.651738
2309.000000	13.602694
2308.000000	13.665973
2307.000000	13.529345
2306.000000	13.286957
2305.000000	12.979450
2304.000000	13.023143
2303.000000	13.096828
2302.000000	13.097417
2301.000000	13.084426
2300.000000	12.780748
2299.000000	12.682465
2298.000000	12.562695
2297.000000	12.385936
2296.000000	12.365448
2295.000000	12.466220
2294.000000	12.124749
2293.000000	12.111229
2292.000000	12.105950
2291.000000	12.067280
2290.000000	11.898158
2289.000000	11.902679
2288.000000	11.938696
2287.000000	11.894792
2286.000000	11.841038
2285.000000	11.764015
2284.000000	11.591654
2283.000000	11.512146
2282.000000	11.576878
2281.000000	11.835857
2280.000000	11.772607
2279.000000	11.774285
2278.000000	11.650037
2277.000000	11.646646
2276.000000	11.865098
2275.000000	11.910230
2274.000000	11.872518
2273.000000	11.910853
2272.000000	11.915305
2271.000000	11.928375
2270.000000	11.949362
2269.000000	12.095834
2268.000000	12.191005
2267.000000	12.204062
2266.000000	12.299604
2265.000000	12.579277
2264.000000	12.673666
2263.000000	12.678096
2262.000000	12.835096
2261.000000	13.011625
2260.000000	13.208427
2259.000000	13.409059
2258.000000	13.621956
2257.000000	13.840908
2256.000000	13.910176
2255.000000	13.952523
2254.000000	14.220160
2253.000000	14.547328
2252.000000	14.854758
2251.000000	15.102048
2250.000000	15.143652
2249.000000	15.263251
2248.000000	15.496653
2247.000000	15.765388
2246.000000	16.070220
2245.000000	16.229786
2244.000000	16.474657
2243.000000	16.702639
2242.000000	16.788133
2241.000000	16.976483
2240.000000	17.130998
2239.000000	17.201611
2238.000000	17.244252
2237.000000	17.292065
2236.000000	17.428273
2235.000000	17.570260
2234.000000	17.645074
2233.000000	17.641503
2232.000000	17.691768
2231.000000	17.740640
2230.000000	17.936971
2229.000000	18.118412
2228.000000	18.150580
2227.000000	18.042714
2226.000000	17.923119
2225.000000	17.958431
2224.000000	17.990133
2223.000000	17.885658
2222.000000	17.927396
2221.000000	17.939160
2220.000000	17.818890
2219.000000	17.727282
2218.000000	17.695604
2217.000000	17.677604
2216.000000	17.752747
2215.000000	17.644500
2214.000000	17.592769
2213.000000	17.521295
2212.000000	17.488584
2211.000000	17.411780
2210.000000	17.353779
2209.000000	17.308121
2208.000000	17.063653
2207.000000	17.097872
2206.000000	17.056468
2205.000000	16.971241
2204.000000	16.990894
2203.000000	16.865238
2202.000000	16.705842
2201.000000	16.498504
2200.000000	16.373315
2199.000000	16.417966
2198.000000	16.391510
2197.000000	16.317253
2196.000000	16.215536
2195.000000	16.151136
2194.000000	15.986339
2193.000000	15.789628
2192.000000	15.802996
2191.000000	15.635347
2190.000000	15.589082
2189.000000	15.546034
2188.000000	15.604719
2187.000000	15.449229
2186.000000	15.390919
2185.000000	15.340831
2184.000000	15.268150
2183.000000	15.340012
2182.000000	15.262275
2181.000000	15.181709
2180.000000	15.201286
2179.000000	15.114743
2178.000000	14.982447
2177.000000	15.122950
2176.000000	15.188770
2175.000000	15.183223
2174.000000	15.047709
2173.000000	15.158220
2172.000000	15.362833
2171.000000	15.331817
2170.000000	15.298027
2169.000000	15.455669
2168.000000	15.476425
2167.000000	15.484759
2166.000000	15.567061
2165.000000	15.612773
2164.000000	15.664106
2163.000000	15.705510
2162.000000	15.980829
2161.000000	16.094712
2160.000000	16.150452
2159.000000	16.265518
2158.000000	16.349591
2157.000000	16.692960
2156.000000	16.737859
2155.000000	16.941682
2154.000000	17.115064
2153.000000	17.378522
2152.000000	17.417795
2151.000000	17.472018
2150.000000	17.723672
2149.000000	17.875464
2148.000000	17.862032
2147.000000	18.033462
2146.000000	18.390407
2145.000000	18.588826
2144.000000	18.645803
2143.000000	18.544750
2142.000000	18.708260
2141.000000	18.863626
2140.000000	19.133121
2139.000000	19.325004
2138.000000	19.347008
2137.000000	19.632029
2136.000000	19.710542
2135.000000	19.647777
2134.000000	20.037843
2133.000000	19.680710
2132.000000	20.197305
2131.000000	20.242826
2130.000000	20.249776
2129.000000	20.162499
2128.000000	20.256582
2127.000000	20.420227
2126.000000	20.448538
2125.000000	20.381735
2124.000000	20.571800
2123.000000	20.516347
2122.000000	20.463766
2121.000000	20.723964
2120.000000	20.840558
2119.000000	20.873633
2118.000000	20.962170
2117.000000	20.941484
2116.000000	20.864176
2115.000000	20.921290
2114.000000	21.022847
2113.000000	20.853976
2112.000000	20.973860
2111.000000	21.000140
2110.000000	21.078423
2109.000000	21.164661
2108.000000	21.180512
2107.000000	21.311595
2106.000000	21.136596
2105.000000	21.169114
2104.000000	21.347725
2103.000000	21.279095
2102.000000	21.311232
2101.000000	21.376272
2100.000000	21.448089
2099.000000	21.315640
2098.000000	21.244236
2097.000000	21.261705
2096.000000	21.241215
2095.000000	21.269273
2094.000000	21.255939
2093.000000	21.264922
2092.000000	21.345802
2091.000000	21.333359
2090.000000	21.329489
2089.000000	21.233266
2088.000000	21.268619
2087.000000	21.168872
2086.000000	21.149845
2085.000000	21.139835
2084.000000	21.005127
2083.000000	21.019035
2082.000000	20.954643
2081.000000	20.854645
2080.000000	20.823012
2079.000000	20.686538
2078.000000	20.584204
2077.000000	20.487361
2076.000000	20.387811
2075.000000	20.262445
2074.000000	20.110344
2073.000000	20.043381
2072.000000	20.008812
2071.000000	19.893137
2070.000000	19.756978
2069.000000	19.561480
2068.000000	19.369597
2067.000000	19.194770
2066.000000	18.971512
2065.000000	18.807941
2064.000000	18.746719
2063.000000	18.641679
2062.000000	18.498210
2061.000000	18.316709
2060.000000	18.156021
2059.000000	17.957816
2058.000000	17.809215
2057.000000	17.711864
2056.000000	17.609971
2055.000000	17.437405
2054.000000	17.279173
2053.000000	17.097039
2052.000000	16.933330
2051.000000	16.801270
2050.000000	16.663681
2049.000000	16.588573
2048.000000	16.483845
2047.000000	16.482709
2046.000000	16.392070
2045.000000	16.302905
2044.000000	16.258836
2043.000000	16.231371
2042.000000	16.252392
2041.000000	16.334457
2040.000000	16.420263
2039.000000	16.424907
2038.000000	16.408214
2037.000000	16.484251
2036.000000	16.587737
2035.000000	16.641892
2034.000000	16.766475
2033.000000	16.915251
2032.000000	17.052550
2031.000000	17.168641
2030.000000	17.303578
2029.000000	17.466025
2028.000000	17.605657
2027.000000	17.759058
2026.000000	17.897247
2025.000000	17.988175
2024.000000	18.114822
2023.000000	18.219078
2022.000000	18.299679
2021.000000	18.369741
2020.000000	18.459608
2019.000000	18.518943
2018.000000	18.596512
2017.000000	18.687699
2016.000000	18.693091
2015.000000	18.693008
2014.000000	18.715137
2013.000000	18.711923
2012.000000	18.688856
2011.000000	18.667459
2010.000000	18.623403
2009.000000	18.619052
2008.000000	18.575220
2007.000000	18.494756
2006.000000	18.411140
2005.000000	18.357311
2004.000000	18.262837
2003.000000	18.177906
2002.000000	18.119533
2001.000000	18.038923
2000.000000	17.932366
1999.000000	17.837500
1998.000000	17.772710
1997.000000	17.697099
1996.000000	17.570967
1995.000000	17.504067
1994.000000	17.414839
1993.000000	17.247360
1992.000000	17.123201
1991.000000	17.062618
1990.000000	16.966668
1989.000000	16.855149
1988.000000	16.790833
1987.000000	16.718959
1986.000000	16.583917
1985.000000	16.505248
1984.000000	16.412523
1983.000000	16.288223
1982.000000	16.194390
1981.000000	16.098724
1980.000000	16.023282
1979.000000	15.889067
1978.000000	15.788746
1977.000000	15.707669
1976.000000	15.618863
1975.000000	15.572677
1974.000000	15.478996
1973.000000	15.412373
1972.000000	15.327622
1971.000000	15.159091
1970.000000	15.040581
1969.000000	14.986776
1968.000000	14.909998
1967.000000	14.875674
1966.000000	14.782265
1965.000000	14.698626
1964.000000	14.595938
1963.000000	14.481860
1962.000000	14.405815
1961.000000	14.334698
1960.000000	14.234803
1959.000000	14.159549
1958.000000	14.080860
1957.000000	14.050933
1956.000000	13.986513
1955.000000	13.951081
1954.000000	13.930917
1953.000000	13.806677
1952.000000	13.791508
1951.000000	13.751047
1950.000000	13.731404
1949.000000	13.733733
1948.000000	13.651356
1947.000000	13.632712
1946.000000	13.622200
1945.000000	13.636239
1944.000000	13.641638
1943.000000	13.705793
1942.000000	13.786633
1941.000000	13.792743
1940.000000	13.870998
1939.000000	13.937098
1938.000000	14.029791
1937.000000	14.110117
1936.000000	14.196270
1935.000000	14.354445
1934.000000	14.474370
1933.000000	14.693847
1932.000000	14.765305
1931.000000	14.912209
1930.000000	15.054243
1929.000000	15.278578
1928.000000	15.500527
1927.000000	15.732302
1926.000000	15.966633
1925.000000	16.248634
1924.000000	16.429025
1923.000000	16.721164
1922.000000	17.077042
1921.000000	17.392773
1920.000000	17.575952
1919.000000	17.867362
1918.000000	18.215386
1917.000000	18.531542
1916.000000	18.792851
1915.000000	19.275175
1914.000000	19.670391
1913.000000	20.056221
1912.000000	20.318854
1911.000000	20.753783
1910.000000	21.178779
1909.000000	21.607098
1908.000000	22.073252
1907.000000	22.499427
1906.000000	22.921184
1905.000000	23.365966
1904.000000	23.796377
1903.000000	24.386740
1902.000000	24.840616
1901.000000	25.353596
1900.000000	25.808395
1899.000000	26.299747
1898.000000	26.820166
1897.000000	27.318211
1896.000000	27.769640
1895.000000	28.289923
1894.000000	28.725180
1893.000000	29.252968
1892.000000	29.747337
1891.000000	30.184568
1890.000000	30.627151
1889.000000	31.110827
1888.000000	31.518890
1887.000000	31.937023
1886.000000	32.335209
1885.000000	32.699444
1884.000000	33.109890
1883.000000	33.476744
1882.000000	33.848365
1881.000000	34.120232
1880.000000	34.398168
1879.000000	34.719170
1878.000000	35.026635
1877.000000	35.342777
1876.000000	35.583786
1875.000000	35.816824
1874.000000	36.021456
1873.000000	36.201641
1872.000000	36.350276
1871.000000	36.571213
1870.000000	36.750086
1869.000000	36.858775
1868.000000	37.006054
1867.000000	37.090972
1866.000000	37.218058
1865.000000	37.313766
1864.000000	37.383711
1863.000000	37.464313
1862.000000	37.505931
1861.000000	37.611470
1860.000000	37.649758
1859.000000	37.644425
1858.000000	37.691689
1857.000000	37.764254
1856.000000	37.793499
1855.000000	37.824388
1854.000000	37.855446
1853.000000	37.849970
1852.000000	37.828354
1851.000000	37.847004
1850.000000	37.873880
1849.000000	37.815095
1848.000000	37.793312
1847.000000	37.798748
1846.000000	37.803441
1845.000000	37.807186
1844.000000	37.760562
1843.000000	37.705501
1842.000000	37.664769
1841.000000	37.635241
1840.000000	37.596915
1839.000000	37.577659
1838.000000	37.569865
1837.000000	37.501699
1836.000000	37.431246
1835.000000	37.379365
1834.000000	37.316658
1833.000000	37.261572
1832.000000	37.224930
1831.000000	37.174152
1830.000000	37.128612
1829.000000	37.069910
1828.000000	37.036053
1827.000000	37.014748
1826.000000	36.951777
1825.000000	36.879243
1824.000000	36.850529
1823.000000	36.810089
1822.000000	36.753351
1821.000000	36.700971
1820.000000	36.661592
1819.000000	36.610780
1818.000000	36.572398
1817.000000	36.528532
1816.000000	36.485748
1815.000000	36.463952
1814.000000	36.423139
1813.000000	36.368926
1812.000000	36.324676
1811.000000	36.280077
1810.000000	36.250025
1809.000000	36.207818
1808.000000	36.158986
1807.000000	36.124108
1806.000000	36.087425
1805.000000	36.034032
1804.000000	35.976448
1803.000000	35.952768
1802.000000	35.922278
1801.000000	35.880665
1800.000000	35.855731
1799.000000	35.805867
1798.000000	35.768269
1797.000000	35.754714
1796.000000	35.732428
1795.000000	35.705898
1794.000000	35.686586
1793.000000	35.656622
1792.000000	35.613545
1791.000000	35.564958
1790.000000	35.548939
1789.000000	35.528898
1788.000000	35.495754
1787.000000	35.468928
1786.000000	35.442120
1785.000000	35.409002
1784.000000	35.364651
1783.000000	35.316197
1782.000000	35.292845
1781.000000	35.261643
1780.000000	35.204829
1779.000000	35.151833
1778.000000	35.086409
1777.000000	35.027234
1776.000000	34.974257
1775.000000	34.893405
1774.000000	34.830867
1773.000000	34.774956
1772.000000	34.723661
1771.000000	34.657362
1770.000000	34.598112
1769.000000	34.505957
1768.000000	34.438614
1767.000000	34.363948
1766.000000	34.300341
1765.000000	34.217160
1764.000000	34.166755
1763.000000	34.094154
1762.000000	34.036705
1761.000000	33.974214
1760.000000	33.889812
1759.000000	33.825226
1758.000000	33.769297
1757.000000	33.702270
1756.000000	33.618563
1755.000000	33.561929
1754.000000	33.493144
1753.000000	33.406432
1752.000000	33.332013
1751.000000	33.271863
1750.000000	33.225177
1749.000000	33.157014
1748.000000	33.081895
1747.000000	33.001263
1746.000000	32.918642
1745.000000	32.840645
1744.000000	32.786930
1743.000000	32.728846
1742.000000	32.617000
1741.000000	32.579916
1740.000000	32.551522
1739.000000	32.462823
1738.000000	32.415703
1737.000000	32.390412
1736.000000	32.344773
1735.000000	32.347449
1734.000000	32.339960
1733.000000	32.287369
1732.000000	32.291247
1731.000000	32.320575
1730.000000	32.334479
1729.000000	32.351170
1728.000000	32.403783
1727.000000	32.458818
1726.000000	32.524864
1725.000000	32.598635
1724.000000	32.665687
1723.000000	32.769663
1722.000000	32.868755
1721.000000	32.946035
1720.000000	33.039712
1719.000000	33.173737
1718.000000	33.244003
1717.000000	33.327309
1716.000000	33.412087
1715.000000	33.529708
1714.000000	33.578097
1713.000000	33.690998
1712.000000	33.760936
1711.000000	33.832864
1710.000000	33.878711
1709.000000	33.946151
1708.000000	33.963262
1707.000000	34.042462
1706.000000	34.063086
1705.000000	34.092735
1704.000000	34.120975
1703.000000	34.148642
1702.000000	34.146317
1701.000000	34.167173
1700.000000	34.184734
1699.000000	34.196501
1698.000000	34.231776
1697.000000	34.261588
1696.000000	34.278958
1695.000000	34.314613
1694.000000	34.363009
1693.000000	34.428495
1692.000000	34.496649
1691.000000	34.568584
1690.000000	34.678010
1689.000000	34.769279
1688.000000	34.906108
1687.000000	35.020346
1686.000000	35.170658
1685.000000	35.323417
1684.000000	35.472206
1683.000000	35.651012
1682.000000	35.841035
1681.000000	36.022188
1680.000000	36.213828
1679.000000	36.433059
1678.000000	36.641078
1677.000000	36.833273
1676.000000	37.026907
1675.000000	37.244380
1674.000000	37.412574
1673.000000	37.626899
1672.000000	37.809379
1671.000000	37.979299
1670.000000	38.140975
1669.000000	38.350710
1668.000000	38.472201
1667.000000	38.629686
1666.000000	38.730045
1665.000000	38.862122
1664.000000	38.969216
1663.000000	39.050009
1662.000000	39.141417
1661.000000	39.227304
1660.000000	39.301520
1659.000000	39.374524
1658.000000	39.427161
1657.000000	39.468565
1656.000000	39.524564
1655.000000	39.562412
1654.000000	39.582010
1653.000000	39.580562
1652.000000	39.604735
1651.000000	39.617160
1650.000000	39.613719
1649.000000	39.602965
1648.000000	39.576318
1647.000000	39.555272
1646.000000	39.541679
1645.000000	39.542773
1644.000000	39.520450
1643.000000	39.469916
1642.000000	39.441000
1641.000000	39.427985
1640.000000	39.392199
1639.000000	39.341417
1638.000000	39.300012
1637.000000	39.267111
1636.000000	39.211022
1635.000000	39.176857
1634.000000	39.127779
1633.000000	39.075059
1632.000000	39.035102
1631.000000	38.985663
1630.000000	38.946535
1629.000000	38.892649
1628.000000	38.833667
1627.000000	38.780685
1626.000000	38.716606
1625.000000	38.675317
1624.000000	38.644385
1623.000000	38.600377
1622.000000	38.522953
1621.000000	38.446849
1620.000000	38.388530
1619.000000	38.323602
1618.000000	38.253363
1617.000000	38.202239
1616.000000	38.150385
1615.000000	38.081527
1614.000000	37.999886
1613.000000	37.941351
1612.000000	37.889973
1611.000000	37.811916
1610.000000	37.730763
1609.000000	37.667024
1608.000000	37.607856
1607.000000	37.533958
1606.000000	37.455833
1605.000000	37.377494
1604.000000	37.298226
1603.000000	37.232661
1602.000000	37.179660
1601.000000	37.108560
1600.000000	37.031844
1599.000000	36.957485
1598.000000	36.875434
1597.000000	36.821311
1596.000000	36.756255
1595.000000	36.687119
1594.000000	36.625789
1593.000000	36.559333
1592.000000	36.492274
1591.000000	36.446235
1590.000000	36.389866
1589.000000	36.309454
1588.000000	36.243958
1587.000000	36.206206
1586.000000	36.169483
1585.000000	36.111198
1584.000000	36.050986
1583.000000	35.995062
1582.000000	35.932279
1581.000000	35.895163
1580.000000	35.847665
1579.000000	35.798565
1578.000000	35.749432
1577.000000	35.681968
1576.000000	35.646234
1575.000000	35.585814
1574.000000	35.518239
1573.000000	35.472537
1572.000000	35.425253
1571.000000	35.380205
1570.000000	35.328809
1569.000000	35.298455
1568.000000	35.263888
1567.000000	35.207320
1566.000000	35.159853
1565.000000	35.138358
1564.000000	35.102384
1563.000000	35.067449
1562.000000	35.030823
1561.000000	35.006171
1560.000000	34.974960
1559.000000	34.950668
1558.000000	34.917724
1557.000000	34.896217
1556.000000	34.869426
1555.000000	34.843270
1554.000000	34.813620
1553.000000	34.786665
1552.000000	34.766541
1551.000000	34.711399
1550.000000	34.672197
1549.000000	34.635928
1548.000000	34.587243
1547.000000	34.524422
1546.000000	34.456631
1545.000000	34.392401
1544.000000	34.309741
1543.000000	34.231132
1542.000000	34.152604
1541.000000	34.068957
1540.000000	33.982443
1539.000000	33.879790
1538.000000	33.785173
1537.000000	33.704220
1536.000000	33.599827
1535.000000	33.502128
1534.000000	33.398636
1533.000000	33.307612
1532.000000	33.217075
1531.000000	33.109543
1530.000000	33.025498
1529.000000	32.936096
1528.000000	32.853753
1527.000000	32.760904
1526.000000	32.692536
1525.000000	32.610190
1524.000000	32.528541
1523.000000	32.485670
1522.000000	32.422119
1521.000000	32.366239
1520.000000	32.300437
1519.000000	32.254407
1518.000000	32.198907
1517.000000	32.155017
1516.000000	32.107535
1515.000000	32.063755
1514.000000	32.012113
1513.000000	31.985867
1512.000000	31.967996
1511.000000	31.925323
1510.000000	31.899302
1509.000000	31.867769
1508.000000	31.832168
1507.000000	31.821860
1506.000000	31.811842
1505.000000	31.798327
1504.000000	31.786050
1503.000000	31.777079
1502.000000	31.764466
1501.000000	31.758076
1500.000000	31.745154
1499.000000	31.751375
1498.000000	31.760603
1497.000000	31.801956
1496.000000	31.823170
1495.000000	31.842900
1494.000000	31.871095
1493.000000	31.877313
1492.000000	31.903884
1491.000000	31.958947
1490.000000	31.996731
1489.000000	32.045243
1488.000000	32.110335
1487.000000	32.171949
1486.000000	32.221904
1485.000000	32.269678
1484.000000	32.347189
1483.000000	32.421634
1482.000000	32.472930
1481.000000	32.571075
1480.000000	32.637191
1479.000000	32.723470
1478.000000	32.781049
1477.000000	32.837900
1476.000000	32.923157
1475.000000	32.981565
1474.000000	33.072078
1473.000000	33.143231
1472.000000	33.193670
1471.000000	33.271263
1470.000000	33.369054
