PE UV       SUBTECH     SPECTRUM    ASCII       PEDS        4.00        
   -1
TDVeauUK 22.Sample.asc
18/03/01
09:25:40.00
18/03/01
09:25:40.00
Administrator

200.000000
1
Lambda 750
750N8071901
PerkinElmer UV WinLab 6.0.4.0738 / 1.61.00 Lambda 900

0
0
3350/servo 860.8/2
0
0
UV/VIS
1
1
1
CommonBeamDepol,150mm sphere / downward view
0
0
0
0
Program
Program
3350/servo 860.8/2
3350/0.2 860.8/0.2
3350/0.2 860.8/0.2
0
1
 
 
 
0
 
860.8
319.2
860.8
Front
100
on
 
 
0
0
0
 
0
 
 
 
0
 
 
0
0
0
0
0
 
 
 
 
0
0


0
0
#HDR
-1
-1
#GR
nm
%T
1.0
0.0
2350.000000
-1.000000
2151
8
50.334988
0.213701
#DATA
2350.000000	15.331076
2349.000000	15.657181
2348.000000	15.777233
2347.000000	16.218927
2346.000000	15.493390
2345.000000	15.786029
2344.000000	15.469453
2343.000000	15.686996
2342.000000	15.650236
2341.000000	15.787255
2340.000000	15.720899
2339.000000	15.957761
2338.000000	16.193422
2337.000000	16.015182
2336.000000	16.298336
2335.000000	16.319291
2334.000000	16.149404
2333.000000	16.321844
2332.000000	16.463262
2331.000000	16.374942
2330.000000	16.343174
2329.000000	16.472556
2328.000000	16.309984
2327.000000	16.206739
2326.000000	16.551119
2325.000000	16.287292
2324.000000	16.348618
2323.000000	16.197790
2322.000000	15.958297
2321.000000	16.101451
2320.000000	16.129489
2319.000000	16.167638
2318.000000	16.001210
2317.000000	16.060137
2316.000000	15.825508
2315.000000	15.716379
2314.000000	15.725023
2313.000000	15.564022
2312.000000	15.555370
2311.000000	15.482160
2310.000000	15.277095
2309.000000	15.349897
2308.000000	15.079848
2307.000000	14.920753
2306.000000	14.881869
2305.000000	15.043138
2304.000000	14.953674
2303.000000	14.843254
2302.000000	14.639123
2301.000000	14.560930
2300.000000	14.217928
2299.000000	14.234801
2298.000000	14.080843
2297.000000	14.135441
2296.000000	13.929881
2295.000000	13.827533
2294.000000	13.836496
2293.000000	13.717185
2292.000000	13.612960
2291.000000	13.650629
2290.000000	13.540861
2289.000000	13.352729
2288.000000	13.405720
2287.000000	13.286282
2286.000000	13.242888
2285.000000	13.205414
2284.000000	13.180595
2283.000000	13.105313
2282.000000	13.159988
2281.000000	13.291409
2280.000000	13.430520
2279.000000	13.430254
2278.000000	13.187608
2277.000000	13.270773
2276.000000	13.253678
2275.000000	13.443258
2274.000000	13.487931
2273.000000	13.476177
2272.000000	13.585421
2271.000000	13.577118
2270.000000	13.594550
2269.000000	13.746468
2268.000000	13.699476
2267.000000	13.791812
2266.000000	14.062661
2265.000000	14.184016
2264.000000	14.300088
2263.000000	14.396233
2262.000000	14.617346
2261.000000	14.863124
2260.000000	14.948956
2259.000000	15.132174
2258.000000	15.328270
2257.000000	15.542932
2256.000000	15.720202
2255.000000	15.885037
2254.000000	16.094792
2253.000000	16.409019
2252.000000	16.595630
2251.000000	16.763059
2250.000000	16.923286
2249.000000	17.175158
2248.000000	17.441747
2247.000000	17.701220
2246.000000	18.025854
2245.000000	18.252833
2244.000000	18.382223
2243.000000	18.551222
2242.000000	18.765335
2241.000000	18.891971
2240.000000	19.055273
2239.000000	19.214641
2238.000000	19.271666
2237.000000	19.497200
2236.000000	19.721149
2235.000000	19.764239
2234.000000	19.764538
2233.000000	19.723149
2232.000000	19.782589
2231.000000	20.047561
2230.000000	20.096258
2229.000000	20.047234
2228.000000	20.084011
2227.000000	20.101065
2226.000000	20.060885
2225.000000	19.973247
2224.000000	19.901224
2223.000000	19.933106
2222.000000	20.000588
2221.000000	19.931669
2220.000000	19.955755
2219.000000	20.011351
2218.000000	19.875649
2217.000000	19.803851
2216.000000	19.745734
2215.000000	19.663017
2214.000000	19.730370
2213.000000	19.647841
2212.000000	19.485501
2211.000000	19.388002
2210.000000	19.271354
2209.000000	19.245460
2208.000000	19.141192
2207.000000	19.034900
2206.000000	18.949854
2205.000000	18.952593
2204.000000	18.805799
2203.000000	18.717482
2202.000000	18.648518
2201.000000	18.647735
2200.000000	18.472956
2199.000000	18.440687
2198.000000	18.445462
2197.000000	18.256062
2196.000000	18.165316
2195.000000	18.096440
2194.000000	17.967296
2193.000000	17.809808
2192.000000	17.721286
2191.000000	17.664641
2190.000000	17.522804
2189.000000	17.497882
2188.000000	17.331218
2187.000000	17.233038
2186.000000	17.254014
2185.000000	17.136578
2184.000000	17.247785
2183.000000	17.382813
2182.000000	17.311600
2181.000000	17.027775
2180.000000	17.086524
2179.000000	17.004464
2178.000000	17.082138
2177.000000	17.198112
2176.000000	17.070908
2175.000000	16.862458
2174.000000	16.973555
2173.000000	16.989747
2172.000000	17.043507
2171.000000	17.222782
2170.000000	17.310511
2169.000000	17.424754
2168.000000	17.514288
2167.000000	17.558981
2166.000000	17.627744
2165.000000	17.581013
2164.000000	17.619535
2163.000000	17.841735
2162.000000	17.982253
2161.000000	17.982083
2160.000000	18.241706
2159.000000	18.413355
2158.000000	18.627449
2157.000000	18.712406
2156.000000	18.938066
2155.000000	18.871798
2154.000000	19.126246
2153.000000	19.307183
2152.000000	19.357052
2151.000000	19.495961
2150.000000	19.708613
2149.000000	19.823807
2148.000000	20.030398
2147.000000	20.332742
2146.000000	20.395693
2145.000000	20.492983
2144.000000	20.796920
2143.000000	20.944528
2142.000000	21.083370
2141.000000	21.212313
2140.000000	21.396089
2139.000000	21.493153
2138.000000	21.678085
2137.000000	21.617273
2136.000000	21.881226
2135.000000	21.872256
2134.000000	22.213249
2133.000000	21.968816
2132.000000	22.345033
2131.000000	22.456412
2130.000000	22.459213
2129.000000	22.447304
2128.000000	22.482647
2127.000000	22.759345
2126.000000	22.787553
2125.000000	22.895105
2124.000000	22.862306
2123.000000	22.841890
2122.000000	23.010820
2121.000000	22.992675
2120.000000	23.010640
2119.000000	23.130874
2118.000000	23.391507
2117.000000	23.284658
2116.000000	23.263242
2115.000000	23.400108
2114.000000	23.372328
2113.000000	23.366078
2112.000000	23.522625
2111.000000	23.427169
2110.000000	23.566470
2109.000000	23.548413
2108.000000	23.466764
2107.000000	23.400818
2106.000000	23.543852
2105.000000	23.550266
2104.000000	23.619700
2103.000000	23.693127
2102.000000	23.677273
2101.000000	23.619685
2100.000000	23.789238
2099.000000	23.622159
2098.000000	23.596539
2097.000000	23.623084
2096.000000	23.596144
2095.000000	23.621664
2094.000000	23.537142
2093.000000	23.567225
2092.000000	23.592276
2091.000000	23.576932
2090.000000	23.484180
2089.000000	23.493019
2088.000000	23.504411
2087.000000	23.400780
2086.000000	23.402525
2085.000000	23.372495
2084.000000	23.329034
2083.000000	23.235269
2082.000000	23.194349
2081.000000	23.124180
2080.000000	23.006979
2079.000000	22.893692
2078.000000	22.892065
2077.000000	22.876430
2076.000000	22.737991
2075.000000	22.548425
2074.000000	22.335002
2073.000000	22.301071
2072.000000	22.185539
2071.000000	22.058081
2070.000000	21.888321
2069.000000	21.662965
2068.000000	21.557125
2067.000000	21.460998
2066.000000	21.265266
2065.000000	21.064344
2064.000000	20.921602
2063.000000	20.704135
2062.000000	20.630044
2061.000000	20.443179
2060.000000	20.231909
2059.000000	20.090249
2058.000000	19.914545
2057.000000	19.761542
2056.000000	19.654920
2055.000000	19.488109
2054.000000	19.311350
2053.000000	19.131779
2052.000000	18.994520
2051.000000	18.800704
2050.000000	18.705871
2049.000000	18.634745
2048.000000	18.510071
2047.000000	18.394425
2046.000000	18.352523
2045.000000	18.340451
2044.000000	18.268614
2043.000000	18.284456
2042.000000	18.302433
2041.000000	18.310813
2040.000000	18.362390
2039.000000	18.378734
2038.000000	18.417671
2037.000000	18.496122
2036.000000	18.606871
2035.000000	18.718521
2034.000000	18.804022
2033.000000	18.949887
2032.000000	19.102244
2031.000000	19.256794
2030.000000	19.426841
2029.000000	19.564524
2028.000000	19.690332
2027.000000	19.831603
2026.000000	20.005755
2025.000000	20.182792
2024.000000	20.308565
2023.000000	20.406049
2022.000000	20.503442
2021.000000	20.571827
2020.000000	20.658357
2019.000000	20.746339
2018.000000	20.771992
2017.000000	20.816649
2016.000000	20.864003
2015.000000	20.866359
2014.000000	20.869318
2013.000000	20.874774
2012.000000	20.862297
2011.000000	20.836912
2010.000000	20.814504
2009.000000	20.733295
2008.000000	20.687846
2007.000000	20.638974
2006.000000	20.559921
2005.000000	20.470253
2004.000000	20.364845
2003.000000	20.310973
2002.000000	20.260090
2001.000000	20.177483
2000.000000	20.088236
1999.000000	20.027668
1998.000000	19.903507
1997.000000	19.765608
1996.000000	19.697536
1995.000000	19.605639
1994.000000	19.471563
1993.000000	19.371016
1992.000000	19.204582
1991.000000	19.138380
1990.000000	19.075364
1989.000000	18.912595
1988.000000	18.829069
1987.000000	18.728981
1986.000000	18.607096
1985.000000	18.517417
1984.000000	18.408679
1983.000000	18.283406
1982.000000	18.201294
1981.000000	18.131246
1980.000000	18.010879
1979.000000	17.917089
1978.000000	17.819085
1977.000000	17.689487
1976.000000	17.583145
1975.000000	17.508441
1974.000000	17.389657
1973.000000	17.292798
1972.000000	17.226596
1971.000000	17.101653
1970.000000	17.020965
1969.000000	16.926092
1968.000000	16.840301
1967.000000	16.744196
1966.000000	16.666785
1965.000000	16.582328
1964.000000	16.489215
1963.000000	16.372043
1962.000000	16.286640
1961.000000	16.239870
1960.000000	16.146729
1959.000000	16.029374
1958.000000	15.975876
1957.000000	15.874491
1956.000000	15.795385
1955.000000	15.741450
1954.000000	15.723566
1953.000000	15.692556
1952.000000	15.649860
1951.000000	15.646287
1950.000000	15.532768
1949.000000	15.530264
1948.000000	15.473567
1947.000000	15.496463
1946.000000	15.465272
1945.000000	15.469892
1944.000000	15.460239
1943.000000	15.528002
1942.000000	15.620589
1941.000000	15.678281
1940.000000	15.698539
1939.000000	15.852467
1938.000000	15.934033
1937.000000	16.027669
1936.000000	16.111326
1935.000000	16.338740
1934.000000	16.408093
1933.000000	16.566305
1932.000000	16.709127
1931.000000	16.904309
1930.000000	17.124960
1929.000000	17.330837
1928.000000	17.538619
1927.000000	17.772032
1926.000000	18.050004
1925.000000	18.381517
1924.000000	18.611022
1923.000000	18.857147
1922.000000	19.162581
1921.000000	19.484136
1920.000000	19.814764
1919.000000	20.105550
1918.000000	20.473905
1917.000000	20.840066
1916.000000	21.144432
1915.000000	21.622513
1914.000000	21.987271
1913.000000	22.417447
1912.000000	22.708024
1911.000000	23.159819
1910.000000	23.592529
1909.000000	24.045541
1908.000000	24.455482
1907.000000	24.916768
1906.000000	25.391016
1905.000000	25.855956
1904.000000	26.327267
1903.000000	26.796459
1902.000000	27.272174
1901.000000	27.784660
1900.000000	28.225999
1899.000000	28.784301
1898.000000	29.342534
1897.000000	29.788439
1896.000000	30.300105
1895.000000	30.751831
1894.000000	31.171235
1893.000000	31.682350
1892.000000	32.130140
1891.000000	32.575725
1890.000000	33.040770
1889.000000	33.497512
1888.000000	33.861936
1887.000000	34.270407
1886.000000	34.685792
1885.000000	35.024528
1884.000000	35.398361
1883.000000	35.793431
1882.000000	36.078166
1881.000000	36.344802
1880.000000	36.655456
1879.000000	36.967978
1878.000000	37.238349
1877.000000	37.514973
1876.000000	37.761100
1875.000000	37.941058
1874.000000	38.180064
1873.000000	38.374235
1872.000000	38.493538
1871.000000	38.705861
1870.000000	38.839535
1869.000000	39.000726
1868.000000	39.121178
1867.000000	39.197904
1866.000000	39.324708
1865.000000	39.377293
1864.000000	39.428982
1863.000000	39.512669
1862.000000	39.567136
1861.000000	39.627212
1860.000000	39.666403
1859.000000	39.710201
1858.000000	39.775979
1857.000000	39.791405
1856.000000	39.822129
1855.000000	39.836902
1854.000000	39.869070
1853.000000	39.889891
1852.000000	39.877996
1851.000000	39.871380
1850.000000	39.882103
1849.000000	39.855441
1848.000000	39.848716
1847.000000	39.841296
1846.000000	39.835610
1845.000000	39.818113
1844.000000	39.759525
1843.000000	39.738925
1842.000000	39.707204
1841.000000	39.664607
1840.000000	39.646772
1839.000000	39.608645
1838.000000	39.589315
1837.000000	39.539028
1836.000000	39.499422
1835.000000	39.448581
1834.000000	39.364652
1833.000000	39.337153
1832.000000	39.281439
1831.000000	39.194166
1830.000000	39.203736
1829.000000	39.161165
1828.000000	39.101670
1827.000000	39.052458
1826.000000	38.988965
1825.000000	38.947470
1824.000000	38.921043
1823.000000	38.890580
1822.000000	38.854259
1821.000000	38.804108
1820.000000	38.765530
1819.000000	38.725794
1818.000000	38.675216
1817.000000	38.624813
1816.000000	38.576595
1815.000000	38.540516
1814.000000	38.505326
1813.000000	38.464522
1812.000000	38.431954
1811.000000	38.397449
1810.000000	38.354829
1809.000000	38.323761
1808.000000	38.268450
1807.000000	38.208378
1806.000000	38.175566
1805.000000	38.139123
1804.000000	38.102937
1803.000000	38.077095
1802.000000	38.045751
1801.000000	38.009660
1800.000000	37.970867
1799.000000	37.927910
1798.000000	37.906395
1797.000000	37.889524
1796.000000	37.856302
1795.000000	37.831425
1794.000000	37.803529
1793.000000	37.777462
1792.000000	37.732399
1791.000000	37.707662
1790.000000	37.698012
1789.000000	37.674518
1788.000000	37.638364
1787.000000	37.601068
1786.000000	37.583452
1785.000000	37.538624
1784.000000	37.501181
1783.000000	37.472351
1782.000000	37.437862
1781.000000	37.407869
1780.000000	37.357934
1779.000000	37.295011
1778.000000	37.235774
1777.000000	37.167166
1776.000000	37.137689
1775.000000	37.072517
1774.000000	36.997865
1773.000000	36.961766
1772.000000	36.910929
1771.000000	36.834194
1770.000000	36.781020
1769.000000	36.701161
1768.000000	36.635429
1767.000000	36.566226
1766.000000	36.510645
1765.000000	36.437173
1764.000000	36.385938
1763.000000	36.325634
1762.000000	36.255400
1761.000000	36.171315
1760.000000	36.125036
1759.000000	36.054538
1758.000000	35.992923
1757.000000	35.903806
1756.000000	35.867018
1755.000000	35.784770
1754.000000	35.739665
1753.000000	35.675572
1752.000000	35.615028
1751.000000	35.526220
1750.000000	35.467622
1749.000000	35.399977
1748.000000	35.305641
1747.000000	35.260050
1746.000000	35.197463
1745.000000	35.088865
1744.000000	35.038799
1743.000000	34.975893
1742.000000	34.903492
1741.000000	34.846769
1740.000000	34.804540
1739.000000	34.717992
1738.000000	34.696748
1737.000000	34.654397
1736.000000	34.632398
1735.000000	34.622809
1734.000000	34.614682
1733.000000	34.590766
1732.000000	34.599585
1731.000000	34.602836
1730.000000	34.600582
1729.000000	34.643098
1728.000000	34.673129
1727.000000	34.739479
1726.000000	34.795441
1725.000000	34.880218
1724.000000	34.964101
1723.000000	35.033516
1722.000000	35.113518
1721.000000	35.212349
1720.000000	35.305476
1719.000000	35.431282
1718.000000	35.477709
1717.000000	35.562241
1716.000000	35.698853
1715.000000	35.742122
1714.000000	35.817509
1713.000000	35.918523
1712.000000	36.001206
1711.000000	36.062474
1710.000000	36.108657
1709.000000	36.171487
1708.000000	36.227757
1707.000000	36.247931
1706.000000	36.271125
1705.000000	36.293055
1704.000000	36.351194
1703.000000	36.338432
1702.000000	36.372672
1701.000000	36.404398
1700.000000	36.387797
1699.000000	36.395999
1698.000000	36.456440
1697.000000	36.454191
1696.000000	36.505609
1695.000000	36.540719
1694.000000	36.583697
1693.000000	36.639529
1692.000000	36.689720
1691.000000	36.770411
1690.000000	36.848508
1689.000000	36.942943
1688.000000	37.075017
1687.000000	37.189174
1686.000000	37.339322
1685.000000	37.447420
1684.000000	37.604717
1683.000000	37.783357
1682.000000	37.965867
1681.000000	38.156385
1680.000000	38.301495
1679.000000	38.491815
1678.000000	38.693790
1677.000000	38.868708
1676.000000	39.064362
1675.000000	39.264866
1674.000000	39.431114
1673.000000	39.604889
1672.000000	39.798886
1671.000000	39.970819
1670.000000	40.129931
1669.000000	40.297306
1668.000000	40.415056
1667.000000	40.571517
1666.000000	40.657384
1665.000000	40.755576
1664.000000	40.864589
1663.000000	40.942521
1662.000000	41.041126
1661.000000	41.092734
1660.000000	41.169904
1659.000000	41.236300
1658.000000	41.285885
1657.000000	41.347876
1656.000000	41.375815
1655.000000	41.405972
1654.000000	41.423779
1653.000000	41.440830
1652.000000	41.443163
1651.000000	41.447336
1650.000000	41.462301
1649.000000	41.449917
1648.000000	41.424460
1647.000000	41.413684
1646.000000	41.397203
1645.000000	41.405960
1644.000000	41.373257
1643.000000	41.353287
1642.000000	41.323376
1641.000000	41.286430
1640.000000	41.252006
1639.000000	41.208170
1638.000000	41.190948
1637.000000	41.158077
1636.000000	41.086638
1635.000000	41.052350
1634.000000	41.027962
1633.000000	40.970355
1632.000000	40.931702
1631.000000	40.882535
1630.000000	40.827795
1629.000000	40.787958
1628.000000	40.740587
1627.000000	40.698021
1626.000000	40.632840
1625.000000	40.580622
1624.000000	40.539677
1623.000000	40.506758
1622.000000	40.437824
1621.000000	40.373829
1620.000000	40.323167
1619.000000	40.270590
1618.000000	40.215760
1617.000000	40.149551
1616.000000	40.094096
1615.000000	40.035347
1614.000000	39.986141
1613.000000	39.916506
1612.000000	39.854603
1611.000000	39.787054
1610.000000	39.720010
1609.000000	39.669888
1608.000000	39.608276
1607.000000	39.535212
1606.000000	39.462538
1605.000000	39.394096
1604.000000	39.317414
1603.000000	39.252465
1602.000000	39.200899
1601.000000	39.132116
1600.000000	39.060263
1599.000000	38.988412
1598.000000	38.932166
1597.000000	38.876689
1596.000000	38.811184
1595.000000	38.744610
1594.000000	38.683126
1593.000000	38.638761
1592.000000	38.582433
1591.000000	38.518054
1590.000000	38.463333
1589.000000	38.405961
1588.000000	38.358196
1587.000000	38.313486
1586.000000	38.262964
1585.000000	38.212960
1584.000000	38.159399
1583.000000	38.106982
1582.000000	38.056080
1581.000000	38.019190
1580.000000	37.968946
1579.000000	37.915562
1578.000000	37.869685
1577.000000	37.814198
1576.000000	37.766737
1575.000000	37.727996
1574.000000	37.667509
1573.000000	37.613093
1572.000000	37.572892
1571.000000	37.551037
1570.000000	37.491416
1569.000000	37.438306
1568.000000	37.403675
1567.000000	37.364940
1566.000000	37.329287
1565.000000	37.291814
1564.000000	37.262853
1563.000000	37.225063
1562.000000	37.197331
1561.000000	37.173159
1560.000000	37.149328
1559.000000	37.115226
1558.000000	37.100653
1557.000000	37.081916
1556.000000	37.066316
1555.000000	37.041898
1554.000000	37.006871
1553.000000	36.980964
1552.000000	36.940337
1551.000000	36.897760
1550.000000	36.856805
1549.000000	36.812925
1548.000000	36.768486
1547.000000	36.717784
1546.000000	36.662597
1545.000000	36.601613
1544.000000	36.530264
1543.000000	36.461263
1542.000000	36.377188
1541.000000	36.293778
1540.000000	36.211570
1539.000000	36.127410
1538.000000	36.029534
1537.000000	35.936134
1536.000000	35.837970
1535.000000	35.761641
1534.000000	35.667895
1533.000000	35.594731
1532.000000	35.500139
1531.000000	35.404287
1530.000000	35.323618
1529.000000	35.219651
1528.000000	35.156874
1527.000000	35.082670
1526.000000	34.992023
1525.000000	34.927987
1524.000000	34.861591
1523.000000	34.801287
1522.000000	34.742004
1521.000000	34.697833
1520.000000	34.625544
1519.000000	34.581038
1518.000000	34.541044
1517.000000	34.504179
1516.000000	34.439628
1515.000000	34.394199
1514.000000	34.365017
1513.000000	34.341068
1512.000000	34.302952
1511.000000	34.263264
1510.000000	34.249494
1509.000000	34.224423
1508.000000	34.215047
1507.000000	34.180598
1506.000000	34.164015
1505.000000	34.154447
1504.000000	34.138724
1503.000000	34.135091
1502.000000	34.123497
1501.000000	34.114572
1500.000000	34.106278
1499.000000	34.116148
1498.000000	34.121169
1497.000000	34.131372
1496.000000	34.170461
1495.000000	34.186304
1494.000000	34.218661
1493.000000	34.238238
1492.000000	34.259327
1491.000000	34.307127
1490.000000	34.338059
1489.000000	34.370437
1488.000000	34.421240
1487.000000	34.501783
1486.000000	34.547092
1485.000000	34.597533
1484.000000	34.661700
1483.000000	34.748678
1482.000000	34.808987
1481.000000	34.890193
1480.000000	34.954760
1479.000000	35.017403
1478.000000	35.076862
1477.000000	35.160263
1476.000000	35.219169
1475.000000	35.285495
1474.000000	35.353323
1473.000000	35.418073
1472.000000	35.478302
1471.000000	35.534482
1470.000000	35.636062
