PE UV       SUBTECH     SPECTRUM    ASCII       PEDS        4.00        
   -1
TDVeauAl 62.Sample.asc
18/03/01
11:16:36.00
18/03/01
11:16:36.00
Administrator

200.000000
1
Lambda 750
750N8071901
PerkinElmer UV WinLab 6.0.4.0738 / 1.61.00 Lambda 900

0
0
3350/servo 860.8/2
0
0
UV/VIS
1
1
1
CommonBeamDepol,150mm sphere / downward view
0
0
0
0
Program
Program
3350/servo 860.8/2
3350/0.2 860.8/0.2
3350/0.2 860.8/0.2
0
1
 
 
 
0
 
860.8
319.2
860.8
Front
100
on
 
 
0
0
0
 
0
 
 
 
0
 
 
0
0
0
0
0
 
 
 
 
0
0


0
0
#HDR
-1
-1
#GR
nm
%T
1.0
0.0
2350.000000
-1.000000
2151
8
35.486653
0.059062
#DATA
2350.000000	7.507208
2349.000000	7.244518
2348.000000	7.564096
2347.000000	8.213952
2346.000000	7.645100
2345.000000	7.494087
2344.000000	7.604520
2343.000000	7.508676
2342.000000	7.275327
2341.000000	7.825254
2340.000000	7.706698
2339.000000	7.941666
2338.000000	7.883364
2337.000000	7.830851
2336.000000	8.058883
2335.000000	8.178154
2334.000000	8.331777
2333.000000	8.170352
2332.000000	7.931207
2331.000000	7.992416
2330.000000	8.199682
2329.000000	8.047759
2328.000000	7.928929
2327.000000	7.810163
2326.000000	8.222082
2325.000000	8.103013
2324.000000	7.588918
2323.000000	7.927217
2322.000000	8.031925
2321.000000	8.090492
2320.000000	7.965071
2319.000000	7.958712
2318.000000	8.012590
2317.000000	7.865162
2316.000000	7.873251
2315.000000	8.053632
2314.000000	7.929196
2313.000000	7.666655
2312.000000	7.302750
2311.000000	7.573316
2310.000000	7.646864
2309.000000	7.558336
2308.000000	7.226732
2307.000000	7.053502
2306.000000	7.215967
2305.000000	7.305194
2304.000000	7.245408
2303.000000	7.353981
2302.000000	7.232527
2301.000000	7.417328
2300.000000	7.225006
2299.000000	7.021235
2298.000000	6.964625
2297.000000	6.836049
2296.000000	7.050936
2295.000000	6.791973
2294.000000	6.901546
2293.000000	6.802050
2292.000000	6.808250
2291.000000	6.638352
2290.000000	6.685906
2289.000000	6.640630
2288.000000	6.688843
2287.000000	6.570600
2286.000000	6.629798
2285.000000	6.649970
2284.000000	6.427445
2283.000000	6.304803
2282.000000	6.659945
2281.000000	6.618840
2280.000000	6.617378
2279.000000	6.757231
2278.000000	6.595121
2277.000000	6.457185
2276.000000	6.497137
2275.000000	6.588375
2274.000000	6.680668
2273.000000	6.673170
2272.000000	6.593625
2271.000000	6.623775
2270.000000	6.782658
2269.000000	6.724239
2268.000000	6.672229
2267.000000	6.730905
2266.000000	6.888592
2265.000000	6.883757
2264.000000	6.861631
2263.000000	7.145537
2262.000000	7.219014
2261.000000	7.225290
2260.000000	7.402382
2259.000000	7.548220
2258.000000	7.590460
2257.000000	7.702889
2256.000000	7.731449
2255.000000	7.717605
2254.000000	7.891937
2253.000000	8.069657
2252.000000	8.196103
2251.000000	8.247338
2250.000000	8.288745
2249.000000	8.437108
2248.000000	8.536116
2247.000000	8.768550
2246.000000	8.966948
2245.000000	8.910673
2244.000000	9.014011
2243.000000	9.166478
2242.000000	9.346653
2241.000000	9.353203
2240.000000	9.384676
2239.000000	9.465920
2238.000000	9.519509
2237.000000	9.597768
2236.000000	9.674029
2235.000000	9.744819
2234.000000	9.741184
2233.000000	9.720558
2232.000000	9.762054
2231.000000	9.801255
2230.000000	9.944988
2229.000000	10.071802
2228.000000	10.164155
2227.000000	10.035295
2226.000000	9.974825
2225.000000	9.922881
2224.000000	9.980549
2223.000000	10.015847
2222.000000	10.041543
2221.000000	9.983100
2220.000000	9.963690
2219.000000	9.986115
2218.000000	9.946987
2217.000000	9.923633
2216.000000	9.941247
2215.000000	9.846884
2214.000000	9.804512
2213.000000	9.826502
2212.000000	9.835475
2211.000000	9.730410
2210.000000	9.653774
2209.000000	9.487201
2208.000000	9.425603
2207.000000	9.455439
2206.000000	9.423793
2205.000000	9.283937
2204.000000	9.358012
2203.000000	9.287217
2202.000000	9.294233
2201.000000	9.081282
2200.000000	9.154930
2199.000000	9.147270
2198.000000	9.046235
2197.000000	8.971723
2196.000000	9.036545
2195.000000	8.975630
2194.000000	8.875237
2193.000000	8.854359
2192.000000	8.899399
2191.000000	8.706768
2190.000000	8.761301
2189.000000	8.767164
2188.000000	8.704489
2187.000000	8.551948
2186.000000	8.540204
2185.000000	8.346635
2184.000000	8.479185
2183.000000	8.573133
2182.000000	8.501722
2181.000000	8.215062
2180.000000	8.268563
2179.000000	8.335926
2178.000000	8.253929
2177.000000	8.307822
2176.000000	8.396620
2175.000000	8.302733
2174.000000	8.455628
2173.000000	8.580688
2172.000000	8.606342
2171.000000	8.530237
2170.000000	8.298342
2169.000000	8.479537
2168.000000	8.583564
2167.000000	8.626188
2166.000000	8.611222
2165.000000	8.654883
2164.000000	8.726657
2163.000000	8.738661
2162.000000	8.919655
2161.000000	9.006578
2160.000000	8.995980
2159.000000	8.990614
2158.000000	9.116381
2157.000000	9.027071
2156.000000	9.300065
2155.000000	9.293316
2154.000000	9.344251
2153.000000	9.553442
2152.000000	9.791241
2151.000000	9.698305
2150.000000	9.789855
2149.000000	9.873815
2148.000000	9.917901
2147.000000	10.034524
2146.000000	10.279623
2145.000000	10.180490
2144.000000	10.296936
2143.000000	10.358401
2142.000000	10.438739
2141.000000	10.432624
2140.000000	10.681940
2139.000000	10.604090
2138.000000	10.932592
2137.000000	10.894337
2136.000000	10.979814
2135.000000	11.044173
2134.000000	11.099475
2133.000000	11.043758
2132.000000	11.142698
2131.000000	11.156579
2130.000000	11.539861
2129.000000	11.509946
2128.000000	11.492461
2127.000000	11.415591
2126.000000	11.384768
2125.000000	11.475030
2124.000000	11.561451
2123.000000	11.501388
2122.000000	11.656987
2121.000000	11.603982
2120.000000	11.748301
2119.000000	11.651897
2118.000000	11.856219
2117.000000	11.788859
2116.000000	11.810578
2115.000000	11.920417
2114.000000	11.945357
2113.000000	11.912880
2112.000000	11.881382
2111.000000	11.750422
2110.000000	11.764706
2109.000000	11.878283
2108.000000	11.944668
2107.000000	11.945152
2106.000000	12.029316
2105.000000	12.044360
2104.000000	11.996642
2103.000000	12.021887
2102.000000	12.186097
2101.000000	11.983981
2100.000000	12.140752
2099.000000	12.151629
2098.000000	12.098555
2097.000000	12.091591
2096.000000	12.084109
2095.000000	12.126058
2094.000000	12.186076
2093.000000	12.212124
2092.000000	12.101602
2091.000000	12.181764
2090.000000	12.024724
2089.000000	12.081512
2088.000000	12.159935
2087.000000	12.060099
2086.000000	12.102444
2085.000000	12.127747
2084.000000	12.059921
2083.000000	11.970879
2082.000000	11.901996
2081.000000	11.862189
2080.000000	11.779670
2079.000000	11.800177
2078.000000	11.764093
2077.000000	11.790614
2076.000000	11.763237
2075.000000	11.621837
2074.000000	11.508081
2073.000000	11.407314
2072.000000	11.323327
2071.000000	11.320949
2070.000000	11.233125
2069.000000	11.164943
2068.000000	11.073647
2067.000000	10.933244
2066.000000	10.754552
2065.000000	10.666401
2064.000000	10.605449
2063.000000	10.546251
2062.000000	10.500394
2061.000000	10.379044
2060.000000	10.293042
2059.000000	10.209908
2058.000000	10.056710
2057.000000	9.974255
2056.000000	9.925530
2055.000000	9.865119
2054.000000	9.747592
2053.000000	9.610722
2052.000000	9.516182
2051.000000	9.429932
2050.000000	9.365535
2049.000000	9.353973
2048.000000	9.318963
2047.000000	9.310280
2046.000000	9.231984
2045.000000	9.219310
2044.000000	9.209688
2043.000000	9.173148
2042.000000	9.232368
2041.000000	9.271130
2040.000000	9.271140
2039.000000	9.251592
2038.000000	9.272786
2037.000000	9.308247
2036.000000	9.329374
2035.000000	9.414903
2034.000000	9.509701
2033.000000	9.599151
2032.000000	9.664982
2031.000000	9.749644
2030.000000	9.870335
2029.000000	9.974351
2028.000000	10.067001
2027.000000	10.173502
2026.000000	10.266023
2025.000000	10.340100
2024.000000	10.403532
2023.000000	10.468121
2022.000000	10.540332
2021.000000	10.544281
2020.000000	10.607660
2019.000000	10.696287
2018.000000	10.770948
2017.000000	10.850444
2016.000000	10.832043
2015.000000	10.834299
2014.000000	10.860141
2013.000000	10.871042
2012.000000	10.875725
2011.000000	10.853452
2010.000000	10.863102
2009.000000	10.856481
2008.000000	10.789693
2007.000000	10.785615
2006.000000	10.749283
2005.000000	10.721460
2004.000000	10.706326
2003.000000	10.698928
2002.000000	10.636007
2001.000000	10.526460
2000.000000	10.477585
1999.000000	10.449046
1998.000000	10.396921
1997.000000	10.354622
1996.000000	10.318869
1995.000000	10.239695
1994.000000	10.178227
1993.000000	10.164613
1992.000000	10.080939
1991.000000	9.998954
1990.000000	9.972930
1989.000000	9.887581
1988.000000	9.835031
1987.000000	9.806567
1986.000000	9.766072
1985.000000	9.738040
1984.000000	9.646650
1983.000000	9.593815
1982.000000	9.579136
1981.000000	9.548809
1980.000000	9.465237
1979.000000	9.403238
1978.000000	9.337140
1977.000000	9.300559
1976.000000	9.281653
1975.000000	9.228204
1974.000000	9.137348
1973.000000	9.107210
1972.000000	9.110138
1971.000000	9.030628
1970.000000	8.937368
1969.000000	8.921096
1968.000000	8.857545
1967.000000	8.801378
1966.000000	8.813688
1965.000000	8.768105
1964.000000	8.657013
1963.000000	8.673034
1962.000000	8.594285
1961.000000	8.537726
1960.000000	8.547688
1959.000000	8.526509
1958.000000	8.477254
1957.000000	8.432876
1956.000000	8.396924
1955.000000	8.343102
1954.000000	8.289975
1953.000000	8.257317
1952.000000	8.232079
1951.000000	8.235545
1950.000000	8.211017
1949.000000	8.237094
1948.000000	8.151730
1947.000000	8.146150
1946.000000	8.120371
1945.000000	8.156492
1944.000000	8.130102
1943.000000	8.122444
1942.000000	8.125645
1941.000000	8.154801
1940.000000	8.242240
1939.000000	8.249621
1938.000000	8.291202
1937.000000	8.400795
1936.000000	8.447653
1935.000000	8.353084
1934.000000	8.478358
1933.000000	8.610160
1932.000000	8.611050
1931.000000	8.714033
1930.000000	8.879835
1929.000000	8.965786
1928.000000	9.075069
1927.000000	9.152458
1926.000000	9.224143
1925.000000	9.422741
1924.000000	9.504607
1923.000000	9.696636
1922.000000	9.852751
1921.000000	10.018952
1920.000000	10.251354
1919.000000	10.358084
1918.000000	10.596004
1917.000000	10.856467
1916.000000	10.951714
1915.000000	11.185437
1914.000000	11.409882
1913.000000	11.698397
1912.000000	11.981556
1911.000000	12.182331
1910.000000	12.443256
1909.000000	12.645357
1908.000000	12.925049
1907.000000	13.235828
1906.000000	13.497732
1905.000000	13.800494
1904.000000	14.143654
1903.000000	14.416212
1902.000000	14.763108
1901.000000	15.147125
1900.000000	15.492299
1899.000000	15.853912
1898.000000	16.220516
1897.000000	16.598297
1896.000000	16.906477
1895.000000	17.268895
1894.000000	17.618480
1893.000000	17.911281
1892.000000	18.322973
1891.000000	18.644057
1890.000000	19.011146
1889.000000	19.339144
1888.000000	19.623968
1887.000000	19.968895
1886.000000	20.297946
1885.000000	20.571504
1884.000000	20.914679
1883.000000	21.221185
1882.000000	21.454444
1881.000000	21.688005
1880.000000	21.912790
1879.000000	22.138238
1878.000000	22.392154
1877.000000	22.623714
1876.000000	22.798123
1875.000000	22.988741
1874.000000	23.150192
1873.000000	23.345189
1872.000000	23.470849
1871.000000	23.601970
1870.000000	23.768851
1869.000000	23.887408
1868.000000	23.951812
1867.000000	24.036117
1866.000000	24.131410
1865.000000	24.207022
1864.000000	24.266491
1863.000000	24.315457
1862.000000	24.378364
1861.000000	24.390400
1860.000000	24.430800
1859.000000	24.509610
1858.000000	24.541299
1857.000000	24.554216
1856.000000	24.561937
1855.000000	24.591723
1854.000000	24.616381
1853.000000	24.657631
1852.000000	24.639182
1851.000000	24.634892
1850.000000	24.631065
1849.000000	24.637741
1848.000000	24.660279
1847.000000	24.655452
1846.000000	24.633681
1845.000000	24.579515
1844.000000	24.558939
1843.000000	24.542373
1842.000000	24.533145
1841.000000	24.505733
1840.000000	24.482823
1839.000000	24.478389
1838.000000	24.449322
1837.000000	24.392980
1836.000000	24.363831
1835.000000	24.324267
1834.000000	24.257303
1833.000000	24.200067
1832.000000	24.156782
1831.000000	24.129686
1830.000000	24.106762
1829.000000	24.063328
1828.000000	24.016973
1827.000000	23.994387
1826.000000	23.968139
1825.000000	23.945593
1824.000000	23.922855
1823.000000	23.866690
1822.000000	23.820605
1821.000000	23.801013
1820.000000	23.765327
1819.000000	23.741533
1818.000000	23.688239
1817.000000	23.649534
1816.000000	23.651794
1815.000000	23.617790
1814.000000	23.583664
1813.000000	23.553680
1812.000000	23.522621
1811.000000	23.489455
1810.000000	23.477506
1809.000000	23.455984
1808.000000	23.416379
1807.000000	23.361847
1806.000000	23.316366
1805.000000	23.301730
1804.000000	23.268191
1803.000000	23.249264
1802.000000	23.214050
1801.000000	23.189582
1800.000000	23.180252
1799.000000	23.153954
1798.000000	23.136934
1797.000000	23.123688
1796.000000	23.105469
1795.000000	23.074735
1794.000000	23.054424
1793.000000	23.029423
1792.000000	22.997035
1791.000000	22.978231
1790.000000	22.965735
1789.000000	22.944077
1788.000000	22.921898
1787.000000	22.902527
1786.000000	22.888360
1785.000000	22.841292
1784.000000	22.793652
1783.000000	22.750160
1782.000000	22.720196
1781.000000	22.698766
1780.000000	22.667173
1779.000000	22.635659
1778.000000	22.584581
1777.000000	22.511530
1776.000000	22.468404
1775.000000	22.397429
1774.000000	22.338623
1773.000000	22.278320
1772.000000	22.208171
1771.000000	22.163100
1770.000000	22.105159
1769.000000	22.044260
1768.000000	21.994156
1767.000000	21.946094
1766.000000	21.876625
1765.000000	21.818629
1764.000000	21.762344
1763.000000	21.699041
1762.000000	21.641310
1761.000000	21.588881
1760.000000	21.525953
1759.000000	21.493981
1758.000000	21.460587
1757.000000	21.382427
1756.000000	21.343568
1755.000000	21.290186
1754.000000	21.215642
1753.000000	21.156124
1752.000000	21.089550
1751.000000	21.044823
1750.000000	20.995467
1749.000000	20.939733
1748.000000	20.883283
1747.000000	20.805153
1746.000000	20.767265
1745.000000	20.703181
1744.000000	20.635512
1743.000000	20.571492
1742.000000	20.515565
1741.000000	20.466572
1740.000000	20.418837
1739.000000	20.361522
1738.000000	20.310177
1737.000000	20.306217
1736.000000	20.268076
1735.000000	20.251897
1734.000000	20.257908
1733.000000	20.237348
1732.000000	20.215885
1731.000000	20.226388
1730.000000	20.252082
1729.000000	20.271185
1728.000000	20.301754
1727.000000	20.360599
1726.000000	20.402194
1725.000000	20.470474
1724.000000	20.503771
1723.000000	20.602814
1722.000000	20.646964
1721.000000	20.726037
1720.000000	20.821295
1719.000000	20.908117
1718.000000	20.958008
1717.000000	21.045588
1716.000000	21.156267
1715.000000	21.227352
1714.000000	21.321316
1713.000000	21.408488
1712.000000	21.431835
1711.000000	21.534620
1710.000000	21.565725
1709.000000	21.603582
1708.000000	21.607217
1707.000000	21.679003
1706.000000	21.704058
1705.000000	21.721224
1704.000000	21.765980
1703.000000	21.765720
1702.000000	21.781714
1701.000000	21.801314
1700.000000	21.827196
1699.000000	21.809677
1698.000000	21.873559
1697.000000	21.901366
1696.000000	21.925358
1695.000000	21.961836
1694.000000	22.034108
1693.000000	22.063232
1692.000000	22.085052
1691.000000	22.156444
1690.000000	22.282359
1689.000000	22.345023
1688.000000	22.447160
1687.000000	22.555018
1686.000000	22.671724
1685.000000	22.811033
1684.000000	22.942239
1683.000000	23.077845
1682.000000	23.256404
1681.000000	23.418209
1680.000000	23.582523
1679.000000	23.729051
1678.000000	23.898589
1677.000000	24.047257
1676.000000	24.251996
1675.000000	24.451894
1674.000000	24.573097
1673.000000	24.753310
1672.000000	24.905963
1671.000000	25.058586
1670.000000	25.206671
1669.000000	25.384393
1668.000000	25.487870
1667.000000	25.650280
1666.000000	25.741589
1665.000000	25.807100
1664.000000	25.904478
1663.000000	26.009152
1662.000000	26.087208
1661.000000	26.145245
1660.000000	26.230545
1659.000000	26.306982
1658.000000	26.356013
1657.000000	26.390001
1656.000000	26.451756
1655.000000	26.471606
1654.000000	26.505671
1653.000000	26.518811
1652.000000	26.543760
1651.000000	26.544107
1650.000000	26.556521
1649.000000	26.550586
1648.000000	26.536515
1647.000000	26.519899
1646.000000	26.526332
1645.000000	26.509191
1644.000000	26.504429
1643.000000	26.495560
1642.000000	26.487808
1641.000000	26.449014
1640.000000	26.417786
1639.000000	26.388170
1638.000000	26.357155
1637.000000	26.329753
1636.000000	26.278004
1635.000000	26.267145
1634.000000	26.229041
1633.000000	26.171725
1632.000000	26.144945
1631.000000	26.107938
1630.000000	26.089943
1629.000000	26.047636
1628.000000	25.996534
1627.000000	25.971757
1626.000000	25.940186
1625.000000	25.885077
1624.000000	25.849619
1623.000000	25.816151
1622.000000	25.758775
1621.000000	25.707435
1620.000000	25.673627
1619.000000	25.609841
1618.000000	25.555101
1617.000000	25.510062
1616.000000	25.458888
1615.000000	25.401381
1614.000000	25.347732
1613.000000	25.305901
1612.000000	25.255586
1611.000000	25.191304
1610.000000	25.135582
1609.000000	25.092616
1608.000000	25.035888
1607.000000	24.964546
1606.000000	24.912224
1605.000000	24.860298
1604.000000	24.797072
1603.000000	24.736719
1602.000000	24.680180
1601.000000	24.633723
1600.000000	24.589816
1599.000000	24.527546
1598.000000	24.469816
1597.000000	24.425650
1596.000000	24.360548
1595.000000	24.304339
1594.000000	24.259248
1593.000000	24.210464
1592.000000	24.163825
1591.000000	24.112208
1590.000000	24.054370
1589.000000	24.008684
1588.000000	23.974557
1587.000000	23.942327
1586.000000	23.890739
1585.000000	23.840592
1584.000000	23.806891
1583.000000	23.778022
1582.000000	23.738023
1581.000000	23.694151
1580.000000	23.649211
1579.000000	23.607171
1578.000000	23.576972
1577.000000	23.529078
1576.000000	23.485703
1575.000000	23.451208
1574.000000	23.402197
1573.000000	23.358677
1572.000000	23.344589
1571.000000	23.308957
1570.000000	23.261115
1569.000000	23.228895
1568.000000	23.198605
1567.000000	23.151340
1566.000000	23.122914
1565.000000	23.089919
1564.000000	23.059463
1563.000000	23.054431
1562.000000	23.037147
1561.000000	23.004982
1560.000000	22.974664
1559.000000	22.962943
1558.000000	22.941537
1557.000000	22.923967
1556.000000	22.909242
1555.000000	22.890416
1554.000000	22.876093
1553.000000	22.843379
1552.000000	22.818319
1551.000000	22.784128
1550.000000	22.752843
1549.000000	22.722529
1548.000000	22.683957
1547.000000	22.641020
1546.000000	22.593455
1545.000000	22.541640
1544.000000	22.473680
1543.000000	22.405458
1542.000000	22.338520
1541.000000	22.278626
1540.000000	22.187329
1539.000000	22.118831
1538.000000	22.057243
1537.000000	21.962514
1536.000000	21.874164
1535.000000	21.794324
1534.000000	21.707678
1533.000000	21.622682
1532.000000	21.544936
1531.000000	21.473101
1530.000000	21.376722
1529.000000	21.296688
1528.000000	21.229237
1527.000000	21.175812
1526.000000	21.104934
1525.000000	21.048997
1524.000000	20.986803
1523.000000	20.926145
1522.000000	20.875626
1521.000000	20.835860
1520.000000	20.778125
1519.000000	20.740409
1518.000000	20.711626
1517.000000	20.659810
1516.000000	20.619985
1515.000000	20.606019
1514.000000	20.565423
1513.000000	20.545639
1512.000000	20.527931
1511.000000	20.483042
1510.000000	20.469653
1509.000000	20.448574
1508.000000	20.428809
1507.000000	20.437185
1506.000000	20.410854
1505.000000	20.403808
1504.000000	20.395656
1503.000000	20.395436
1502.000000	20.380873
1501.000000	20.386484
1500.000000	20.376226
1499.000000	20.403767
1498.000000	20.410713
1497.000000	20.453531
1496.000000	20.486192
1495.000000	20.504764
1494.000000	20.510953
1493.000000	20.544707
1492.000000	20.570806
1491.000000	20.609407
1490.000000	20.660233
1489.000000	20.705102
1488.000000	20.765800
1487.000000	20.811816
1486.000000	20.867460
1485.000000	20.936191
1484.000000	21.007220
1483.000000	21.074813
1482.000000	21.149019
1481.000000	21.220432
1480.000000	21.292781
1479.000000	21.369790
1478.000000	21.430020
1477.000000	21.510144
1476.000000	21.580161
1475.000000	21.655946
1474.000000	21.711674
1473.000000	21.783415
1472.000000	21.828496
1471.000000	21.925972
1470.000000	21.990417
1469.000000	22.055611
1468.000000	22.109991
1467.000000	22.172117
1466.000000	22.236811
1465.000000	22.294178
1464.000000	22.323172
1463.000000	22.377202
1462.000000	22.456256
1461.000000	22.500446
1460.000000	22.554796
1459.000000	22.590991
1458.000000	22.618920
1457.000000	22.684819
1456.000000	22.762298
