PE UV       SUBTECH     SPECTRUM    ASCII       PEDS        4.00        
   -1
TDVeauUK 42.Sample.asc
18/03/01
09:47:42.00
18/03/01
09:47:42.00
Administrator

200.000000
1
Lambda 750
750N8071901
PerkinElmer UV WinLab 6.0.4.0738 / 1.61.00 Lambda 900

0
0
3350/servo 860.8/2
0
0
UV/VIS
1
1
1
CommonBeamDepol,150mm sphere / downward view
0
0
0
0
Program
Program
3350/servo 860.8/2
3350/0.2 860.8/0.2
3350/0.2 860.8/0.2
0
1
 
 
 
0
 
860.8
319.2
860.8
Front
100
on
 
 
0
0
0
 
0
 
 
 
0
 
 
0
0
0
0
0
 
 
 
 
0
0


0
0
#HDR
-1
-1
#GR
nm
%T
1.0
0.0
2350.000000
-1.000000
2151
8
54.485897
0.251359
#DATA
2350.000000	17.799851
2349.000000	17.854021
2348.000000	17.565531
2347.000000	18.593166
2346.000000	17.966639
2345.000000	17.852475
2344.000000	17.973390
2343.000000	17.690367
2342.000000	17.496914
2341.000000	17.825456
2340.000000	18.054022
2339.000000	18.504123
2338.000000	18.204572
2337.000000	18.276669
2336.000000	18.431596
2335.000000	18.482723
2334.000000	18.469641
2333.000000	18.403890
2332.000000	18.556970
2331.000000	18.398325
2330.000000	18.332221
2329.000000	18.393217
2328.000000	18.282408
2327.000000	18.321719
2326.000000	18.559834
2325.000000	18.492926
2324.000000	18.391096
2323.000000	18.218812
2322.000000	18.024463
2321.000000	18.122940
2320.000000	18.220557
2319.000000	18.125673
2318.000000	18.205476
2317.000000	18.127010
2316.000000	17.791443
2315.000000	17.938092
2314.000000	17.811659
2313.000000	17.927956
2312.000000	17.585538
2311.000000	17.409239
2310.000000	17.310261
2309.000000	17.660748
2308.000000	17.188705
2307.000000	17.195115
2306.000000	16.945641
2305.000000	17.023375
2304.000000	16.873685
2303.000000	16.722135
2302.000000	16.738098
2301.000000	16.467098
2300.000000	16.279944
2299.000000	16.208485
2298.000000	16.107336
2297.000000	15.930907
2296.000000	15.823507
2295.000000	15.866108
2294.000000	15.556745
2293.000000	15.550118
2292.000000	15.499605
2291.000000	15.520455
2290.000000	15.464271
2289.000000	15.294363
2288.000000	15.326331
2287.000000	15.191583
2286.000000	15.123025
2285.000000	15.010734
2284.000000	15.081269
2283.000000	15.138375
2282.000000	14.958125
2281.000000	15.058915
2280.000000	15.246440
2279.000000	15.073962
2278.000000	14.985900
2277.000000	15.187419
2276.000000	15.218126
2275.000000	15.281980
2274.000000	15.331561
2273.000000	15.464507
2272.000000	15.507862
2271.000000	15.406359
2270.000000	15.439115
2269.000000	15.471117
2268.000000	15.466566
2267.000000	15.578777
2266.000000	15.808211
2265.000000	15.952600
2264.000000	16.177079
2263.000000	16.363122
2262.000000	16.526263
2261.000000	16.739888
2260.000000	16.932167
2259.000000	17.205541
2258.000000	17.466302
2257.000000	17.675043
2256.000000	17.809379
2255.000000	17.992056
2254.000000	18.280240
2253.000000	18.431195
2252.000000	18.605031
2251.000000	18.833337
2250.000000	19.086708
2249.000000	19.458406
2248.000000	19.800711
2247.000000	19.959927
2246.000000	20.152238
2245.000000	20.280836
2244.000000	20.562920
2243.000000	20.929981
2242.000000	21.231342
2241.000000	21.379747
2240.000000	21.481101
2239.000000	21.577424
2238.000000	21.637218
2237.000000	21.809819
2236.000000	22.083353
2235.000000	22.147969
2234.000000	22.207407
2233.000000	22.297292
2232.000000	22.373368
2231.000000	22.512143
2230.000000	22.510818
2229.000000	22.505788
2228.000000	22.597461
2227.000000	22.510641
2226.000000	22.360033
2225.000000	22.360685
2224.000000	22.343174
2223.000000	22.340760
2222.000000	22.461034
2221.000000	22.457519
2220.000000	22.374649
2219.000000	22.241603
2218.000000	22.162104
2217.000000	22.069655
2216.000000	22.114380
2215.000000	22.136422
2214.000000	21.974453
2213.000000	21.881519
2212.000000	21.925389
2211.000000	21.855723
2210.000000	21.814772
2209.000000	21.686089
2208.000000	21.461180
2207.000000	21.434275
2206.000000	21.412399
2205.000000	21.308736
2204.000000	21.170377
2203.000000	21.000994
2202.000000	20.906110
2201.000000	20.869280
2200.000000	20.793090
2199.000000	20.694859
2198.000000	20.719045
2197.000000	20.576465
2196.000000	20.405714
2195.000000	20.278684
2194.000000	20.294846
2193.000000	20.139929
2192.000000	20.028253
2191.000000	19.943623
2190.000000	19.914228
2189.000000	19.844067
2188.000000	19.742997
2187.000000	19.663262
2186.000000	19.533645
2185.000000	19.463971
2184.000000	19.556332
2183.000000	19.476158
2182.000000	19.205839
2181.000000	19.192913
2180.000000	19.150581
2179.000000	19.054584
2178.000000	19.169894
2177.000000	19.325004
2176.000000	19.301142
2175.000000	19.303172
2174.000000	19.171421
2173.000000	19.133254
2172.000000	19.305456
2171.000000	19.426755
2170.000000	19.388099
2169.000000	19.441325
2168.000000	19.633368
2167.000000	19.789633
2166.000000	19.757506
2165.000000	19.819188
2164.000000	20.138283
2163.000000	20.137309
2162.000000	20.230729
2161.000000	20.339884
2160.000000	20.501204
2159.000000	20.680135
2158.000000	20.783842
2157.000000	21.075499
2156.000000	21.163073
2155.000000	21.271511
2154.000000	21.666411
2153.000000	21.860644
2152.000000	22.088743
2151.000000	22.112986
2150.000000	22.126724
2149.000000	22.250469
2148.000000	22.555425
2147.000000	22.693379
2146.000000	22.792719
2145.000000	23.002535
2144.000000	23.133735
2143.000000	23.362126
2142.000000	23.478324
2141.000000	23.649026
2140.000000	24.017179
2139.000000	23.980299
2138.000000	24.352512
2137.000000	24.282983
2136.000000	24.571218
2135.000000	24.555054
2134.000000	24.680280
2133.000000	24.588051
2132.000000	24.806961
2131.000000	25.111747
2130.000000	25.284824
2129.000000	25.164828
2128.000000	25.359593
2127.000000	25.220375
2126.000000	25.333908
2125.000000	25.350295
2124.000000	25.494493
2123.000000	25.456667
2122.000000	25.793559
2121.000000	25.816673
2120.000000	25.751813
2119.000000	25.786558
2118.000000	25.921431
2117.000000	25.922002
2116.000000	25.906630
2115.000000	26.015357
2114.000000	26.108328
2113.000000	26.113473
2112.000000	25.956821
2111.000000	26.060084
2110.000000	26.154079
2109.000000	26.272861
2108.000000	26.212468
2107.000000	26.234816
2106.000000	26.201736
2105.000000	26.071231
2104.000000	26.306532
2103.000000	26.372064
2102.000000	26.369926
2101.000000	26.446488
2100.000000	26.485171
2099.000000	26.369502
2098.000000	26.307792
2097.000000	26.353991
2096.000000	26.364227
2095.000000	26.448436
2094.000000	26.381044
2093.000000	26.356541
2092.000000	26.242329
2091.000000	26.288395
2090.000000	26.253746
2089.000000	26.282047
2088.000000	26.186836
2087.000000	26.101456
2086.000000	26.086196
2085.000000	26.165896
2084.000000	26.079275
2083.000000	25.972851
2082.000000	25.890934
2081.000000	25.811025
2080.000000	25.745127
2079.000000	25.686765
2078.000000	25.513333
2077.000000	25.421144
2076.000000	25.351167
2075.000000	25.227991
2074.000000	25.083288
2073.000000	24.943045
2072.000000	24.756786
2071.000000	24.602168
2070.000000	24.517819
2069.000000	24.324281
2068.000000	24.069691
2067.000000	24.038075
2066.000000	23.854943
2065.000000	23.636443
2064.000000	23.457296
2063.000000	23.293782
2062.000000	23.112801
2061.000000	22.833472
2060.000000	22.703954
2059.000000	22.562861
2058.000000	22.306713
2057.000000	22.171404
2056.000000	22.047539
2055.000000	21.864957
2054.000000	21.668296
2053.000000	21.483784
2052.000000	21.389831
2051.000000	21.223365
2050.000000	21.056919
2049.000000	20.958329
2048.000000	20.843937
2047.000000	20.758816
2046.000000	20.688102
2045.000000	20.685356
2044.000000	20.647302
2043.000000	20.569318
2042.000000	20.595018
2041.000000	20.577514
2040.000000	20.606968
2039.000000	20.660949
2038.000000	20.738627
2037.000000	20.846412
2036.000000	20.945370
2035.000000	21.062374
2034.000000	21.200433
2033.000000	21.355526
2032.000000	21.512057
2031.000000	21.612259
2030.000000	21.753920
2029.000000	21.925589
2028.000000	22.120242
2027.000000	22.303868
2026.000000	22.463335
2025.000000	22.639234
2024.000000	22.775829
2023.000000	22.854264
2022.000000	22.964593
2021.000000	23.068423
2020.000000	23.144309
2019.000000	23.170759
2018.000000	23.273723
2017.000000	23.364289
2016.000000	23.398847
2015.000000	23.418517
2014.000000	23.428195
2013.000000	23.471331
2012.000000	23.432597
2011.000000	23.408758
2010.000000	23.358804
2009.000000	23.282945
2008.000000	23.253192
2007.000000	23.206253
2006.000000	23.118675
2005.000000	23.017430
2004.000000	22.940923
2003.000000	22.854678
2002.000000	22.756053
2001.000000	22.654404
2000.000000	22.565248
1999.000000	22.480607
1998.000000	22.325975
1997.000000	22.236170
1996.000000	22.163255
1995.000000	22.051026
1994.000000	21.923671
1993.000000	21.818475
1992.000000	21.683804
1991.000000	21.573185
1990.000000	21.454858
1989.000000	21.340844
1988.000000	21.246914
1987.000000	21.105182
1986.000000	20.964662
1985.000000	20.879095
1984.000000	20.739779
1983.000000	20.623422
1982.000000	20.542088
1981.000000	20.440136
1980.000000	20.327389
1979.000000	20.204011
1978.000000	20.074983
1977.000000	19.976028
1976.000000	19.846312
1975.000000	19.721482
1974.000000	19.582702
1973.000000	19.504710
1972.000000	19.399566
1971.000000	19.261725
1970.000000	19.194280
1969.000000	19.078619
1968.000000	18.995190
1967.000000	18.901105
1966.000000	18.804985
1965.000000	18.682698
1964.000000	18.560029
1963.000000	18.475935
1962.000000	18.379469
1961.000000	18.295360
1960.000000	18.201287
1959.000000	18.098502
1958.000000	18.027380
1957.000000	17.947718
1956.000000	17.867148
1955.000000	17.807088
1954.000000	17.721556
1953.000000	17.653022
1952.000000	17.591428
1951.000000	17.586797
1950.000000	17.542571
1949.000000	17.530231
1948.000000	17.440540
1947.000000	17.461456
1946.000000	17.485956
1945.000000	17.482272
1944.000000	17.451624
1943.000000	17.494948
1942.000000	17.546384
1941.000000	17.578737
1940.000000	17.631143
1939.000000	17.798979
1938.000000	17.948721
1937.000000	18.011186
1936.000000	18.093041
1935.000000	18.256607
1934.000000	18.430058
1933.000000	18.640771
1932.000000	18.763147
1931.000000	19.027121
1930.000000	19.191619
1929.000000	19.372647
1928.000000	19.628608
1927.000000	19.911074
1926.000000	20.166735
1925.000000	20.556089
1924.000000	20.840043
1923.000000	21.133571
1922.000000	21.440074
1921.000000	21.866732
1920.000000	22.028130
1919.000000	22.488683
1918.000000	22.802946
1917.000000	23.214782
1916.000000	23.539041
1915.000000	24.004443
1914.000000	24.430876
1913.000000	24.824019
1912.000000	25.211607
1911.000000	25.762131
1910.000000	26.246345
1909.000000	26.599449
1908.000000	27.030000
1907.000000	27.621998
1906.000000	28.120799
1905.000000	28.606439
1904.000000	29.104634
1903.000000	29.555076
1902.000000	30.103497
1901.000000	30.659183
1900.000000	31.148707
1899.000000	31.743720
1898.000000	32.283454
1897.000000	32.771767
1896.000000	33.272734
1895.000000	33.765411
1894.000000	34.320007
1893.000000	34.743005
1892.000000	35.262753
1891.000000	35.691880
1890.000000	36.224486
1889.000000	36.618133
1888.000000	37.039232
1887.000000	37.530347
1886.000000	37.927168
1885.000000	38.302017
1884.000000	38.669011
1883.000000	38.996954
1882.000000	39.371013
1881.000000	39.651399
1880.000000	39.997344
1879.000000	40.343066
1878.000000	40.600522
1877.000000	40.905168
1876.000000	41.130897
1875.000000	41.364454
1874.000000	41.586439
1873.000000	41.795506
1872.000000	41.967932
1871.000000	42.146418
1870.000000	42.357652
1869.000000	42.477637
1868.000000	42.572036
1867.000000	42.648689
1866.000000	42.744341
1865.000000	42.849310
1864.000000	42.922117
1863.000000	43.010102
1862.000000	43.071457
1861.000000	43.132097
1860.000000	43.184254
1859.000000	43.207229
1858.000000	43.237563
1857.000000	43.321888
1856.000000	43.356338
1855.000000	43.357610
1854.000000	43.380975
1853.000000	43.374591
1852.000000	43.350442
1851.000000	43.359432
1850.000000	43.391524
1849.000000	43.368240
1848.000000	43.348851
1847.000000	43.360071
1846.000000	43.323426
1845.000000	43.294492
1844.000000	43.271086
1843.000000	43.251045
1842.000000	43.214429
1841.000000	43.173100
1840.000000	43.143985
1839.000000	43.090003
1838.000000	43.072745
1837.000000	43.028926
1836.000000	42.995879
1835.000000	42.953803
1834.000000	42.857577
1833.000000	42.803317
1832.000000	42.783754
1831.000000	42.723407
1830.000000	42.665285
1829.000000	42.614261
1828.000000	42.562692
1827.000000	42.544733
1826.000000	42.503843
1825.000000	42.474303
1824.000000	42.434483
1823.000000	42.368351
1822.000000	42.308208
1821.000000	42.258624
1820.000000	42.215286
1819.000000	42.179289
1818.000000	42.131766
1817.000000	42.096586
1816.000000	42.057584
1815.000000	42.003554
1814.000000	41.956480
1813.000000	41.924521
1812.000000	41.881879
1811.000000	41.842784
1810.000000	41.824210
1809.000000	41.795957
1808.000000	41.740955
1807.000000	41.673530
1806.000000	41.631189
1805.000000	41.595478
1804.000000	41.550610
1803.000000	41.507263
1802.000000	41.458769
1801.000000	41.439172
1800.000000	41.421970
1799.000000	41.370085
1798.000000	41.331012
1797.000000	41.298415
1796.000000	41.258989
1795.000000	41.256239
1794.000000	41.240500
1793.000000	41.198947
1792.000000	41.162977
1791.000000	41.137229
1790.000000	41.109185
1789.000000	41.055175
1788.000000	41.025336
1787.000000	41.001846
1786.000000	40.976503
1785.000000	40.945472
1784.000000	40.894984
1783.000000	40.856632
1782.000000	40.811475
1781.000000	40.783181
1780.000000	40.716327
1779.000000	40.684220
1778.000000	40.665228
1777.000000	40.581915
1776.000000	40.518431
1775.000000	40.461513
1774.000000	40.399606
1773.000000	40.332627
1772.000000	40.272479
1771.000000	40.217307
1770.000000	40.152387
1769.000000	40.066992
1768.000000	40.013934
1767.000000	39.957807
1766.000000	39.889485
1765.000000	39.829505
1764.000000	39.756465
1763.000000	39.662901
1762.000000	39.589739
1761.000000	39.525780
1760.000000	39.456189
1759.000000	39.427909
1758.000000	39.369446
1757.000000	39.257956
1756.000000	39.205271
1755.000000	39.146357
1754.000000	39.083799
1753.000000	39.005438
1752.000000	38.916970
1751.000000	38.857996
1750.000000	38.793765
1749.000000	38.759648
1748.000000	38.667154
1747.000000	38.562675
1746.000000	38.511337
1745.000000	38.426571
1744.000000	38.389027
1743.000000	38.322190
1742.000000	38.251129
1741.000000	38.171143
1740.000000	38.118818
1739.000000	38.069975
1738.000000	38.062113
1737.000000	38.000018
1736.000000	37.942386
1735.000000	37.914654
1734.000000	37.906168
1733.000000	37.911586
1732.000000	37.908136
1731.000000	37.929276
1730.000000	37.932680
1729.000000	37.954383
1728.000000	38.004848
1727.000000	38.069822
1726.000000	38.130845
1725.000000	38.195756
1724.000000	38.275560
1723.000000	38.346495
1722.000000	38.470913
1721.000000	38.535355
1720.000000	38.639506
1719.000000	38.786266
1718.000000	38.856500
1717.000000	38.947284
1716.000000	39.050469
1715.000000	39.139282
1714.000000	39.188302
1713.000000	39.274280
1712.000000	39.361916
1711.000000	39.438216
1710.000000	39.495767
1709.000000	39.554323
1708.000000	39.585516
1707.000000	39.632134
1706.000000	39.682875
1705.000000	39.705893
1704.000000	39.740334
1703.000000	39.731946
1702.000000	39.738957
1701.000000	39.770998
1700.000000	39.745077
1699.000000	39.781858
1698.000000	39.815573
1697.000000	39.846950
1696.000000	39.887723
1695.000000	39.924602
1694.000000	39.964877
1693.000000	39.992731
1692.000000	40.087264
1691.000000	40.169449
1690.000000	40.278555
1689.000000	40.346678
1688.000000	40.466046
1687.000000	40.577244
1686.000000	40.732080
1685.000000	40.887747
1684.000000	41.029464
1683.000000	41.212264
1682.000000	41.389658
1681.000000	41.585334
1680.000000	41.750514
1679.000000	41.929134
1678.000000	42.139377
1677.000000	42.320594
1676.000000	42.520463
1675.000000	42.742804
1674.000000	42.896587
1673.000000	43.101302
1672.000000	43.291467
1671.000000	43.457349
1670.000000	43.632885
1669.000000	43.796797
1668.000000	43.935352
1667.000000	44.080576
1666.000000	44.154561
1665.000000	44.271295
1664.000000	44.382943
1663.000000	44.477382
1662.000000	44.559444
1661.000000	44.643078
1660.000000	44.720250
1659.000000	44.806420
1658.000000	44.843501
1657.000000	44.876872
1656.000000	44.937372
1655.000000	44.949616
1654.000000	44.963848
1653.000000	44.992426
1652.000000	45.019157
1651.000000	45.007733
1650.000000	45.013712
1649.000000	45.012397
1648.000000	44.999564
1647.000000	44.983362
1646.000000	44.949868
1645.000000	44.924005
1644.000000	44.909196
1643.000000	44.897089
1642.000000	44.873416
1641.000000	44.849979
1640.000000	44.799541
1639.000000	44.768200
1638.000000	44.741717
1637.000000	44.711526
1636.000000	44.654965
1635.000000	44.604788
1634.000000	44.583778
1633.000000	44.524644
1632.000000	44.482321
1631.000000	44.426778
1630.000000	44.393664
1629.000000	44.350453
1628.000000	44.291315
1627.000000	44.234293
1626.000000	44.194837
1625.000000	44.142440
1624.000000	44.090165
1623.000000	44.033669
1622.000000	43.987127
1621.000000	43.936168
1620.000000	43.867953
1619.000000	43.801750
1618.000000	43.740406
1617.000000	43.684603
1616.000000	43.614428
1615.000000	43.552080
1614.000000	43.480502
1613.000000	43.411096
1612.000000	43.362893
1611.000000	43.297497
1610.000000	43.223231
1609.000000	43.148831
1608.000000	43.100337
1607.000000	43.037812
1606.000000	42.957053
1605.000000	42.889797
1604.000000	42.816577
1603.000000	42.754961
1602.000000	42.685868
1601.000000	42.613779
1600.000000	42.540699
1599.000000	42.467160
1598.000000	42.397990
1597.000000	42.332782
1596.000000	42.275860
1595.000000	42.223599
1594.000000	42.158109
1593.000000	42.095819
1592.000000	42.034248
1591.000000	41.969496
1590.000000	41.908121
1589.000000	41.855062
1588.000000	41.818016
1587.000000	41.775338
1586.000000	41.711855
1585.000000	41.653672
1584.000000	41.603425
1583.000000	41.549174
1582.000000	41.490698
1581.000000	41.441308
1580.000000	41.391799
1579.000000	41.355377
1578.000000	41.303799
1577.000000	41.237653
1576.000000	41.187903
1575.000000	41.148306
1574.000000	41.089809
1573.000000	41.049810
1572.000000	41.003152
1571.000000	40.944738
1570.000000	40.906348
1569.000000	40.851396
1568.000000	40.801999
1567.000000	40.757281
1566.000000	40.727228
1565.000000	40.693880
1564.000000	40.660047
1563.000000	40.643126
1562.000000	40.611173
1561.000000	40.579006
1560.000000	40.555600
1559.000000	40.521993
1558.000000	40.486402
1557.000000	40.490692
1556.000000	40.465604
1555.000000	40.422444
1554.000000	40.396339
1553.000000	40.367542
1552.000000	40.342453
1551.000000	40.305537
1550.000000	40.273520
1549.000000	40.230691
1548.000000	40.176394
1547.000000	40.120387
1546.000000	40.048309
1545.000000	39.995963
1544.000000	39.916980
1543.000000	39.836883
1542.000000	39.758275
1541.000000	39.674004
1540.000000	39.590598
1539.000000	39.486366
1538.000000	39.400233
1537.000000	39.297238
1536.000000	39.201269
1535.000000	39.128345
1534.000000	39.022046
1533.000000	38.930400
1532.000000	38.831559
1531.000000	38.736096
1530.000000	38.648160
1529.000000	38.564431
1528.000000	38.476991
1527.000000	38.404360
1526.000000	38.335773
1525.000000	38.261232
1524.000000	38.167024
1523.000000	38.101951
1522.000000	38.042944
1521.000000	38.002876
1520.000000	37.942751
1519.000000	37.883935
1518.000000	37.845246
1517.000000	37.792885
1516.000000	37.748270
1515.000000	37.697360
1514.000000	37.652552
1513.000000	37.616079
1512.000000	37.602421
1511.000000	37.559257
1510.000000	37.539378
1509.000000	37.504855
1508.000000	37.480959
1507.000000	37.458876
1506.000000	37.433119
1505.000000	37.426051
1504.000000	37.404309
1503.000000	37.388844
1502.000000	37.382936
1501.000000	37.377639
1500.000000	37.371610
1499.000000	37.373202
1498.000000	37.366429
1497.000000	37.388296
1496.000000	37.418436
1495.000000	37.426322
1494.000000	37.469777
1493.000000	37.479428
1492.000000	37.519063
1491.000000	37.563791
1490.000000	37.604134
1489.000000	37.647834
1488.000000	37.694388
1487.000000	37.759473
1486.000000	37.821948
1485.000000	37.872041
1484.000000	37.945593
1483.000000	38.027611
1482.000000	38.084192
1481.000000	38.160420
1480.000000	38.241616
1479.000000	38.306022
1478.000000	38.388237
1477.000000	38.438417
1476.000000	38.518521
1475.000000	38.596678
1474.000000	38.659416
1473.000000	38.736705
1472.000000	38.813402
1471.000000	38.874928
1470.000000	38.930884
