PE UV       SUBTECH     SPECTRUM    ASCII       PEDS        4.00        
   -1
TDVeauAl 22.Sample.asc
18/03/01
10:31:24.00
18/03/01
10:31:24.00
Administrator

200.000000
1
Lambda 750
750N8071901
PerkinElmer UV WinLab 6.0.4.0738 / 1.61.00 Lambda 900

0
0
3350/servo 860.8/2
0
0
UV/VIS
1
1
1
CommonBeamDepol,150mm sphere / downward view
0
0
0
0
Program
Program
3350/servo 860.8/2
3350/0.2 860.8/0.2
3350/0.2 860.8/0.2
0
1
 
 
 
0
 
860.8
319.2
860.8
Front
100
on
 
 
0
0
0
 
0
 
 
 
0
 
 
0
0
0
0
0
 
 
 
 
0
0


0
0
#HDR
-1
-1
#GR
nm
%T
1.0
0.0
2350.000000
-1.000000
2151
8
34.548559
0.055472
#DATA
2350.000000	6.362618
2349.000000	6.885756
2348.000000	6.841906
2347.000000	7.306193
2346.000000	6.580387
2345.000000	6.980126
2344.000000	6.588168
2343.000000	6.557876
2342.000000	6.371075
2341.000000	6.360666
2340.000000	6.454235
2339.000000	7.067394
2338.000000	6.833361
2337.000000	6.825802
2336.000000	7.078707
2335.000000	7.313548
2334.000000	7.367973
2333.000000	7.415188
2332.000000	7.514712
2331.000000	7.452100
2330.000000	7.182379
2329.000000	6.907650
2328.000000	7.012208
2327.000000	7.176621
2326.000000	6.986004
2325.000000	7.303345
2324.000000	7.140086
2323.000000	6.824777
2322.000000	6.913509
2321.000000	7.035596
2320.000000	7.092359
2319.000000	6.735850
2318.000000	6.913592
2317.000000	7.006594
2316.000000	6.899287
2315.000000	6.603339
2314.000000	6.473196
2313.000000	6.628451
2312.000000	6.677326
2311.000000	6.822051
2310.000000	6.857715
2309.000000	6.937014
2308.000000	6.595382
2307.000000	6.558525
2306.000000	6.505846
2305.000000	6.593634
2304.000000	6.466762
2303.000000	6.153586
2302.000000	6.165105
2301.000000	6.019957
2300.000000	6.059722
2299.000000	6.168812
2298.000000	5.980948
2297.000000	5.902278
2296.000000	5.778727
2295.000000	5.894125
2294.000000	5.894904
2293.000000	5.690445
2292.000000	5.678852
2291.000000	5.820625
2290.000000	5.736781
2289.000000	5.767603
2288.000000	5.882668
2287.000000	5.791734
2286.000000	5.785630
2285.000000	5.755567
2284.000000	5.773604
2283.000000	5.764733
2282.000000	5.753226
2281.000000	5.641794
2280.000000	5.637551
2279.000000	5.740667
2278.000000	5.739496
2277.000000	5.936632
2276.000000	5.826167
2275.000000	5.820646
2274.000000	5.689640
2273.000000	5.694084
2272.000000	5.924809
2271.000000	6.079045
2270.000000	5.940844
2269.000000	5.925046
2268.000000	5.867718
2267.000000	5.892035
2266.000000	5.952923
2265.000000	6.021592
2264.000000	6.268390
2263.000000	6.271511
2262.000000	6.300955
2261.000000	6.460940
2260.000000	6.495159
2259.000000	6.551522
2258.000000	6.765406
2257.000000	6.957602
2256.000000	7.116712
2255.000000	7.093678
2254.000000	7.039850
2253.000000	7.089825
2252.000000	7.058507
2251.000000	7.167519
2250.000000	7.334238
2249.000000	7.521621
2248.000000	7.622809
2247.000000	7.647751
2246.000000	7.842686
2245.000000	7.978429
2244.000000	8.047138
2243.000000	8.135584
2242.000000	8.258316
2241.000000	8.302574
2240.000000	8.423399
2239.000000	8.466901
2238.000000	8.452045
2237.000000	8.638630
2236.000000	8.687733
2235.000000	8.690559
2234.000000	8.794168
2233.000000	8.799138
2232.000000	8.953416
2231.000000	9.091884
2230.000000	8.935843
2229.000000	8.826885
2228.000000	8.985994
2227.000000	8.953167
2226.000000	8.916883
2225.000000	8.965231
2224.000000	8.875268
2223.000000	8.813337
2222.000000	8.739818
2221.000000	8.665899
2220.000000	8.698556
2219.000000	8.842458
2218.000000	8.793483
2217.000000	8.762344
2216.000000	8.886243
2215.000000	8.817041
2214.000000	8.769436
2213.000000	8.833048
2212.000000	8.725616
2211.000000	8.640060
2210.000000	8.736757
2209.000000	8.623245
2208.000000	8.427732
2207.000000	8.355152
2206.000000	8.222593
2205.000000	8.326038
2204.000000	8.285790
2203.000000	8.124316
2202.000000	8.168722
2201.000000	8.242122
2200.000000	8.053775
2199.000000	8.074913
2198.000000	8.138746
2197.000000	8.094758
2196.000000	7.967308
2195.000000	7.923155
2194.000000	7.849532
2193.000000	7.924130
2192.000000	7.849536
2191.000000	7.663061
2190.000000	7.612138
2189.000000	7.549120
2188.000000	7.643856
2187.000000	7.625508
2186.000000	7.655089
2185.000000	7.602773
2184.000000	7.610538
2183.000000	7.536164
2182.000000	7.468180
2181.000000	7.324794
2180.000000	7.412069
2179.000000	7.527070
2178.000000	7.379058
2177.000000	7.363143
2176.000000	7.369714
2175.000000	7.392958
2174.000000	7.536880
2173.000000	7.684096
2172.000000	7.549616
2171.000000	7.437083
2170.000000	7.654767
2169.000000	7.518636
2168.000000	7.644991
2167.000000	7.590388
2166.000000	7.656011
2165.000000	7.653033
2164.000000	7.714397
2163.000000	7.757237
2162.000000	7.904517
2161.000000	7.770122
2160.000000	7.946626
2159.000000	7.942298
2158.000000	8.012892
2157.000000	8.177378
2156.000000	8.397561
2155.000000	8.309654
2154.000000	8.556977
2153.000000	8.733284
2152.000000	8.763388
2151.000000	8.615526
2150.000000	8.797234
2149.000000	8.855207
2148.000000	8.559448
2147.000000	8.832912
2146.000000	9.041381
2145.000000	9.191482
2144.000000	9.165194
2143.000000	9.078727
2142.000000	9.285986
2141.000000	9.335328
2140.000000	9.617843
2139.000000	9.757627
2138.000000	9.605459
2137.000000	9.563549
2136.000000	9.862091
2135.000000	9.837464
2134.000000	10.177573
2133.000000	9.770686
2132.000000	10.077296
2131.000000	10.156723
2130.000000	10.343705
2129.000000	10.248800
2128.000000	10.233545
2127.000000	10.081299
2126.000000	10.144655
2125.000000	10.256964
2124.000000	10.358613
2123.000000	10.300435
2122.000000	10.351491
2121.000000	10.443523
2120.000000	10.387044
2119.000000	10.374339
2118.000000	10.430539
2117.000000	10.527801
2116.000000	10.465299
2115.000000	10.672721
2114.000000	10.637388
2113.000000	10.677976
2112.000000	10.784050
2111.000000	10.824239
2110.000000	10.668410
2109.000000	10.587580
2108.000000	10.596420
2107.000000	10.760233
2106.000000	10.816755
2105.000000	10.841570
2104.000000	10.826041
2103.000000	10.885919
2102.000000	10.894391
2101.000000	10.785099
2100.000000	10.979890
2099.000000	10.994528
2098.000000	10.951331
2097.000000	10.796478
2096.000000	10.807798
2095.000000	10.868996
2094.000000	10.865332
2093.000000	10.765632
2092.000000	10.884193
2091.000000	10.861634
2090.000000	10.828415
2089.000000	10.870714
2088.000000	10.826806
2087.000000	10.952127
2086.000000	10.835943
2085.000000	10.954423
2084.000000	10.919496
2083.000000	10.841629
2082.000000	10.770061
2081.000000	10.777690
2080.000000	10.629448
2079.000000	10.585463
2078.000000	10.532620
2077.000000	10.500154
2076.000000	10.445728
2075.000000	10.460796
2074.000000	10.360689
2073.000000	10.402638
2072.000000	10.304388
2071.000000	10.120683
2070.000000	10.033992
2069.000000	9.967721
2068.000000	9.927818
2067.000000	9.780240
2066.000000	9.632858
2065.000000	9.589433
2064.000000	9.496108
2063.000000	9.352639
2062.000000	9.271859
2061.000000	9.177069
2060.000000	9.178922
2059.000000	9.111149
2058.000000	9.017947
2057.000000	8.908463
2056.000000	8.775397
2055.000000	8.770175
2054.000000	8.680005
2053.000000	8.516034
2052.000000	8.486194
2051.000000	8.379701
2050.000000	8.324301
2049.000000	8.282795
2048.000000	8.247237
2047.000000	8.263320
2046.000000	8.248012
2045.000000	8.213035
2044.000000	8.147479
2043.000000	8.123175
2042.000000	8.148356
2041.000000	8.155692
2040.000000	8.180048
2039.000000	8.192505
2038.000000	8.200462
2037.000000	8.252562
2036.000000	8.312512
2035.000000	8.409700
2034.000000	8.518976
2033.000000	8.617140
2032.000000	8.677211
2031.000000	8.684246
2030.000000	8.746910
2029.000000	8.871839
2028.000000	9.020157
2027.000000	9.069664
2026.000000	9.113533
2025.000000	9.214167
2024.000000	9.283200
2023.000000	9.314064
2022.000000	9.354766
2021.000000	9.403143
2020.000000	9.467670
2019.000000	9.530164
2018.000000	9.601088
2017.000000	9.634437
2016.000000	9.627964
2015.000000	9.664915
2014.000000	9.706391
2013.000000	9.723146
2012.000000	9.728254
2011.000000	9.706511
2010.000000	9.658965
2009.000000	9.648357
2008.000000	9.610815
2007.000000	9.570507
2006.000000	9.566845
2005.000000	9.523761
2004.000000	9.482430
2003.000000	9.475335
2002.000000	9.442727
2001.000000	9.383398
2000.000000	9.332936
1999.000000	9.294029
1998.000000	9.257946
1997.000000	9.214933
1996.000000	9.172801
1995.000000	9.103768
1994.000000	9.055436
1993.000000	8.999876
1992.000000	8.915333
1991.000000	8.858975
1990.000000	8.828790
1989.000000	8.793858
1988.000000	8.757860
1987.000000	8.688827
1986.000000	8.634014
1985.000000	8.579743
1984.000000	8.554607
1983.000000	8.520626
1982.000000	8.454551
1981.000000	8.411536
1980.000000	8.365847
1979.000000	8.301589
1978.000000	8.253744
1977.000000	8.203149
1976.000000	8.165258
1975.000000	8.111269
1974.000000	8.074752
1973.000000	8.035439
1972.000000	7.988553
1971.000000	7.962371
1970.000000	7.916967
1969.000000	7.900014
1968.000000	7.854015
1967.000000	7.803296
1966.000000	7.774800
1965.000000	7.702843
1964.000000	7.685542
1963.000000	7.601748
1962.000000	7.538733
1961.000000	7.489567
1960.000000	7.512282
1959.000000	7.442017
1958.000000	7.371481
1957.000000	7.381788
1956.000000	7.311033
1955.000000	7.331105
1954.000000	7.306915
1953.000000	7.256332
1952.000000	7.251857
1951.000000	7.231997
1950.000000	7.181506
1949.000000	7.117433
1948.000000	7.111801
1947.000000	7.159088
1946.000000	7.098008
1945.000000	7.110720
1944.000000	7.181311
1943.000000	7.168152
1942.000000	7.232820
1941.000000	7.238113
1940.000000	7.180256
1939.000000	7.187251
1938.000000	7.250948
1937.000000	7.351038
1936.000000	7.402515
1935.000000	7.493081
1934.000000	7.477062
1933.000000	7.460712
1932.000000	7.644917
1931.000000	7.730405
1930.000000	7.774167
1929.000000	7.828933
1928.000000	7.931803
1927.000000	8.125238
1926.000000	8.277008
1925.000000	8.470668
1924.000000	8.419183
1923.000000	8.643336
1922.000000	8.855690
1921.000000	8.963435
1920.000000	9.121000
1919.000000	9.289503
1918.000000	9.453960
1917.000000	9.689838
1916.000000	9.699101
1915.000000	10.054121
1914.000000	10.247232
1913.000000	10.541826
1912.000000	10.720281
1911.000000	10.929407
1910.000000	11.204775
1909.000000	11.520109
1908.000000	11.761889
1907.000000	12.018738
1906.000000	12.235217
1905.000000	12.593386
1904.000000	12.887337
1903.000000	13.172699
1902.000000	13.504168
1901.000000	13.852762
1900.000000	14.230756
1899.000000	14.565294
1898.000000	14.945177
1897.000000	15.260401
1896.000000	15.598967
1895.000000	15.921089
1894.000000	16.279653
1893.000000	16.641632
1892.000000	16.949930
1891.000000	17.280017
1890.000000	17.647059
1889.000000	17.996284
1888.000000	18.287665
1887.000000	18.627808
1886.000000	18.929385
1885.000000	19.244566
1884.000000	19.509641
1883.000000	19.786567
1882.000000	20.047627
1881.000000	20.320240
1880.000000	20.542138
1879.000000	20.759263
1878.000000	20.973263
1877.000000	21.190290
1876.000000	21.414311
1875.000000	21.621085
1874.000000	21.830458
1873.000000	21.948928
1872.000000	22.045013
1871.000000	22.214626
1870.000000	22.322653
1869.000000	22.425195
1868.000000	22.587298
1867.000000	22.681624
1866.000000	22.732382
1865.000000	22.816269
1864.000000	22.850145
1863.000000	22.927515
1862.000000	22.987565
1861.000000	23.017367
1860.000000	23.086843
1859.000000	23.108264
1858.000000	23.109769
1857.000000	23.144862
1856.000000	23.182076
1855.000000	23.219495
1854.000000	23.220805
1853.000000	23.242853
1852.000000	23.252150
1851.000000	23.231522
1850.000000	23.283628
1849.000000	23.255411
1848.000000	23.245650
1847.000000	23.255059
1846.000000	23.228011
1845.000000	23.210248
1844.000000	23.196434
1843.000000	23.164831
1842.000000	23.129667
1841.000000	23.089951
1840.000000	23.061009
1839.000000	23.046976
1838.000000	23.006538
1837.000000	22.956434
1836.000000	22.959690
1835.000000	22.934613
1834.000000	22.835086
1833.000000	22.802080
1832.000000	22.765047
1831.000000	22.716326
1830.000000	22.716278
1829.000000	22.681603
1828.000000	22.624713
1827.000000	22.608517
1826.000000	22.575277
1825.000000	22.524834
1824.000000	22.505097
1823.000000	22.476922
1822.000000	22.413776
1821.000000	22.395640
1820.000000	22.378096
1819.000000	22.324587
1818.000000	22.291875
1817.000000	22.271809
1816.000000	22.232917
1815.000000	22.201564
1814.000000	22.164130
1813.000000	22.124901
1812.000000	22.101694
1811.000000	22.091850
1810.000000	22.074134
1809.000000	22.042341
1808.000000	22.002147
1807.000000	21.966037
1806.000000	21.932228
1805.000000	21.896034
1804.000000	21.866679
1803.000000	21.853225
1802.000000	21.836530
1801.000000	21.814202
1800.000000	21.779880
1799.000000	21.727171
1798.000000	21.710298
1797.000000	21.712296
1796.000000	21.677467
1795.000000	21.651217
1794.000000	21.655252
1793.000000	21.638355
1792.000000	21.598857
1791.000000	21.571804
1790.000000	21.554419
1789.000000	21.518167
1788.000000	21.506359
1787.000000	21.501824
1786.000000	21.469916
1785.000000	21.419884
1784.000000	21.400758
1783.000000	21.374471
1782.000000	21.324341
1781.000000	21.277903
1780.000000	21.245549
1779.000000	21.202845
1778.000000	21.149775
1777.000000	21.100516
1776.000000	21.065424
1775.000000	20.979889
1774.000000	20.925063
1773.000000	20.907083
1772.000000	20.831454
1771.000000	20.763237
1770.000000	20.703487
1769.000000	20.641864
1768.000000	20.577855
1767.000000	20.503775
1766.000000	20.459532
1765.000000	20.413714
1764.000000	20.371469
1763.000000	20.305432
1762.000000	20.238324
1761.000000	20.187226
1760.000000	20.147891
1759.000000	20.091127
1758.000000	20.027261
1757.000000	19.962808
1756.000000	19.937700
1755.000000	19.872696
1754.000000	19.800000
1753.000000	19.761019
1752.000000	19.715476
1751.000000	19.656769
1750.000000	19.607407
1749.000000	19.549762
1748.000000	19.489000
1747.000000	19.415130
1746.000000	19.358960
1745.000000	19.283802
1744.000000	19.249716
1743.000000	19.178513
1742.000000	19.138410
1741.000000	19.061657
1740.000000	18.999085
1739.000000	18.942266
1738.000000	18.905607
1737.000000	18.897064
1736.000000	18.872276
1735.000000	18.836639
1734.000000	18.855439
1733.000000	18.850922
1732.000000	18.835960
1731.000000	18.831272
1730.000000	18.841517
1729.000000	18.835355
1728.000000	18.892805
1727.000000	18.964577
1726.000000	19.008009
1725.000000	19.057407
1724.000000	19.142248
1723.000000	19.194874
1722.000000	19.271204
1721.000000	19.353332
1720.000000	19.418326
1719.000000	19.545281
1718.000000	19.607284
1717.000000	19.646712
1716.000000	19.766115
1715.000000	19.830391
1714.000000	19.899631
1713.000000	19.990658
1712.000000	20.048904
1711.000000	20.099392
1710.000000	20.158770
1709.000000	20.182678
1708.000000	20.237008
1707.000000	20.258816
1706.000000	20.314262
1705.000000	20.326743
1704.000000	20.353423
1703.000000	20.380579
1702.000000	20.362589
1701.000000	20.398200
1700.000000	20.436451
1699.000000	20.430396
1698.000000	20.473751
1697.000000	20.527411
1696.000000	20.550479
1695.000000	20.581092
1694.000000	20.621460
1693.000000	20.672021
1692.000000	20.715576
1691.000000	20.781355
1690.000000	20.871510
1689.000000	20.919229
1688.000000	21.061694
1687.000000	21.162367
1686.000000	21.300813
1685.000000	21.424468
1684.000000	21.577639
1683.000000	21.722504
1682.000000	21.881202
1681.000000	22.032092
1680.000000	22.203911
1679.000000	22.355058
1678.000000	22.554244
1677.000000	22.718523
1676.000000	22.895790
1675.000000	23.073048
1674.000000	23.225441
1673.000000	23.395828
1672.000000	23.553695
1671.000000	23.714965
1670.000000	23.857827
1669.000000	24.006230
1668.000000	24.142606
1667.000000	24.279641
1666.000000	24.385764
1665.000000	24.471851
1664.000000	24.562413
1663.000000	24.647311
1662.000000	24.714384
1661.000000	24.799241
1660.000000	24.881038
1659.000000	24.964052
1658.000000	25.007738
1657.000000	25.051927
1656.000000	25.082497
1655.000000	25.119351
1654.000000	25.148188
1653.000000	25.158159
1652.000000	25.200098
1651.000000	25.206510
1650.000000	25.198987
1649.000000	25.186710
1648.000000	25.175528
1647.000000	25.175282
1646.000000	25.164824
1645.000000	25.148813
1644.000000	25.155162
1643.000000	25.128391
1642.000000	25.114306
1641.000000	25.089558
1640.000000	25.054333
1639.000000	25.029268
1638.000000	25.008268
1637.000000	24.983919
1636.000000	24.961349
1635.000000	24.924898
1634.000000	24.880871
1633.000000	24.842177
1632.000000	24.813450
1631.000000	24.749231
1630.000000	24.715528
1629.000000	24.679506
1628.000000	24.630853
1627.000000	24.594404
1626.000000	24.545011
1625.000000	24.511244
1624.000000	24.476935
1623.000000	24.436620
1622.000000	24.394735
1621.000000	24.351721
1620.000000	24.293701
1619.000000	24.225542
1618.000000	24.172840
1617.000000	24.138228
1616.000000	24.087728
1615.000000	24.028696
1614.000000	23.975676
1613.000000	23.923222
1612.000000	23.878934
1611.000000	23.811843
1610.000000	23.761501
1609.000000	23.713009
1608.000000	23.653511
1607.000000	23.598422
1606.000000	23.540774
1605.000000	23.480117
1604.000000	23.424839
1603.000000	23.357412
1602.000000	23.288384
1601.000000	23.229693
1600.000000	23.176152
1599.000000	23.130751
1598.000000	23.072897
1597.000000	23.012964
1596.000000	22.950599
1595.000000	22.908706
1594.000000	22.861180
1593.000000	22.801289
1592.000000	22.760276
1591.000000	22.728324
1590.000000	22.679498
1589.000000	22.616119
1588.000000	22.569732
1587.000000	22.528513
1586.000000	22.493327
1585.000000	22.445234
1584.000000	22.395094
1583.000000	22.368723
1582.000000	22.331150
1581.000000	22.285604
1580.000000	22.243780
1579.000000	22.202399
1578.000000	22.159041
1577.000000	22.110160
1576.000000	22.088772
1575.000000	22.046181
1574.000000	21.996296
1573.000000	21.947801
1572.000000	21.914283
1571.000000	21.869310
1570.000000	21.837060
1569.000000	21.795904
1568.000000	21.766029
1567.000000	21.737839
1566.000000	21.716949
1565.000000	21.684940
1564.000000	21.647380
1563.000000	21.632114
1562.000000	21.610724
1561.000000	21.572933
1560.000000	21.554429
1559.000000	21.541234
1558.000000	21.530098
1557.000000	21.508385
1556.000000	21.488900
1555.000000	21.483960
1554.000000	21.460815
1553.000000	21.439945
1552.000000	21.408875
1551.000000	21.378039
1550.000000	21.346808
1549.000000	21.303278
1548.000000	21.261164
1547.000000	21.222077
1546.000000	21.166483
1545.000000	21.118055
1544.000000	21.058914
1543.000000	20.978945
1542.000000	20.918368
1541.000000	20.838577
1540.000000	20.757556
1539.000000	20.681668
1538.000000	20.612991
1537.000000	20.529227
1536.000000	20.452232
1535.000000	20.371112
1534.000000	20.284917
1533.000000	20.197542
1532.000000	20.110189
1531.000000	20.035464
1530.000000	19.964390
1529.000000	19.876855
1528.000000	19.815949
1527.000000	19.769487
1526.000000	19.693212
1525.000000	19.626577
1524.000000	19.554949
1523.000000	19.500753
1522.000000	19.449985
1521.000000	19.426600
1520.000000	19.374847
1519.000000	19.318855
1518.000000	19.279633
1517.000000	19.246540
1516.000000	19.219410
1515.000000	19.179848
1514.000000	19.135081
1513.000000	19.124852
1512.000000	19.088515
1511.000000	19.061984
1510.000000	19.048807
1509.000000	19.026853
1508.000000	19.026220
1507.000000	19.009144
1506.000000	18.992552
1505.000000	18.998069
1504.000000	18.978209
1503.000000	18.968256
1502.000000	18.982290
1501.000000	18.973885
1500.000000	18.981072
1499.000000	18.982388
1498.000000	19.018613
1497.000000	19.059127
1496.000000	19.056215
1495.000000	19.069027
1494.000000	19.101217
1493.000000	19.114949
1492.000000	19.159102
1491.000000	19.193846
1490.000000	19.236858
1489.000000	19.277559
1488.000000	19.353563
1487.000000	19.403247
1486.000000	19.472064
1485.000000	19.523155
1484.000000	19.588989
1483.000000	19.672888
1482.000000	19.717232
1481.000000	19.811461
1480.000000	19.895731
1479.000000	19.959426
1478.000000	20.024066
1477.000000	20.084062
1476.000000	20.165632
1475.000000	20.225760
1474.000000	20.291953
1473.000000	20.365098
1472.000000	20.456866
1471.000000	20.517174
1470.000000	20.585462
1469.000000	20.648190
1468.000000	20.682513
1467.000000	20.762104
1466.000000	20.828843
1465.000000	20.872636
1464.000000	20.892740
1463.000000	20.949737
1462.000000	21.020691
1461.000000	21.081383
1460.000000	21.115337
1459.000000	21.174073
1458.000000	21.230214
1457.000000	21.292805
1456.000000	21.328129
1455.000000	21.376855
1454.000000	21.442231
1453.000000	21.503576
