PE UV       SUBTECH     SPECTRUM    ASCII       PEDS        4.00        
   -1
TDVeauUK 52.Sample.asc
18/03/01
09:58:47.00
18/03/01
09:58:47.00
Administrator

200.000000
1
Lambda 750
750N8071901
PerkinElmer UV WinLab 6.0.4.0738 / 1.61.00 Lambda 900

0
0
3350/servo 860.8/2
0
0
UV/VIS
1
1
1
CommonBeamDepol,150mm sphere / downward view
0
0
0
0
Program
Program
3350/servo 860.8/2
3350/0.2 860.8/0.2
3350/0.2 860.8/0.2
0
1
 
 
 
0
 
860.8
319.2
860.8
Front
100
on
 
 
0
0
0
 
0
 
 
 
0
 
 
0
0
0
0
0
 
 
 
 
0
0


0
0
#HDR
-1
-1
#GR
nm
%T
1.0
0.0
2350.000000
-1.000000
2151
8
42.086165
0.092583
#DATA
2350.000000	8.633859
2349.000000	8.810851
2348.000000	8.451678
2347.000000	9.394241
2346.000000	9.188022
2345.000000	8.592300
2344.000000	8.342746
2343.000000	8.374281
2342.000000	8.840300
2341.000000	8.955033
2340.000000	8.879984
2339.000000	8.945123
2338.000000	9.033647
2337.000000	9.145511
2336.000000	9.200574
2335.000000	9.568766
2334.000000	9.434768
2333.000000	9.660812
2332.000000	9.588477
2331.000000	9.348509
2330.000000	9.369055
2329.000000	9.286599
2328.000000	9.249420
2327.000000	9.501701
2326.000000	9.346232
2325.000000	9.226020
2324.000000	9.389197
2323.000000	9.511286
2322.000000	9.356795
2321.000000	9.314534
2320.000000	9.266041
2319.000000	9.373657
2318.000000	9.494609
2317.000000	9.096830
2316.000000	9.030416
2315.000000	8.906740
2314.000000	8.898984
2313.000000	8.637390
2312.000000	8.921521
2311.000000	8.659299
2310.000000	8.569278
2309.000000	8.577892
2308.000000	8.529758
2307.000000	8.467506
2306.000000	8.707048
2305.000000	8.634940
2304.000000	8.618810
2303.000000	8.346626
2302.000000	8.392252
2301.000000	8.108778
2300.000000	8.150406
2299.000000	8.224475
2298.000000	7.986277
2297.000000	7.813958
2296.000000	7.777392
2295.000000	7.738255
2294.000000	7.857072
2293.000000	7.700851
2292.000000	7.629630
2291.000000	7.742758
2290.000000	7.616135
2289.000000	7.505051
2288.000000	7.509591
2287.000000	7.557218
2286.000000	7.486726
2285.000000	7.252487
2284.000000	7.150942
2283.000000	7.273830
2282.000000	7.304518
2281.000000	7.258635
2280.000000	7.218029
2279.000000	7.462097
2278.000000	7.332596
2277.000000	7.225077
2276.000000	7.453613
2275.000000	7.480346
2274.000000	7.617498
2273.000000	7.712571
2272.000000	7.563347
2271.000000	7.543450
2270.000000	7.646119
2269.000000	7.647569
2268.000000	7.717638
2267.000000	7.711798
2266.000000	7.820719
2265.000000	7.871491
2264.000000	8.003733
2263.000000	8.096937
2262.000000	8.252196
2261.000000	8.363779
2260.000000	8.468460
2259.000000	8.612134
2258.000000	8.785964
2257.000000	8.857412
2256.000000	9.033746
2255.000000	9.133385
2254.000000	9.345288
2253.000000	9.491330
2252.000000	9.604762
2251.000000	9.815743
2250.000000	9.971520
2249.000000	10.105203
2248.000000	10.308048
2247.000000	10.417955
2246.000000	10.447193
2245.000000	10.588692
2244.000000	10.762976
2243.000000	11.001595
2242.000000	11.283332
2241.000000	11.466000
2240.000000	11.498957
2239.000000	11.493232
2238.000000	11.580129
2237.000000	11.659728
2236.000000	11.584286
2235.000000	11.567093
2234.000000	11.812015
2233.000000	11.860007
2232.000000	11.910258
2231.000000	12.016191
2230.000000	12.030892
2229.000000	12.077457
2228.000000	12.139095
2227.000000	12.124222
2226.000000	12.121304
2225.000000	12.182734
2224.000000	12.099627
2223.000000	12.064105
2222.000000	12.022710
2221.000000	11.956470
2220.000000	12.000126
2219.000000	12.049034
2218.000000	11.891431
2217.000000	11.854763
2216.000000	11.912166
2215.000000	11.875820
2214.000000	11.812072
2213.000000	11.707089
2212.000000	11.656255
2211.000000	11.521599
2210.000000	11.354793
2209.000000	11.425249
2208.000000	11.447395
2207.000000	11.353255
2206.000000	11.320216
2205.000000	11.389004
2204.000000	11.280200
2203.000000	11.091912
2202.000000	11.029762
2201.000000	11.121079
2200.000000	11.012249
2199.000000	10.874966
2198.000000	10.845316
2197.000000	10.705425
2196.000000	10.528932
2195.000000	10.516960
2194.000000	10.578638
2193.000000	10.526385
2192.000000	10.465846
2191.000000	10.332573
2190.000000	10.285591
2189.000000	10.288226
2188.000000	10.140373
2187.000000	10.180120
2186.000000	10.165725
2185.000000	10.097354
2184.000000	10.202641
2183.000000	10.171548
2182.000000	9.998507
2181.000000	9.834952
2180.000000	9.933941
2179.000000	9.841118
2178.000000	9.863287
2177.000000	10.004708
2176.000000	9.955925
2175.000000	9.925701
2174.000000	9.899230
2173.000000	9.900049
2172.000000	10.052468
2171.000000	10.121620
2170.000000	10.093609
2169.000000	10.290740
2168.000000	10.192749
2167.000000	10.197034
2166.000000	10.225763
2165.000000	10.393193
2164.000000	10.332696
2163.000000	10.184104
2162.000000	10.473280
2161.000000	10.528137
2160.000000	10.645772
2159.000000	10.835346
2158.000000	10.908983
2157.000000	11.026557
2156.000000	11.142577
2155.000000	11.159703
2154.000000	11.492846
2153.000000	11.590926
2152.000000	11.736653
2151.000000	11.644179
2150.000000	11.729645
2149.000000	11.923425
2148.000000	11.951601
2147.000000	12.244189
2146.000000	12.247096
2145.000000	12.507154
2144.000000	12.428686
2143.000000	12.528139
2142.000000	12.707982
2141.000000	12.870142
2140.000000	12.893073
2139.000000	13.218975
2138.000000	13.237257
2137.000000	13.396409
2136.000000	13.435612
2135.000000	13.318106
2134.000000	13.607289
2133.000000	13.372034
2132.000000	13.629005
2131.000000	13.828839
2130.000000	13.969778
2129.000000	13.872502
2128.000000	14.023702
2127.000000	14.103118
2126.000000	14.062069
2125.000000	14.023490
2124.000000	14.127380
2123.000000	14.253376
2122.000000	14.228245
2121.000000	14.365676
2120.000000	14.366420
2119.000000	14.399282
2118.000000	14.468873
2117.000000	14.433260
2116.000000	14.439351
2115.000000	14.607925
2114.000000	14.593984
2113.000000	14.446584
2112.000000	14.651511
2111.000000	14.677128
2110.000000	14.481160
2109.000000	14.385291
2108.000000	14.483936
2107.000000	14.725974
2106.000000	14.661461
2105.000000	14.744002
2104.000000	14.814359
2103.000000	14.712034
2102.000000	14.756889
2101.000000	14.929401
2100.000000	15.015746
2099.000000	14.878452
2098.000000	14.647750
2097.000000	14.699591
2096.000000	14.788683
2095.000000	14.789177
2094.000000	14.720801
2093.000000	14.713778
2092.000000	14.736491
2091.000000	14.674757
2090.000000	14.723771
2089.000000	14.679702
2088.000000	14.712109
2087.000000	14.634188
2086.000000	14.646157
2085.000000	14.689435
2084.000000	14.571322
2083.000000	14.531914
2082.000000	14.474023
2081.000000	14.428388
2080.000000	14.406598
2079.000000	14.276324
2078.000000	14.244540
2077.000000	14.077337
2076.000000	13.997945
2075.000000	13.929255
2074.000000	13.876429
2073.000000	13.776893
2072.000000	13.670332
2071.000000	13.589038
2070.000000	13.430187
2069.000000	13.305059
2068.000000	13.163724
2067.000000	13.105034
2066.000000	13.052150
2065.000000	12.877285
2064.000000	12.785996
2063.000000	12.672609
2062.000000	12.550009
2061.000000	12.382503
2060.000000	12.255929
2059.000000	12.102518
2058.000000	12.054969
2057.000000	11.937780
2056.000000	11.789614
2055.000000	11.653550
2054.000000	11.573577
2053.000000	11.462289
2052.000000	11.326326
2051.000000	11.218309
2050.000000	11.127505
2049.000000	11.046899
2048.000000	10.960210
2047.000000	10.862044
2046.000000	10.822574
2045.000000	10.856897
2044.000000	10.890523
2043.000000	10.863996
2042.000000	10.822414
2041.000000	10.825477
2040.000000	10.861894
2039.000000	10.888675
2038.000000	10.877273
2037.000000	10.903883
2036.000000	10.993477
2035.000000	11.055610
2034.000000	11.116894
2033.000000	11.243030
2032.000000	11.413918
2031.000000	11.538173
2030.000000	11.656773
2029.000000	11.748314
2028.000000	11.791859
2027.000000	11.872868
2026.000000	12.009249
2025.000000	12.130224
2024.000000	12.212076
2023.000000	12.282740
2022.000000	12.351373
2021.000000	12.419618
2020.000000	12.460182
2019.000000	12.514323
2018.000000	12.568674
2017.000000	12.628964
2016.000000	12.645413
2015.000000	12.655009
2014.000000	12.659619
2013.000000	12.663565
2012.000000	12.671274
2011.000000	12.644851
2010.000000	12.586182
2009.000000	12.539678
2008.000000	12.505910
2007.000000	12.492163
2006.000000	12.470135
2005.000000	12.410312
2004.000000	12.349588
2003.000000	12.293983
2002.000000	12.215444
2001.000000	12.142356
2000.000000	12.060369
1999.000000	11.989745
1998.000000	11.921239
1997.000000	11.907424
1996.000000	11.848041
1995.000000	11.743197
1994.000000	11.662387
1993.000000	11.556996
1992.000000	11.476275
1991.000000	11.405270
1990.000000	11.340027
1989.000000	11.274513
1988.000000	11.206180
1987.000000	11.131274
1986.000000	11.052728
1985.000000	10.943758
1984.000000	10.872000
1983.000000	10.813934
1982.000000	10.742728
1981.000000	10.696040
1980.000000	10.614909
1979.000000	10.509358
1978.000000	10.451728
1977.000000	10.352666
1976.000000	10.309155
1975.000000	10.221284
1974.000000	10.130668
1973.000000	10.101366
1972.000000	10.036258
1971.000000	9.958245
1970.000000	9.963150
1969.000000	9.907253
1968.000000	9.831530
1967.000000	9.758334
1966.000000	9.626011
1965.000000	9.618224
1964.000000	9.544998
1963.000000	9.472235
1962.000000	9.411232
1961.000000	9.340909
1960.000000	9.283302
1959.000000	9.210361
1958.000000	9.188609
1957.000000	9.139221
1956.000000	9.116147
1955.000000	9.074546
1954.000000	9.016129
1953.000000	8.980759
1952.000000	9.000608
1951.000000	8.959354
1950.000000	8.924519
1949.000000	8.872059
1948.000000	8.888939
1947.000000	8.856672
1946.000000	8.875249
1945.000000	8.908141
1944.000000	8.890982
1943.000000	8.928345
1942.000000	9.006090
1941.000000	9.021661
1940.000000	9.014592
1939.000000	9.059611
1938.000000	9.178922
1937.000000	9.263922
1936.000000	9.340500
1935.000000	9.386710
1934.000000	9.521139
1933.000000	9.666468
1932.000000	9.644802
1931.000000	9.797951
1930.000000	10.005387
1929.000000	10.159851
1928.000000	10.276212
1927.000000	10.452764
1926.000000	10.638304
1925.000000	10.826506
1924.000000	11.005249
1923.000000	11.174092
1922.000000	11.446652
1921.000000	11.754285
1920.000000	11.957835
1919.000000	12.119645
1918.000000	12.414651
1917.000000	12.768850
1916.000000	12.781567
1915.000000	13.294886
1914.000000	13.534593
1913.000000	13.910398
1912.000000	14.155493
1911.000000	14.435099
1910.000000	14.860151
1909.000000	15.141077
1908.000000	15.504843
1907.000000	15.853008
1906.000000	16.214628
1905.000000	16.699989
1904.000000	17.032594
1903.000000	17.464073
1902.000000	17.945201
1901.000000	18.403423
1900.000000	18.782273
1899.000000	19.241249
1898.000000	19.718896
1897.000000	20.196494
1896.000000	20.598180
1895.000000	21.010895
1894.000000	21.463470
1893.000000	21.889412
1892.000000	22.325576
1891.000000	22.749678
1890.000000	23.158117
1889.000000	23.607395
1888.000000	23.992877
1887.000000	24.360526
1886.000000	24.777074
1885.000000	25.126442
1884.000000	25.493243
1883.000000	25.881740
1882.000000	26.142044
1881.000000	26.457140
1880.000000	26.850968
1879.000000	27.164872
1878.000000	27.385894
1877.000000	27.664583
1876.000000	27.878016
1875.000000	28.102709
1874.000000	28.321991
1873.000000	28.510698
1872.000000	28.686492
1871.000000	28.884452
1870.000000	29.034831
1869.000000	29.174557
1868.000000	29.330420
1867.000000	29.401190
1866.000000	29.512053
1865.000000	29.617903
1864.000000	29.673053
1863.000000	29.739282
1862.000000	29.809038
1861.000000	29.876447
1860.000000	29.907709
1859.000000	29.968502
1858.000000	30.009012
1857.000000	30.033789
1856.000000	30.068811
1855.000000	30.112980
1854.000000	30.178105
1853.000000	30.166441
1852.000000	30.121953
1851.000000	30.119954
1850.000000	30.161084
1849.000000	30.172437
1848.000000	30.136760
1847.000000	30.111642
1846.000000	30.102876
1845.000000	30.062767
1844.000000	30.034093
1843.000000	30.042306
1842.000000	30.005381
1841.000000	29.931800
1840.000000	29.919407
1839.000000	29.898375
1838.000000	29.850174
1837.000000	29.778834
1836.000000	29.735654
1835.000000	29.690880
1834.000000	29.631410
1833.000000	29.590797
1832.000000	29.542439
1831.000000	29.496944
1830.000000	29.464159
1829.000000	29.412594
1828.000000	29.363963
1827.000000	29.329145
1826.000000	29.271607
1825.000000	29.214839
1824.000000	29.183983
1823.000000	29.134394
1822.000000	29.071403
1821.000000	29.030133
1820.000000	28.982136
1819.000000	28.951618
1818.000000	28.913461
1817.000000	28.858309
1816.000000	28.831392
1815.000000	28.800569
1814.000000	28.748820
1813.000000	28.704635
1812.000000	28.674207
1811.000000	28.645682
1810.000000	28.624860
1809.000000	28.586418
1808.000000	28.532963
1807.000000	28.484118
1806.000000	28.453897
1805.000000	28.415937
1804.000000	28.377552
1803.000000	28.338243
1802.000000	28.269425
1801.000000	28.234607
1800.000000	28.227993
1799.000000	28.203201
1798.000000	28.175250
1797.000000	28.141405
1796.000000	28.106570
1795.000000	28.083664
1794.000000	28.066833
1793.000000	28.033791
1792.000000	28.009972
1791.000000	27.972999
1790.000000	27.954607
1789.000000	27.932070
1788.000000	27.922102
1787.000000	27.878943
1786.000000	27.834985
1785.000000	27.799200
1784.000000	27.756404
1783.000000	27.728173
1782.000000	27.692264
1781.000000	27.650152
1780.000000	27.609900
1779.000000	27.572047
1778.000000	27.506034
1777.000000	27.441193
1776.000000	27.386605
1775.000000	27.324293
1774.000000	27.290599
1773.000000	27.241528
1772.000000	27.155679
1771.000000	27.088877
1770.000000	27.024166
1769.000000	26.947566
1768.000000	26.874276
1767.000000	26.814934
1766.000000	26.749655
1765.000000	26.678137
1764.000000	26.630916
1763.000000	26.569765
1762.000000	26.499808
1761.000000	26.409908
1760.000000	26.332563
1759.000000	26.266043
1758.000000	26.195581
1757.000000	26.147765
1756.000000	26.079158
1755.000000	26.015424
1754.000000	25.949518
1753.000000	25.895620
1752.000000	25.829446
1751.000000	25.774402
1750.000000	25.714950
1749.000000	25.649061
1748.000000	25.560481
1747.000000	25.448142
1746.000000	25.387878
1745.000000	25.315981
1744.000000	25.269460
1743.000000	25.195489
1742.000000	25.142874
1741.000000	25.078674
1740.000000	25.023180
1739.000000	24.985706
1738.000000	24.915114
1737.000000	24.897232
1736.000000	24.855203
1735.000000	24.831864
1734.000000	24.836192
1733.000000	24.821898
1732.000000	24.806462
1731.000000	24.824125
1730.000000	24.809974
1729.000000	24.864687
1728.000000	24.914981
1727.000000	24.960923
1726.000000	24.993299
1725.000000	25.072639
1724.000000	25.171269
1723.000000	25.271039
1722.000000	25.364784
1721.000000	25.433629
1720.000000	25.521850
1719.000000	25.639648
1718.000000	25.724487
1717.000000	25.801178
1716.000000	25.879049
1715.000000	25.980249
1714.000000	26.099380
1713.000000	26.158212
1712.000000	26.208479
1711.000000	26.295833
1710.000000	26.368826
1709.000000	26.407425
1708.000000	26.456298
1707.000000	26.482785
1706.000000	26.534435
1705.000000	26.548546
1704.000000	26.577221
1703.000000	26.595745
1702.000000	26.583571
1701.000000	26.589405
1700.000000	26.615524
1699.000000	26.646704
1698.000000	26.669463
1697.000000	26.704729
1696.000000	26.737382
1695.000000	26.777331
1694.000000	26.816973
1693.000000	26.883283
1692.000000	26.943155
1691.000000	27.010980
1690.000000	27.124067
1689.000000	27.190084
1688.000000	27.330558
1687.000000	27.473512
1686.000000	27.619780
1685.000000	27.781556
1684.000000	27.919961
1683.000000	28.094564
1682.000000	28.282602
1681.000000	28.482804
1680.000000	28.668066
1679.000000	28.852948
1678.000000	29.036968
1677.000000	29.239247
1676.000000	29.459244
1675.000000	29.677636
1674.000000	29.847084
1673.000000	30.067179
1672.000000	30.244964
1671.000000	30.404437
1670.000000	30.587632
1669.000000	30.756711
1668.000000	30.934582
1667.000000	31.070824
1666.000000	31.183457
1665.000000	31.280291
1664.000000	31.381229
1663.000000	31.473162
1662.000000	31.569980
1661.000000	31.651632
1660.000000	31.720007
1659.000000	31.817522
1658.000000	31.879010
1657.000000	31.909822
1656.000000	31.958628
1655.000000	31.997516
1654.000000	32.030776
1653.000000	32.033764
1652.000000	32.058130
1651.000000	32.051685
1650.000000	32.073643
1649.000000	32.037148
1648.000000	32.041359
1647.000000	32.025317
1646.000000	32.018632
1645.000000	31.990681
1644.000000	31.959339
1643.000000	31.932881
1642.000000	31.931183
1641.000000	31.901656
1640.000000	31.846840
1639.000000	31.803693
1638.000000	31.786585
1637.000000	31.749514
1636.000000	31.688471
1635.000000	31.641203
1634.000000	31.615227
1633.000000	31.564492
1632.000000	31.509072
1631.000000	31.451749
1630.000000	31.411959
1629.000000	31.368952
1628.000000	31.301065
1627.000000	31.251154
1626.000000	31.192787
1625.000000	31.143690
1624.000000	31.102287
1623.000000	31.054207
1622.000000	30.996690
1621.000000	30.929082
1620.000000	30.882037
1619.000000	30.816487
1618.000000	30.748627
1617.000000	30.683076
1616.000000	30.622399
1615.000000	30.553873
1614.000000	30.493754
1613.000000	30.427465
1612.000000	30.371761
1611.000000	30.308989
1610.000000	30.226934
1609.000000	30.153339
1608.000000	30.100853
1607.000000	30.031589
1606.000000	29.953183
1605.000000	29.892621
1604.000000	29.812832
1603.000000	29.745242
1602.000000	29.677882
1601.000000	29.599368
1600.000000	29.531501
1599.000000	29.458984
1598.000000	29.391693
1597.000000	29.323134
1596.000000	29.255255
1595.000000	29.204624
1594.000000	29.143661
1593.000000	29.088261
1592.000000	29.024870
1591.000000	28.962346
1590.000000	28.902436
1589.000000	28.830365
1588.000000	28.781581
1587.000000	28.736738
1586.000000	28.686925
1585.000000	28.623400
1584.000000	28.568168
1583.000000	28.525328
1582.000000	28.472097
1581.000000	28.425921
1580.000000	28.373536
1579.000000	28.320613
1578.000000	28.275954
1577.000000	28.228037
1576.000000	28.172740
1575.000000	28.126113
1574.000000	28.077138
1573.000000	28.027654
1572.000000	27.970134
1571.000000	27.922483
1570.000000	27.875421
1569.000000	27.826475
1568.000000	27.780009
1567.000000	27.737232
1566.000000	27.704136
1565.000000	27.675797
1564.000000	27.636791
1563.000000	27.606879
1562.000000	27.577444
1561.000000	27.552737
1560.000000	27.521465
1559.000000	27.479877
1558.000000	27.452524
1557.000000	27.434518
1556.000000	27.417827
1555.000000	27.393349
1554.000000	27.366548
1553.000000	27.332684
1552.000000	27.287303
1551.000000	27.261507
1550.000000	27.209683
1549.000000	27.171546
1548.000000	27.130715
1547.000000	27.076520
1546.000000	27.017555
1545.000000	26.932985
1544.000000	26.858338
1543.000000	26.789048
1542.000000	26.702205
1541.000000	26.630715
1540.000000	26.553306
1539.000000	26.445123
1538.000000	26.344061
1537.000000	26.258728
1536.000000	26.173621
1535.000000	26.069539
1534.000000	25.976266
1533.000000	25.885427
1532.000000	25.788244
1531.000000	25.700746
1530.000000	25.606216
1529.000000	25.510360
1528.000000	25.421340
1527.000000	25.356957
1526.000000	25.295169
1525.000000	25.226303
1524.000000	25.143540
1523.000000	25.081234
1522.000000	25.021018
1521.000000	24.963742
1520.000000	24.902681
1519.000000	24.854478
1518.000000	24.809656
1517.000000	24.774774
1516.000000	24.731345
1515.000000	24.697655
1514.000000	24.652911
1513.000000	24.625459
1512.000000	24.601932
1511.000000	24.563081
1510.000000	24.529241
1509.000000	24.507053
1508.000000	24.492157
1507.000000	24.471317
1506.000000	24.460669
1505.000000	24.435594
1504.000000	24.419363
1503.000000	24.424645
1502.000000	24.411307
1501.000000	24.410166
1500.000000	24.393138
1499.000000	24.419024
1498.000000	24.440056
1497.000000	24.481687
1496.000000	24.476943
1495.000000	24.492720
1494.000000	24.507911
1493.000000	24.521259
1492.000000	24.563672
1491.000000	24.597785
1490.000000	24.665680
1489.000000	24.702608
1488.000000	24.747703
1487.000000	24.818262
1486.000000	24.869172
1485.000000	24.924264
1484.000000	24.992827
1483.000000	25.071288
1482.000000	25.111019
1481.000000	25.218412
1480.000000	25.294132
1479.000000	25.363743
1478.000000	25.420600
1477.000000	25.474423
1476.000000	25.564626
1475.000000	25.635185
1474.000000	25.706338
1473.000000	25.773033
1472.000000	25.823561
1471.000000	25.946184
1470.000000	26.009108
1469.000000	26.069889
1468.000000	26.108348
1467.000000	26.171209
1466.000000	26.247091
1465.000000	26.311200
1464.000000	26.356113
1463.000000	26.422953
