PE UV       SUBTECH     SPECTRUM    ASCII       PEDS        4.00        
   -1
Empty Chamber.Sample.asc
18/03/20
08:55:05.00
18/03/20
08:55:05.00
Administrator

200.000000
1
Lambda 750
750N8071901
PerkinElmer UV WinLab 6.0.4.0738 / 1.61.00 Lambda 900

0
0
3350/servo 860.8/2
0
0
UV/VIS
1
1
1
CommonBeamDepol,150mm sphere / downward view
0
0
0
0
Program
Program
3350/servo 860.8/2
3350/0.2 860.8/0.2
3350/0.2 860.8/0.2
0
1
 
 
 
0
 
860.8
319.2
860.8
Front
100
on
 
 
0
0
0
 
0
 
 
 
0
 
 
0
0
0
0
0
 
 
 
 
0
0


0
0
#HDR
-1
-1
#GR
nm
%T
1.0
0.0
2350.000000
-1.000000
2151
8
100.612525
99.096155
#DATA
2350.000000	100.222207
2349.000000	100.073900
2348.000000	99.587065
2347.000000	99.958384
2346.000000	99.853910
2345.000000	100.116819
2344.000000	99.939672
2343.000000	100.044866
2342.000000	99.863702
2341.000000	100.370557
2340.000000	100.023459
2339.000000	99.963688
2338.000000	100.552146
2337.000000	100.273642
2336.000000	99.871383
2335.000000	99.552399
2334.000000	100.040737
2333.000000	100.273469
2332.000000	100.342916
2331.000000	100.024364
2330.000000	99.735553
2329.000000	99.885252
2328.000000	99.992097
2327.000000	100.081103
2326.000000	100.119925
2325.000000	100.101302
2324.000000	100.124395
2323.000000	100.020064
2322.000000	100.075492
2321.000000	100.177065
2320.000000	99.965660
2319.000000	99.965986
2318.000000	100.111638
2317.000000	99.974459
2316.000000	100.094612
2315.000000	99.701829
2314.000000	100.131811
2313.000000	100.198856
2312.000000	99.853072
2311.000000	100.068660
2310.000000	99.995234
2309.000000	100.340569
2308.000000	99.780627
2307.000000	99.937996
2306.000000	99.902276
2305.000000	100.092958
2304.000000	100.071035
2303.000000	100.099007
2302.000000	100.109416
2301.000000	99.925831
2300.000000	100.009734
2299.000000	99.908118
2298.000000	99.948295
2297.000000	99.850719
2296.000000	100.229488
2295.000000	100.102623
2294.000000	99.879274
2293.000000	99.837823
2292.000000	99.826832
2291.000000	100.241917
2290.000000	100.062432
2289.000000	99.879147
2288.000000	100.237381
2287.000000	100.215515
2286.000000	99.940635
2285.000000	100.088166
2284.000000	100.034268
2283.000000	100.039795
2282.000000	100.386315
2281.000000	100.030756
2280.000000	99.897528
2279.000000	100.178314
2278.000000	100.235464
2277.000000	99.951806
2276.000000	100.063510
2275.000000	100.096685
2274.000000	100.235196
2273.000000	100.252502
2272.000000	100.065477
2271.000000	99.991287
2270.000000	99.847921
2269.000000	99.761546
2268.000000	99.832127
2267.000000	99.953482
2266.000000	100.077951
2265.000000	100.109453
2264.000000	100.088013
2263.000000	99.939015
2262.000000	99.861686
2261.000000	99.989260
2260.000000	100.112305
2259.000000	100.074340
2258.000000	100.078095
2257.000000	100.047992
2256.000000	100.038262
2255.000000	100.121922
2254.000000	100.052508
2253.000000	100.086192
2252.000000	100.102873
2251.000000	100.017237
2250.000000	99.837442
2249.000000	99.997971
2248.000000	100.101108
2247.000000	99.885881
2246.000000	99.902169
2245.000000	99.899540
2244.000000	99.997973
2243.000000	100.164275
2242.000000	100.222302
2241.000000	100.155016
2240.000000	100.137262
2239.000000	100.001419
2238.000000	99.908803
2237.000000	99.988137
2236.000000	99.998175
2235.000000	99.984491
2234.000000	100.061384
2233.000000	100.052230
2232.000000	99.946099
2231.000000	99.979422
2230.000000	99.963900
2229.000000	99.931202
2228.000000	99.997568
2227.000000	99.971342
2226.000000	99.926472
2225.000000	100.125292
2224.000000	100.154982
2223.000000	100.072356
2222.000000	99.949549
2221.000000	100.007602
2220.000000	100.002840
2219.000000	100.037148
2218.000000	99.970088
2217.000000	99.942054
2216.000000	100.123798
2215.000000	100.070954
2214.000000	100.044519
2213.000000	100.097697
2212.000000	99.914611
2211.000000	99.891737
2210.000000	99.887951
2209.000000	99.926664
2208.000000	100.041661
2207.000000	100.078602
2206.000000	100.099993
2205.000000	100.145899
2204.000000	99.992290
2203.000000	99.982570
2202.000000	99.956463
2201.000000	99.918297
2200.000000	99.874687
2199.000000	99.945190
2198.000000	100.088890
2197.000000	99.962922
2196.000000	99.778741
2195.000000	100.003443
2194.000000	99.883690
2193.000000	100.013671
2192.000000	100.110481
2191.000000	100.120934
2190.000000	100.135494
2189.000000	100.072443
2188.000000	100.052529
2187.000000	99.946882
2186.000000	99.866123
2185.000000	99.950474
2184.000000	99.952689
2183.000000	100.147699
2182.000000	99.894196
2181.000000	99.939818
2180.000000	99.987362
2179.000000	99.971702
2178.000000	100.048624
2177.000000	99.934308
2176.000000	100.070380
2175.000000	99.886120
2174.000000	99.891410
2173.000000	100.002829
2172.000000	100.099395
2171.000000	100.009388
2170.000000	100.019979
2169.000000	100.008583
2168.000000	100.239932
2167.000000	99.976574
2166.000000	100.022514
2165.000000	100.122353
2164.000000	99.994852
2163.000000	100.200184
2162.000000	100.126950
2161.000000	99.975047
2160.000000	100.107782
2159.000000	100.194360
2158.000000	99.897546
2157.000000	99.918358
2156.000000	100.079086
2155.000000	100.047780
2154.000000	100.060601
2153.000000	100.129500
2152.000000	99.893048
2151.000000	99.948935
2150.000000	100.130664
2149.000000	100.102746
2148.000000	100.002420
2147.000000	100.366492
2146.000000	100.099412
2145.000000	100.009183
2144.000000	100.059328
2143.000000	99.897005
2142.000000	99.995265
2141.000000	99.843175
2140.000000	100.060338
2139.000000	99.967444
2138.000000	100.217294
2137.000000	100.074577
2136.000000	100.027549
2135.000000	100.034314
2134.000000	99.974064
2133.000000	100.106248
2132.000000	99.961167
2131.000000	100.094988
2130.000000	100.211380
2129.000000	99.895487
2128.000000	100.168924
2127.000000	99.714510
2126.000000	99.828967
2125.000000	100.050694
2124.000000	99.979009
2123.000000	100.092734
2122.000000	99.897975
2121.000000	99.932946
2120.000000	100.164827
2119.000000	99.838037
2118.000000	99.867501
2117.000000	99.902476
2116.000000	100.075071
2115.000000	100.127308
2114.000000	100.090453
2113.000000	100.059532
2112.000000	99.924561
2111.000000	99.956652
2110.000000	100.120944
2109.000000	100.105172
2108.000000	100.220674
2107.000000	99.927300
2106.000000	100.076510
2105.000000	100.095990
2104.000000	100.091067
2103.000000	100.074970
2102.000000	100.070250
2101.000000	100.055695
2100.000000	100.185041
2099.000000	99.985532
2098.000000	100.061304
2097.000000	100.077614
2096.000000	99.860904
2095.000000	100.031067
2094.000000	100.014574
2093.000000	100.153212
2092.000000	100.107147
2091.000000	100.059918
2090.000000	99.866130
2089.000000	99.938470
2088.000000	100.006982
2087.000000	100.058873
2086.000000	100.034915
2085.000000	100.083625
2084.000000	100.008505
2083.000000	99.985826
2082.000000	100.010834
2081.000000	99.891028
2080.000000	99.953017
2079.000000	100.042126
2078.000000	100.027539
2077.000000	99.904780
2076.000000	99.982079
2075.000000	99.927555
2074.000000	99.902064
2073.000000	99.994232
2072.000000	100.045259
2071.000000	100.016603
2070.000000	99.961323
2069.000000	99.857294
2068.000000	100.071835
2067.000000	100.003848
2066.000000	99.943413
2065.000000	99.980961
2064.000000	100.083569
2063.000000	100.124469
2062.000000	100.089918
2061.000000	100.082302
2060.000000	100.030797
2059.000000	99.895818
2058.000000	99.948845
2057.000000	100.126510
2056.000000	100.084393
2055.000000	99.999696
2054.000000	99.949164
2053.000000	99.979236
2052.000000	99.993718
2051.000000	99.974066
2050.000000	100.003344
2049.000000	99.985205
2048.000000	99.972641
2047.000000	100.000000
2046.000000	100.104170
2045.000000	100.021680
2044.000000	99.974677
2043.000000	100.008917
2042.000000	100.030310
2041.000000	100.006385
2040.000000	100.018854
2039.000000	100.025551
2038.000000	100.037926
2037.000000	100.040259
2036.000000	100.094949
2035.000000	100.085300
2034.000000	100.047460
2033.000000	100.019975
2032.000000	100.012474
2031.000000	100.019981
2030.000000	99.961262
2029.000000	99.930831
2028.000000	99.990060
2027.000000	100.068383
2026.000000	100.049005
2025.000000	100.035306
2024.000000	99.996957
2023.000000	100.009843
2022.000000	100.018978
2021.000000	100.010246
2020.000000	100.051962
2019.000000	100.024875
2018.000000	99.977977
2017.000000	100.010352
2016.000000	99.968529
2015.000000	99.944158
2014.000000	99.973806
2013.000000	99.984266
2012.000000	100.017462
2011.000000	100.034623
2010.000000	100.017573
2009.000000	99.969428
2008.000000	100.007313
2007.000000	100.036062
2006.000000	100.062682
2005.000000	100.049778
2004.000000	100.000609
2003.000000	99.968110
2002.000000	100.011073
2001.000000	99.980092
2000.000000	99.972879
1999.000000	100.001829
1998.000000	99.982630
1997.000000	99.963534
1996.000000	100.010464
1995.000000	99.973479
1994.000000	99.985060
1993.000000	100.021652
1992.000000	99.982317
1991.000000	100.015249
1990.000000	100.021454
1989.000000	100.021556
1988.000000	100.002338
1987.000000	100.025320
1986.000000	100.033859
1985.000000	100.009354
1984.000000	99.974692
1983.000000	100.005286
1982.000000	99.981294
1981.000000	100.029891
1980.000000	99.975294
1979.000000	99.943584
1978.000000	100.031226
1977.000000	100.000305
1976.000000	100.013523
1975.000000	100.019931
1974.000000	99.990951
1973.000000	100.042104
1972.000000	100.054114
1971.000000	100.050842
1970.000000	99.991357
1969.000000	100.015558
1968.000000	99.964729
1967.000000	100.008236
1966.000000	100.074049
1965.000000	99.978040
1964.000000	100.005794
1963.000000	100.064782
1962.000000	100.006101
1961.000000	100.037211
1960.000000	100.074751
1959.000000	100.029382
1958.000000	99.990041
1957.000000	100.006912
1956.000000	99.987808
1955.000000	99.912328
1954.000000	99.960984
1953.000000	100.033444
1952.000000	99.975818
1951.000000	99.997967
1950.000000	99.920772
1949.000000	99.970636
1948.000000	99.983640
1947.000000	100.015551
1946.000000	99.992482
1945.000000	100.010163
1944.000000	100.046445
1943.000000	100.005789
1942.000000	100.002640
1941.000000	100.008535
1940.000000	100.000305
1939.000000	100.006704
1938.000000	99.908054
1937.000000	100.062947
1936.000000	100.069360
1935.000000	99.978072
1934.000000	100.038591
1933.000000	100.018678
1932.000000	99.962846
1931.000000	100.002233
1930.000000	100.100334
1929.000000	100.098582
1928.000000	100.070886
1927.000000	100.104522
1926.000000	99.943595
1925.000000	99.974127
1924.000000	99.939451
1923.000000	99.955285
1922.000000	99.952444
1921.000000	100.048200
1920.000000	99.968141
1919.000000	100.036837
1918.000000	100.120937
1917.000000	100.055540
1916.000000	99.976567
1915.000000	99.991780
1914.000000	99.964786
1913.000000	99.976045
1912.000000	99.977368
1911.000000	100.074227
1910.000000	100.058574
1909.000000	100.045901
1908.000000	100.081351
1907.000000	100.046102
1906.000000	100.074299
1905.000000	99.935257
1904.000000	100.018680
1903.000000	99.994620
1902.000000	99.883207
1901.000000	99.948652
1900.000000	100.015434
1899.000000	100.075082
1898.000000	99.999086
1897.000000	100.012595
1896.000000	100.035946
1895.000000	100.003452
1894.000000	100.000203
1893.000000	99.990558
1892.000000	99.976647
1891.000000	100.019807
1890.000000	99.962839
1889.000000	100.052510
1888.000000	100.008224
1887.000000	99.908578
1886.000000	99.972293
1885.000000	100.008827
1884.000000	100.004363
1883.000000	100.058034
1882.000000	99.966122
1881.000000	99.970486
1880.000000	100.010955
1879.000000	99.995639
1878.000000	100.013890
1877.000000	100.012371
1876.000000	100.014397
1875.000000	100.013994
1874.000000	100.006084
1873.000000	99.985804
1872.000000	100.050998
1871.000000	100.000507
1870.000000	100.064887
1869.000000	100.017840
1868.000000	100.039636
1867.000000	99.962396
1866.000000	99.983170
1865.000000	99.997161
1864.000000	99.957623
1863.000000	99.951750
1862.000000	99.955281
1861.000000	100.021607
1860.000000	100.020897
1859.000000	99.993002
1858.000000	100.001217
1857.000000	100.002130
1856.000000	100.020799
1855.000000	100.016738
1854.000000	100.013692
1853.000000	99.993916
1852.000000	99.992293
1851.000000	100.004259
1850.000000	100.002941
1849.000000	100.000608
1848.000000	99.973843
1847.000000	99.986106
1846.000000	100.043417
1845.000000	100.025967
1844.000000	99.998377
1843.000000	99.961268
1842.000000	99.982456
1841.000000	99.970395
1840.000000	99.988642
1839.000000	100.000304
1838.000000	100.012174
1837.000000	99.999797
1836.000000	100.005784
1835.000000	99.977776
1834.000000	100.022328
1833.000000	100.042628
1832.000000	100.038980
1831.000000	100.010455
1830.000000	100.013603
1829.000000	99.993402
1828.000000	99.992691
1827.000000	99.991066
1826.000000	100.001523
1825.000000	100.009544
1824.000000	100.005281
1823.000000	100.018584
1822.000000	100.011781
1821.000000	100.018285
1820.000000	100.004470
1819.000000	99.989031
1818.000000	99.989030
1817.000000	99.982626
1816.000000	100.001626
1815.000000	100.023271
1814.000000	100.014836
1813.000000	99.991362
1812.000000	99.989838
1811.000000	99.984350
1810.000000	100.004167
1809.000000	100.011894
1808.000000	99.994104
1807.000000	99.997865
1806.000000	100.003355
1805.000000	100.001119
1804.000000	100.021661
1803.000000	100.002542
1802.000000	99.981394
1801.000000	100.005186
1800.000000	100.009558
1799.000000	100.000813
1798.000000	99.992476
1797.000000	99.986375
1796.000000	99.968582
1795.000000	100.002237
1794.000000	100.011796
1793.000000	100.004475
1792.000000	100.011595
1791.000000	99.996440
1790.000000	99.980168
1789.000000	100.009967
1788.000000	100.031024
1787.000000	100.016784
1786.000000	99.994305
1785.000000	99.978545
1784.000000	100.017900
1783.000000	100.038554
1782.000000	100.015053
1781.000000	100.025629
1780.000000	100.025017
1779.000000	100.008136
1778.000000	99.999085
1777.000000	100.011086
1776.000000	100.011593
1775.000000	100.005390
1774.000000	100.011492
1773.000000	100.019831
1772.000000	99.996442
1771.000000	100.004373
1770.000000	100.012102
1769.000000	99.993491
1768.000000	100.003254
1767.000000	99.980884
1766.000000	100.000915
1765.000000	99.975901
1764.000000	99.990543
1763.000000	100.000814
1762.000000	100.031939
1761.000000	100.017901
1760.000000	99.973666
1759.000000	100.008542
1758.000000	100.011799
1757.000000	100.013121
1756.000000	100.015152
1755.000000	100.020239
1754.000000	99.996847
1753.000000	100.005186
1752.000000	99.985662
1751.000000	100.012101
1750.000000	100.010778
1749.000000	100.007424
1748.000000	99.966347
1747.000000	99.992781
1746.000000	100.000407
1745.000000	100.014439
1744.000000	100.018204
1743.000000	100.024413
1742.000000	99.971632
1741.000000	99.977324
1740.000000	100.023999
1739.000000	100.008846
1738.000000	100.000508
1737.000000	99.987802
1736.000000	99.957916
1735.000000	99.973976
1734.000000	100.009049
1733.000000	100.020746
1732.000000	100.009151
1731.000000	99.985256
1730.000000	100.013015
1729.000000	99.989022
1728.000000	100.027357
1727.000000	99.961476
1726.000000	100.010978
1725.000000	100.005388
1724.000000	100.019623
1723.000000	100.008844
1722.000000	99.984448
1721.000000	100.004270
1720.000000	99.997967
1719.000000	100.018913
1718.000000	100.014640
1717.000000	99.977845
1716.000000	99.958424
1715.000000	100.014541
1714.000000	99.994714
1713.000000	99.973064
1712.000000	100.002338
1711.000000	99.960460
1710.000000	100.001830
1709.000000	99.953653
1708.000000	100.012301
1707.000000	99.997662
1706.000000	100.013217
1705.000000	99.999593
1704.000000	99.999797
1703.000000	100.013013
1702.000000	100.000203
1701.000000	99.983024
1700.000000	100.023077
1699.000000	100.032228
1698.000000	100.025616
1697.000000	99.996138
1696.000000	99.978049
1695.000000	100.028566
1694.000000	100.015555
1693.000000	100.015149
1692.000000	99.990242
1691.000000	99.992070
1690.000000	99.973367
1689.000000	100.008540
1688.000000	99.994715
1687.000000	100.000610
1686.000000	99.971037
1685.000000	99.999492
1684.000000	99.997560
1683.000000	100.005184
1682.000000	100.000407
1681.000000	100.010062
1680.000000	100.017383
1679.000000	100.031616
1678.000000	100.013724
1677.000000	99.980288
1676.000000	100.019312
1675.000000	100.053378
1674.000000	99.976117
1673.000000	99.976320
1672.000000	99.995730
1671.000000	99.995832
1670.000000	100.006404
1669.000000	99.986182
1668.000000	99.999695
1667.000000	100.013005
1666.000000	100.007316
1665.000000	100.014731
1664.000000	100.007925
1663.000000	99.981209
1662.000000	99.999086
1661.000000	99.979073
1660.000000	99.969529
1659.000000	99.995631
1658.000000	100.022965
1657.000000	100.008230
1656.000000	99.995632
1655.000000	99.990451
1654.000000	99.992177
1653.000000	99.978262
1652.000000	99.988014
1651.000000	99.987506
1650.000000	100.019406
1649.000000	100.005384
1648.000000	99.992788
1647.000000	100.005080
1646.000000	100.002641
1645.000000	100.000610
1644.000000	100.012394
1643.000000	99.993803
1642.000000	99.986591
1641.000000	99.979279
1640.000000	99.987709
1639.000000	99.979076
1638.000000	99.999695
1637.000000	99.983646
1636.000000	99.984764
1635.000000	99.995632
1634.000000	99.992584
1633.000000	99.985473
1632.000000	100.007416
1631.000000	99.985881
1630.000000	100.002235
1629.000000	100.003657
1628.000000	100.003555
1627.000000	100.014933
1626.000000	100.007009
1625.000000	99.996546
1624.000000	99.994921
1623.000000	99.996547
1622.000000	99.996750
1621.000000	99.995124
1620.000000	100.003454
1619.000000	100.010361
1618.000000	100.013004
1617.000000	100.013919
1616.000000	100.000305
1615.000000	99.997968
1614.000000	100.019607
1613.000000	100.007416
1612.000000	100.003758
1611.000000	99.995124
1610.000000	99.985882
1609.000000	99.986693
1608.000000	99.979685
1607.000000	99.990147
1606.000000	99.991671
1605.000000	99.996953
1604.000000	100.001422
1603.000000	100.001524
1602.000000	100.016762
1601.000000	100.011784
1600.000000	100.001016
1599.000000	100.009447
1598.000000	100.002743
1597.000000	99.990756
1596.000000	100.003454
1595.000000	100.006196
1594.000000	99.998578
1593.000000	100.000711
1592.000000	99.999289
1591.000000	99.990554
1590.000000	99.986491
1589.000000	99.987812
1588.000000	99.993297
1587.000000	99.998070
1586.000000	100.003352
1585.000000	100.008127
1584.000000	100.004368
1583.000000	100.008127
1582.000000	100.005079
1581.000000	99.990960
1580.000000	99.994617
1579.000000	99.997766
1578.000000	99.999289
1577.000000	99.989029
1576.000000	99.990046
1575.000000	100.008431
1574.000000	99.990758
1573.000000	99.998070
1572.000000	100.011173
1571.000000	100.005180
1570.000000	99.989641
1569.000000	100.006094
1568.000000	100.003758
1567.000000	99.985581
1566.000000	99.988728
1565.000000	100.000203
1564.000000	99.983246
1563.000000	99.985173
1562.000000	99.990250
1561.000000	100.001726
1560.000000	100.018992
1559.000000	100.003961
1558.000000	99.997360
1557.000000	99.989033
1556.000000	99.981014
1555.000000	99.994720
1554.000000	100.012492
1553.000000	99.989948
1552.000000	99.984871
1551.000000	99.985581
1550.000000	99.998172
1549.000000	99.992182
1548.000000	99.997563
1547.000000	99.987002
1546.000000	100.006905
1545.000000	100.024882
1544.000000	100.004569
1543.000000	100.009748
1542.000000	100.015029
1541.000000	99.999594
1540.000000	100.019801
1539.000000	100.014724
1538.000000	99.990252
1537.000000	99.985382
1536.000000	100.007514
1535.000000	99.992487
1534.000000	100.022949
1533.000000	100.020307
1532.000000	100.017463
1531.000000	100.000609
1530.000000	99.994618
1529.000000	99.995329
1528.000000	99.998375
1527.000000	99.997664
1526.000000	100.012997
1525.000000	100.028847
1524.000000	100.020313
1523.000000	99.997969
1522.000000	100.002640
1521.000000	100.006194
1520.000000	99.991369
1519.000000	100.018584
1518.000000	100.000812
1517.000000	100.001625
1516.000000	100.002234
1515.000000	99.998984
1514.000000	99.989437
1513.000000	100.013508
1512.000000	99.993399
1511.000000	99.995531
1510.000000	100.006501
1509.000000	99.977964
1508.000000	99.994109
1507.000000	100.007211
1506.000000	99.997766
1505.000000	100.012290
1504.000000	100.004977
1503.000000	100.009345
1502.000000	99.997460
1501.000000	99.993907
1500.000000	99.969532
1499.000000	99.995125
1498.000000	100.017675
1497.000000	99.989133
1496.000000	99.983546
1495.000000	100.017472
1494.000000	99.988524
1493.000000	100.004570
1492.000000	100.000102
