PE UV       SUBTECH     SPECTRUM    ASCII       PEDS        4.00        
   -1
Empty Chamber 2.Sample.asc
18/03/20
17:10:24.00
18/03/20
17:10:24.00
Administrator

200.000000
1
Lambda 750
750N8071901
PerkinElmer UV WinLab 6.0.4.0738 / 1.61.00 Lambda 900

0
0
3350/servo 860.8/2
0
0
UV/VIS
1
1
1
CommonBeamDepol,150mm sphere / downward view
0
0
0
0
Program
Program
3350/servo 860.8/2
3350/0.2 860.8/0.2
3350/0.2 860.8/0.2
0
1
 
 
 
0
 
860.8
319.2
860.8
Front
100
on
 
 
0
0
0
 
0
 
 
 
0
 
 
0
0
0
0
0
 
 
 
 
0
0


0
0
#HDR
-1
-1
#GR
nm
%T
1.0
0.0
2350.000000
-1.000000
2151
8
100.525313
99.299097
#DATA
2350.000000	100.291965
2349.000000	100.102703
2348.000000	100.355449
2347.000000	100.289631
2346.000000	99.662716
2345.000000	100.005767
2344.000000	100.016479
2343.000000	99.929779
2342.000000	99.749199
2341.000000	100.140444
2340.000000	100.128350
2339.000000	100.008886
2338.000000	100.236800
2337.000000	99.671160
2336.000000	99.830685
2335.000000	100.267760
2334.000000	100.287147
2333.000000	100.121690
2332.000000	100.428359
2331.000000	99.924489
2330.000000	100.286644
2329.000000	100.131194
2328.000000	99.936988
2327.000000	99.671595
2326.000000	99.995652
2325.000000	100.170811
2324.000000	100.070881
2323.000000	100.078730
2322.000000	100.011440
2321.000000	100.041541
2320.000000	99.780394
2319.000000	100.208190
2318.000000	100.226617
2317.000000	99.933126
2316.000000	99.665625
2315.000000	100.064327
2314.000000	100.103446
2313.000000	99.786511
2312.000000	100.012357
2311.000000	100.138986
2310.000000	100.202969
2309.000000	100.233212
2308.000000	100.205095
2307.000000	100.087831
2306.000000	99.882339
2305.000000	100.064498
2304.000000	100.228584
2303.000000	100.209841
2302.000000	99.985316
2301.000000	99.890481
2300.000000	99.820118
2299.000000	100.076694
2298.000000	99.829280
2297.000000	99.843156
2296.000000	100.003650
2295.000000	99.927932
2294.000000	99.961669
2293.000000	99.891088
2292.000000	99.722974
2291.000000	99.919454
2290.000000	100.024891
2289.000000	100.205653
2288.000000	100.081021
2287.000000	99.974922
2286.000000	99.984625
2285.000000	100.100144
2284.000000	100.033226
2283.000000	99.966602
2282.000000	100.051644
2281.000000	100.083488
2280.000000	100.101983
2279.000000	99.961309
2278.000000	99.938782
2277.000000	100.005676
2276.000000	100.103271
2275.000000	99.870510
2274.000000	99.973592
2273.000000	100.078802
2272.000000	100.155749
2271.000000	100.051036
2270.000000	100.073258
2269.000000	100.021275
2268.000000	99.976417
2267.000000	100.077124
2266.000000	100.013478
2265.000000	99.924569
2264.000000	100.082054
2263.000000	99.969220
2262.000000	99.792391
2261.000000	99.905108
2260.000000	99.883080
2259.000000	99.997671
2258.000000	100.219734
2257.000000	100.225341
2256.000000	100.110557
2255.000000	100.137302
2254.000000	100.009718
2253.000000	99.849732
2252.000000	99.921420
2251.000000	100.109966
2250.000000	100.110978
2249.000000	100.089066
2248.000000	100.047496
2247.000000	100.011544
2246.000000	100.059436
2245.000000	99.954853
2244.000000	99.830109
2243.000000	100.018123
2242.000000	99.967915
2241.000000	99.864433
2240.000000	99.981760
2239.000000	99.857643
2238.000000	99.906918
2237.000000	99.987038
2236.000000	100.034766
2235.000000	100.149193
2234.000000	99.895129
2233.000000	99.808381
2232.000000	99.899394
2231.000000	99.942932
2230.000000	100.057001
2229.000000	100.101522
2228.000000	100.077784
2227.000000	99.915597
2226.000000	100.003850
2225.000000	100.173159
2224.000000	99.995241
2223.000000	99.945563
2222.000000	99.908791
2221.000000	99.885521
2220.000000	100.022914
2219.000000	100.068216
2218.000000	100.070084
2217.000000	100.120107
2216.000000	99.981670
2215.000000	99.951000
2214.000000	99.910764
2213.000000	100.058228
2212.000000	100.029777
2211.000000	100.022374
2210.000000	100.027758
2209.000000	100.038328
2208.000000	100.134208
2207.000000	99.912621
2206.000000	99.978933
2205.000000	100.147764
2204.000000	100.001418
2203.000000	99.927866
2202.000000	99.947784
2201.000000	99.896217
2200.000000	100.011940
2199.000000	100.004350
2198.000000	100.164833
2197.000000	99.750464
2196.000000	99.885942
2195.000000	100.083823
2194.000000	100.029758
2193.000000	100.063017
2192.000000	100.100452
2191.000000	99.956895
2190.000000	100.035944
2189.000000	99.959731
2188.000000	99.865693
2187.000000	99.865340
2186.000000	99.846152
2185.000000	100.036265
2184.000000	100.097706
2183.000000	100.181505
2182.000000	99.985134
2181.000000	100.055859
2180.000000	99.981413
2179.000000	100.024047
2178.000000	100.007472
2177.000000	99.984844
2176.000000	100.004649
2175.000000	100.042480
2174.000000	100.117929
2173.000000	99.955498
2172.000000	100.006969
2171.000000	99.862766
2170.000000	100.022187
2169.000000	99.921388
2168.000000	100.154466
2167.000000	99.972854
2166.000000	100.033487
2165.000000	99.986390
2164.000000	99.722293
2163.000000	99.985683
2162.000000	100.078827
2161.000000	100.280541
2160.000000	99.957568
2159.000000	100.282964
2158.000000	99.992446
2157.000000	99.919079
2156.000000	99.889617
2155.000000	99.788578
2154.000000	99.784771
2153.000000	100.192442
2152.000000	99.942369
2151.000000	100.127778
2150.000000	100.098901
2149.000000	100.079003
2148.000000	100.162291
2147.000000	100.024875
2146.000000	99.946646
2145.000000	99.775649
2144.000000	100.005949
2143.000000	100.057050
2142.000000	99.906648
2141.000000	99.955809
2140.000000	99.993052
2139.000000	99.873958
2138.000000	100.004127
2137.000000	99.909734
2136.000000	99.967054
2135.000000	99.954610
2134.000000	99.910753
2133.000000	100.035154
2132.000000	100.081438
2131.000000	99.612961
2130.000000	100.055353
2129.000000	100.190610
2128.000000	99.946866
2127.000000	100.174579
2126.000000	99.968030
2125.000000	99.866206
2124.000000	100.115661
2123.000000	100.074704
2122.000000	99.969911
2121.000000	100.048575
2120.000000	99.822906
2119.000000	99.768475
2118.000000	99.935732
2117.000000	100.165873
2116.000000	100.232903
2115.000000	100.179769
2114.000000	99.936026
2113.000000	100.011203
2112.000000	99.946429
2111.000000	99.871709
2110.000000	100.091519
2109.000000	100.027277
2108.000000	99.985856
2107.000000	100.026075
2106.000000	100.045289
2105.000000	100.018277
2104.000000	100.027189
2103.000000	99.994042
2102.000000	100.071949
2101.000000	100.114285
2100.000000	100.061168
2099.000000	99.912934
2098.000000	100.066078
2097.000000	99.955252
2096.000000	99.894961
2095.000000	100.071145
2094.000000	100.167654
2093.000000	100.090544
2092.000000	99.959888
2091.000000	99.985450
2090.000000	99.985860
2089.000000	99.944870
2088.000000	99.905713
2087.000000	99.977983
2086.000000	99.989487
2085.000000	100.048928
2084.000000	100.034152
2083.000000	99.992020
2082.000000	100.030236
2081.000000	99.859467
2080.000000	100.008996
2079.000000	99.995145
2078.000000	100.026999
2077.000000	100.080631
2076.000000	100.106798
2075.000000	99.992826
2074.000000	99.971717
2073.000000	99.998181
2072.000000	99.954827
2071.000000	100.054182
2070.000000	100.079485
2069.000000	100.026703
2068.000000	100.050492
2067.000000	100.082453
2066.000000	99.984627
2065.000000	99.985237
2064.000000	99.966932
2063.000000	99.939648
2062.000000	100.057677
2061.000000	100.033890
2060.000000	99.991506
2059.000000	100.005967
2058.000000	99.983110
2057.000000	99.920349
2056.000000	99.952272
2055.000000	99.979472
2054.000000	99.915663
2053.000000	99.979165
2052.000000	99.995042
2051.000000	100.031577
2050.000000	100.056869
2049.000000	99.966209
2048.000000	100.010120
2047.000000	100.051850
2046.000000	100.031992
2045.000000	99.989373
2044.000000	99.949503
2043.000000	100.063885
2042.000000	100.098624
2041.000000	100.029967
2040.000000	99.979448
2039.000000	99.975805
2038.000000	100.003038
2037.000000	99.989367
2036.000000	99.985323
2035.000000	99.953751
2034.000000	100.001013
2033.000000	100.002633
2032.000000	99.978628
2031.000000	99.997468
2030.000000	99.979341
2029.000000	100.024307
2028.000000	100.021164
2027.000000	99.994329
2026.000000	99.997467
2025.000000	99.984093
2024.000000	99.988856
2023.000000	100.037898
2022.000000	100.046216
2021.000000	100.002939
2020.000000	100.040647
2019.000000	100.089954
2018.000000	100.017541
2017.000000	100.007299
2016.000000	100.063483
2015.000000	100.040466
2014.000000	99.983576
2013.000000	99.981650
2012.000000	99.996452
2011.000000	100.013689
2010.000000	99.983473
2009.000000	100.005376
2008.000000	100.048100
2007.000000	100.036627
2006.000000	100.027803
2005.000000	100.030141
2004.000000	100.024152
2003.000000	99.992798
2002.000000	100.005986
2001.000000	99.999797
2000.000000	99.968443
1999.000000	99.944608
1998.000000	99.989244
1997.000000	100.018573
1996.000000	100.025986
1995.000000	99.996143
1994.000000	100.016650
1993.000000	99.994316
1992.000000	99.911812
1991.000000	99.955038
1990.000000	100.002843
1989.000000	100.028740
1988.000000	99.985583
1987.000000	99.980099
1986.000000	100.005890
1985.000000	99.989643
1984.000000	99.966187
1983.000000	99.982941
1982.000000	100.020412
1981.000000	100.007412
1980.000000	99.987003
1979.000000	100.034330
1978.000000	100.021328
1977.000000	100.010765
1976.000000	99.999188
1975.000000	100.025392
1974.000000	100.042356
1973.000000	99.980603
1972.000000	100.037080
1971.000000	100.006805
1970.000000	99.961521
1969.000000	99.959801
1968.000000	99.959595
1967.000000	100.036046
1966.000000	100.056579
1965.000000	99.984156
1964.000000	99.965778
1963.000000	100.001320
1962.000000	99.980707
1961.000000	99.989542
1960.000000	100.030872
1959.000000	100.035033
1958.000000	100.010865
1957.000000	100.023249
1956.000000	100.046098
1955.000000	99.946102
1954.000000	100.000203
1953.000000	100.008526
1952.000000	100.020302
1951.000000	99.997056
1950.000000	100.089756
1949.000000	99.967841
1948.000000	99.966710
1947.000000	99.991374
1946.000000	99.998376
1945.000000	100.069833
1944.000000	100.067784
1943.000000	100.019786
1942.000000	100.041109
1941.000000	99.951739
1940.000000	99.936735
1939.000000	99.981247
1938.000000	99.944252
1937.000000	100.012467
1936.000000	99.987636
1935.000000	99.955829
1934.000000	100.015204
1933.000000	100.054945
1932.000000	99.907320
1931.000000	99.947946
1930.000000	100.043678
1929.000000	100.042751
1928.000000	100.023507
1927.000000	100.052278
1926.000000	100.050145
1925.000000	99.922557
1924.000000	100.054508
1923.000000	99.990782
1922.000000	99.983293
1921.000000	100.020158
1920.000000	100.031825
1919.000000	100.101983
1918.000000	100.115666
1917.000000	100.027060
1916.000000	99.953896
1915.000000	99.929190
1914.000000	99.960298
1913.000000	99.974680
1912.000000	100.027574
1911.000000	100.009631
1910.000000	100.102532
1909.000000	99.979425
1908.000000	100.054134
1907.000000	99.984491
1906.000000	100.023518
1905.000000	100.011151
1904.000000	100.076856
1903.000000	99.891236
1902.000000	99.878811
1901.000000	99.944870
1900.000000	100.068688
1899.000000	99.977786
1898.000000	100.036530
1897.000000	99.968255
1896.000000	100.077752
1895.000000	100.035110
1894.000000	99.969873
1893.000000	99.995233
1892.000000	100.062699
1891.000000	100.046685
1890.000000	100.002435
1889.000000	100.003855
1888.000000	100.004158
1887.000000	99.967149
1886.000000	99.968172
1885.000000	100.020266
1884.000000	100.044090
1883.000000	99.971935
1882.000000	100.023102
1881.000000	100.031608
1880.000000	100.033229
1879.000000	100.014486
1878.000000	99.986026
1877.000000	100.057540
1876.000000	100.043866
1875.000000	100.024295
1874.000000	100.005972
1873.000000	99.995850
1872.000000	100.014575
1871.000000	99.978543
1870.000000	99.942527
1869.000000	100.005667
1868.000000	100.015688
1867.000000	99.980967
1866.000000	100.013671
1865.000000	100.022281
1864.000000	99.988354
1863.000000	99.987844
1862.000000	100.040314
1861.000000	99.995240
1860.000000	100.000608
1859.000000	100.016618
1858.000000	99.978831
1857.000000	99.915766
1856.000000	99.960208
1855.000000	100.007394
1854.000000	100.050344
1853.000000	100.040821
1852.000000	100.001924
1851.000000	99.991292
1850.000000	100.023294
1849.000000	100.001114
1848.000000	99.979951
1847.000000	100.004355
1846.000000	100.065555
1845.000000	100.066561
1844.000000	100.010635
1843.000000	99.979749
1842.000000	99.979445
1841.000000	99.963546
1840.000000	99.949072
1839.000000	99.966787
1838.000000	99.994834
1837.000000	99.994529
1836.000000	99.983586
1835.000000	99.981557
1834.000000	100.005574
1833.000000	100.014598
1832.000000	100.014397
1831.000000	100.000101
1830.000000	99.985907
1829.000000	100.008517
1828.000000	99.992801
1827.000000	99.953670
1826.000000	99.960557
1825.000000	99.994016
1824.000000	100.013695
1823.000000	99.991277
1822.000000	99.961054
1821.000000	99.983162
1820.000000	100.004971
1819.000000	99.994318
1818.000000	99.998275
1817.000000	99.995637
1816.000000	99.999087
1815.000000	100.036341
1814.000000	100.036141
1813.000000	100.013603
1812.000000	100.004365
1811.000000	99.990661
1810.000000	100.001624
1809.000000	100.024268
1808.000000	100.018380
1807.000000	100.009037
1806.000000	100.021935
1805.000000	100.010156
1804.000000	100.018890
1803.000000	100.029049
1802.000000	99.996852
1801.000000	100.000812
1800.000000	100.020721
1799.000000	100.003860
1798.000000	99.988624
1797.000000	99.954402
1796.000000	99.964046
1795.000000	99.987099
1794.000000	100.005487
1793.000000	100.009246
1792.000000	100.007925
1791.000000	100.037906
1790.000000	100.024594
1789.000000	100.005690
1788.000000	100.009856
1787.000000	100.015548
1786.000000	100.004877
1785.000000	100.000914
1784.000000	100.025301
1783.000000	100.010668
1782.000000	100.009145
1781.000000	100.000406
1780.000000	99.992077
1779.000000	100.018492
1778.000000	100.028350
1777.000000	100.030587
1776.000000	100.008943
1775.000000	99.979376
1774.000000	99.975719
1773.000000	99.988114
1772.000000	99.975312
1771.000000	99.952457
1770.000000	99.992480
1769.000000	99.991973
1768.000000	100.024693
1767.000000	100.038617
1766.000000	100.015953
1765.000000	100.017580
1764.000000	100.031506
1763.000000	100.028761
1762.000000	100.023274
1761.000000	100.016668
1760.000000	100.017174
1759.000000	99.998476
1758.000000	100.000508
1757.000000	100.017580
1756.000000	100.000305
1755.000000	100.023877
1754.000000	99.986184
1753.000000	99.987403
1752.000000	99.986896
1751.000000	99.990958
1750.000000	100.021240
1749.000000	100.029364
1748.000000	100.009551
1747.000000	100.009856
1746.000000	100.005791
1745.000000	99.986183
1744.000000	100.028446
1743.000000	100.016461
1742.000000	100.038413
1741.000000	99.990249
1740.000000	100.014120
1739.000000	99.994616
1738.000000	100.019706
1737.000000	99.991570
1736.000000	99.959984
1735.000000	99.983748
1734.000000	100.020216
1733.000000	100.009651
1732.000000	100.022654
1731.000000	100.034851
1730.000000	99.995327
1729.000000	99.992179
1728.000000	100.027332
1727.000000	99.941603
1726.000000	99.955617
1725.000000	100.004165
1724.000000	99.974612
1723.000000	100.009546
1722.000000	100.004368
1721.000000	99.992688
1720.000000	99.991469
1719.000000	100.001726
1718.000000	100.009752
1717.000000	100.039216
1716.000000	100.027939
1715.000000	100.010665
1714.000000	100.009244
1713.000000	99.991467
1712.000000	100.011274
1711.000000	100.012902
1710.000000	99.995937
1709.000000	100.018791
1708.000000	99.969332
1707.000000	99.957763
1706.000000	99.973903
1705.000000	100.018078
1704.000000	100.035560
1703.000000	100.008431
1702.000000	100.017980
1701.000000	99.977960
1700.000000	100.008024
1699.000000	100.005586
1698.000000	100.004773
1697.000000	99.995837
1696.000000	100.007313
1695.000000	99.957046
1694.000000	99.959283
1693.000000	100.012797
1692.000000	99.974715
1691.000000	100.005179
1690.000000	100.008328
1689.000000	100.005078
1688.000000	100.003250
1687.000000	100.016250
1686.000000	100.005991
1685.000000	99.985683
1684.000000	100.015336
1683.000000	100.001117
1682.000000	100.020720
1681.000000	99.998477
1680.000000	99.997359
1679.000000	99.987205
1678.000000	99.969845
1677.000000	99.980301
1676.000000	99.998578
1675.000000	99.993704
1674.000000	99.961921
1673.000000	99.985175
1672.000000	99.955734
1671.000000	99.983246
1670.000000	99.997868
1669.000000	100.009239
1668.000000	99.994518
1667.000000	99.986703
1666.000000	99.993605
1665.000000	100.036953
1664.000000	100.015025
1663.000000	99.985891
1662.000000	100.004060
1661.000000	99.996751
1660.000000	99.987717
1659.000000	99.984064
1658.000000	99.966001
1657.000000	100.004466
1656.000000	100.002233
1655.000000	100.001117
1654.000000	100.002132
1653.000000	100.018068
1652.000000	99.998173
1651.000000	99.984368
1650.000000	100.002436
1649.000000	99.971384
1648.000000	99.983965
1647.000000	100.010049
1646.000000	99.997868
1645.000000	100.021221
1644.000000	100.040714
1643.000000	100.022333
1642.000000	100.024867
1641.000000	100.013295
1640.000000	99.992490
1639.000000	99.974426
1638.000000	99.990562
1637.000000	99.996245
1636.000000	99.989851
1635.000000	100.000305
1634.000000	99.996955
1633.000000	99.992185
1632.000000	99.993605
1631.000000	99.997462
1630.000000	99.987923
1629.000000	99.982139
1628.000000	99.989140
1627.000000	99.998985
1626.000000	99.981532
1625.000000	99.982038
1624.000000	100.000101
1623.000000	99.995534
1622.000000	99.999594
1621.000000	100.018676
1620.000000	100.003959
1619.000000	100.008018
1618.000000	100.001116
1617.000000	100.006495
1616.000000	99.989141
1615.000000	99.975137
1614.000000	100.013602
1613.000000	100.019490
1612.000000	99.997564
1611.000000	99.983765
1610.000000	99.987316
1609.000000	99.987213
1608.000000	99.996854
1607.000000	100.011774
1606.000000	100.013093
1605.000000	100.016747
1604.000000	100.004567
1603.000000	99.996346
1602.000000	100.000711
1601.000000	100.003654
1600.000000	100.001827
1599.000000	100.003552
1598.000000	99.999797
1597.000000	99.996854
1596.000000	99.993809
1595.000000	99.994621
1594.000000	100.012077
1593.000000	99.999899
1592.000000	99.982748
1591.000000	100.008932
1590.000000	100.022129
1589.000000	99.995230
1588.000000	100.003654
1587.000000	100.015531
1586.000000	100.004263
1585.000000	100.003248
1584.000000	99.999492
1583.000000	100.001522
1582.000000	100.001725
1581.000000	99.988838
1580.000000	99.988128
1579.000000	100.009235
1578.000000	100.022938
1577.000000	100.008220
1576.000000	100.007205
1575.000000	100.016948
1574.000000	99.999696
1573.000000	99.995839
1572.000000	100.012788
1571.000000	100.002436
1570.000000	100.001624
1569.000000	100.006393
1568.000000	100.011771
1567.000000	100.031256
1566.000000	100.002334
1565.000000	99.986100
1564.000000	99.998985
1563.000000	100.000913
1562.000000	99.998884
1561.000000	100.005073
1560.000000	99.999696
1559.000000	100.003348
1558.000000	100.000406
1557.000000	100.008422
1556.000000	100.009944
1555.000000	100.002942
1554.000000	99.999391
1553.000000	99.996247
1552.000000	99.977888
1551.000000	99.974337
1550.000000	99.976774
1549.000000	99.993914
1548.000000	100.007000
1547.000000	99.998884
1546.000000	99.995942
1545.000000	100.014913
1544.000000	100.006289
1543.000000	99.989451
1542.000000	100.002232
1541.000000	99.996247
1540.000000	99.993609
1539.000000	100.011158
1538.000000	100.011766
1537.000000	100.010142
1536.000000	99.981035
1535.000000	99.992191
1534.000000	100.002434
1533.000000	99.988134
1532.000000	99.996248
1531.000000	99.998682
1530.000000	100.011971
1529.000000	100.007813
1528.000000	100.006290
1527.000000	99.999696
1526.000000	99.999899
1525.000000	100.003246
1524.000000	99.982550
1523.000000	99.994927
1522.000000	99.997058
1521.000000	99.997261
1520.000000	100.008724
1519.000000	100.006189
1518.000000	100.017044
1517.000000	100.030134
1516.000000	100.000203
1515.000000	99.990666
1514.000000	100.029432
1513.000000	100.011162
1512.000000	99.978388
1511.000000	100.009741
1510.000000	100.015831
1509.000000	100.030654
1508.000000	99.998782
1507.000000	100.023545
1506.000000	100.008828
1505.000000	99.995840
1504.000000	99.989750
1503.000000	99.996956
1502.000000	100.001319
1501.000000	99.996347
1500.000000	100.008728
1499.000000	100.003552
1498.000000	100.023951
1497.000000	100.015731
1496.000000	100.022631
1495.000000	100.042221
1494.000000	100.003349
1493.000000	99.988028
1492.000000	100.004363
1491.000000	99.999188
