PE UV       SUBTECH     SPECTRUM    ASCII       PEDS        4.00        
   -1
RDmsmeh72.Sample.asc
18/03/20
11:38:09.00
18/03/20
11:38:09.00
Administrator

200.000000
1
Lambda 750
750N8071901
PerkinElmer UV WinLab 6.0.4.0738 / 1.61.00 Lambda 900

0
0
3350/servo 860.8/2
0
0
UV/VIS
1
1
1
CommonBeamDepol,150mm sphere / downward view
0
0
0
0
Program
Program
3350/servo 860.8/2
3350/0.2 860.8/0.2
3350/0.2 860.8/0.2
0
1
 
 
 
0
 
860.8
319.2
860.8
Front
100
on
 
 
0
0
0
 
0
 
 
 
0
 
 
0
0
0
0
0
 
 
 
 
0
0


0
0
#HDR
-1
-1
#GR
nm
%R
1.0
0.0
2350.000000
-1.000000
2151
8
61.761005
9.373408
#DATA
2350.000000	39.874210
2349.000000	39.950067
2348.000000	40.599330
2347.000000	40.514303
2346.000000	40.378578
2345.000000	40.074554
2344.000000	39.996336
2343.000000	40.219448
2342.000000	40.361593
2341.000000	40.466292
2340.000000	40.632246
2339.000000	40.760914
2338.000000	40.627173
2337.000000	40.782426
2336.000000	40.874229
2335.000000	41.048280
2334.000000	40.940147
2333.000000	40.983899
2332.000000	41.017285
2331.000000	40.726528
2330.000000	40.704369
2329.000000	40.706336
2328.000000	40.922088
2327.000000	40.681328
2326.000000	40.672556
2325.000000	40.466193
2324.000000	40.539155
2323.000000	40.503497
2322.000000	40.399833
2321.000000	40.520640
2320.000000	40.363907
2319.000000	40.516442
2318.000000	40.357263
2317.000000	40.414014
2316.000000	40.259990
2315.000000	40.165061
2314.000000	40.066847
2313.000000	40.173256
2312.000000	40.078220
2311.000000	39.906817
2310.000000	39.793262
2309.000000	40.039742
2308.000000	39.869633
2307.000000	39.719645
2306.000000	39.599827
2305.000000	39.753195
2304.000000	39.745855
2303.000000	39.611573
2302.000000	39.693778
2301.000000	39.416396
2300.000000	39.403879
2299.000000	39.424431
2298.000000	39.233603
2297.000000	39.193617
2296.000000	39.299265
2295.000000	39.048441
2294.000000	38.848202
2293.000000	38.616248
2292.000000	38.679287
2291.000000	38.721153
2290.000000	38.864885
2289.000000	39.002107
2288.000000	38.919482
2287.000000	38.607178
2286.000000	38.657564
2285.000000	38.546282
2284.000000	38.486417
2283.000000	38.444636
2282.000000	38.539720
2281.000000	38.527275
2280.000000	38.542889
2279.000000	38.625878
2278.000000	38.521597
2277.000000	38.517334
2276.000000	38.558311
2275.000000	38.748479
2274.000000	38.813771
2273.000000	38.907953
2272.000000	38.837320
2271.000000	38.843138
2270.000000	38.880952
2269.000000	38.961921
2268.000000	38.994039
2267.000000	38.901428
2266.000000	39.026754
2265.000000	39.237277
2264.000000	39.433291
2263.000000	39.363425
2262.000000	39.320072
2261.000000	39.611389
2260.000000	39.800932
2259.000000	40.033205
2258.000000	40.270106
2257.000000	40.373952
2256.000000	40.516339
2255.000000	40.668502
2254.000000	40.731396
2253.000000	40.887031
2252.000000	41.092438
2251.000000	41.258994
2250.000000	41.333527
2249.000000	41.576319
2248.000000	41.675532
2247.000000	41.728595
2246.000000	41.870489
2245.000000	42.018059
2244.000000	42.329919
2243.000000	42.577513
2242.000000	42.663716
2241.000000	42.711107
2240.000000	42.836737
2239.000000	42.881432
2238.000000	43.007835
2237.000000	43.151788
2236.000000	43.190313
2235.000000	43.299324
2234.000000	43.422514
2233.000000	43.392051
2232.000000	43.428849
2231.000000	43.546687
2230.000000	43.561355
2229.000000	43.592817
2228.000000	43.621081
2227.000000	43.533116
2226.000000	43.540380
2225.000000	43.686111
2224.000000	43.490675
2223.000000	43.424666
2222.000000	43.519951
2221.000000	43.501503
2220.000000	43.586066
2219.000000	43.532174
2218.000000	43.366027
2217.000000	43.413198
2216.000000	43.451445
2215.000000	43.402199
2214.000000	43.522719
2213.000000	43.549348
2212.000000	43.450102
2211.000000	43.355590
2210.000000	43.337815
2209.000000	43.188271
2208.000000	43.221710
2207.000000	43.107306
2206.000000	43.040700
2205.000000	43.149042
2204.000000	43.165733
2203.000000	42.974749
2202.000000	42.850504
2201.000000	42.795630
2200.000000	42.862175
2199.000000	42.701337
2198.000000	42.655499
2197.000000	42.660756
2196.000000	42.555591
2195.000000	42.491106
2194.000000	42.514966
2193.000000	42.394215
2192.000000	42.392522
2191.000000	42.221927
2190.000000	42.211102
2189.000000	42.173722
2188.000000	42.145108
2187.000000	42.201722
2186.000000	42.130382
2185.000000	42.027836
2184.000000	42.099458
2183.000000	42.226391
2182.000000	42.125504
2181.000000	42.012720
2180.000000	42.087527
2179.000000	41.987128
2178.000000	42.072451
2177.000000	42.023443
2176.000000	42.008591
2175.000000	41.992282
2174.000000	42.052151
2173.000000	42.091336
2172.000000	42.144144
2171.000000	42.152117
2170.000000	42.217695
2169.000000	42.412706
2168.000000	42.617645
2167.000000	42.523797
2166.000000	42.511577
2165.000000	42.633740
2164.000000	42.754192
2163.000000	42.911036
2162.000000	43.081977
2161.000000	42.989184
2160.000000	43.240721
2159.000000	43.432801
2158.000000	43.427841
2157.000000	43.602169
2156.000000	43.665234
2155.000000	43.714253
2154.000000	43.805465
2153.000000	44.028728
2152.000000	44.112086
2151.000000	44.252711
2150.000000	44.405740
2149.000000	44.473406
2148.000000	44.588469
2147.000000	44.811453
2146.000000	44.763662
2145.000000	44.853055
2144.000000	45.019897
2143.000000	45.062044
2142.000000	45.223905
2141.000000	45.293694
2140.000000	45.562050
2139.000000	45.585520
2138.000000	45.777255
2137.000000	45.977601
2136.000000	45.720121
2135.000000	45.712726
2134.000000	45.995009
2133.000000	45.843949
2132.000000	45.975129
2131.000000	46.196585
2130.000000	46.228838
2129.000000	46.132906
2128.000000	46.224347
2127.000000	46.054476
2126.000000	46.167499
2125.000000	46.318612
2124.000000	46.369946
2123.000000	46.356996
2122.000000	46.560136
2121.000000	46.538833
2120.000000	46.382254
2119.000000	46.487291
2118.000000	46.534968
2117.000000	46.601933
2116.000000	46.570371
2115.000000	46.449631
2114.000000	46.568633
2113.000000	46.591024
2112.000000	46.760957
2111.000000	46.621230
2110.000000	46.672566
2109.000000	46.838016
2108.000000	46.783819
2107.000000	46.807624
2106.000000	46.920608
2105.000000	46.720660
2104.000000	46.837069
2103.000000	46.853615
2102.000000	46.931785
2101.000000	46.752881
2100.000000	46.823324
2099.000000	46.817588
2098.000000	46.811106
2097.000000	46.798923
2096.000000	46.773395
2095.000000	46.778548
2094.000000	46.877910
2093.000000	46.809131
2092.000000	46.883662
2091.000000	46.824302
2090.000000	46.657499
2089.000000	46.853194
2088.000000	46.823829
2087.000000	46.731561
2086.000000	46.667375
2085.000000	46.682750
2084.000000	46.621531
2083.000000	46.574703
2082.000000	46.517592
2081.000000	46.397816
2080.000000	46.446740
2079.000000	46.333854
2078.000000	46.312295
2077.000000	46.285774
2076.000000	46.252636
2075.000000	46.108611
2074.000000	46.161745
2073.000000	46.054907
2072.000000	45.931095
2071.000000	45.785943
2070.000000	45.708541
2069.000000	45.669993
2068.000000	45.563923
2067.000000	45.404995
2066.000000	45.283771
2065.000000	45.145786
2064.000000	45.064105
2063.000000	45.000253
2062.000000	44.875483
2061.000000	44.788868
2060.000000	44.715875
2059.000000	44.615448
2058.000000	44.451006
2057.000000	44.320807
2056.000000	44.199325
2055.000000	44.076705
2054.000000	43.952040
2053.000000	43.830551
2052.000000	43.762444
2051.000000	43.707224
2050.000000	43.649587
2049.000000	43.569685
2048.000000	43.462291
2047.000000	43.461537
2046.000000	43.385084
2045.000000	43.259200
2044.000000	43.228720
2043.000000	43.270209
2042.000000	43.345468
2041.000000	43.355584
2040.000000	43.369196
2039.000000	43.282247
2038.000000	43.284212
2037.000000	43.387748
2036.000000	43.481053
2035.000000	43.527832
2034.000000	43.544931
2033.000000	43.591592
2032.000000	43.719759
2031.000000	43.754311
2030.000000	43.795202
2029.000000	43.922327
2028.000000	43.998353
2027.000000	44.059771
2026.000000	44.167395
2025.000000	44.240320
2024.000000	44.288866
2023.000000	44.364108
2022.000000	44.391152
2021.000000	44.389202
2020.000000	44.484250
2019.000000	44.522455
2018.000000	44.449643
2017.000000	44.457209
2016.000000	44.481635
2015.000000	44.471497
2014.000000	44.449724
2013.000000	44.414871
2012.000000	44.407378
2011.000000	44.391985
2010.000000	44.306148
2009.000000	44.228080
2008.000000	44.189247
2007.000000	44.107471
2006.000000	44.057033
2005.000000	43.991918
2004.000000	43.918401
2003.000000	43.804722
2002.000000	43.738521
2001.000000	43.656232
2000.000000	43.561826
1999.000000	43.537281
1998.000000	43.445870
1997.000000	43.375555
1996.000000	43.305487
1995.000000	43.185305
1994.000000	43.065859
1993.000000	42.984240
1992.000000	42.884103
1991.000000	42.830667
1990.000000	42.777574
1989.000000	42.668757
1988.000000	42.555272
1987.000000	42.480133
1986.000000	42.422070
1985.000000	42.313003
1984.000000	42.177281
1983.000000	42.133919
1982.000000	42.068863
1981.000000	41.966365
1980.000000	41.852466
1979.000000	41.754238
1978.000000	41.677431
1977.000000	41.601560
1976.000000	41.510702
1975.000000	41.430509
1974.000000	41.304690
1973.000000	41.254343
1972.000000	41.143765
1971.000000	41.081708
1970.000000	41.028102
1969.000000	40.933926
1968.000000	40.878376
1967.000000	40.820900
1966.000000	40.730377
1965.000000	40.621566
1964.000000	40.581865
1963.000000	40.511139
1962.000000	40.355273
1961.000000	40.257485
1960.000000	40.205825
1959.000000	40.128528
1958.000000	40.078047
1957.000000	40.003050
1956.000000	39.922578
1955.000000	39.915193
1954.000000	39.841293
1953.000000	39.847803
1952.000000	39.742796
1951.000000	39.717144
1950.000000	39.646195
1949.000000	39.627390
1948.000000	39.601034
1947.000000	39.580754
1946.000000	39.562176
1945.000000	39.560038
1944.000000	39.566120
1943.000000	39.605468
1942.000000	39.612662
1941.000000	39.611513
1940.000000	39.707121
1939.000000	39.719427
1938.000000	39.696640
1937.000000	39.764700
1936.000000	39.939312
1935.000000	39.975331
1934.000000	40.133140
1933.000000	40.192630
1932.000000	40.307204
1931.000000	40.422423
1930.000000	40.589149
1929.000000	40.696268
1928.000000	40.849270
1927.000000	40.995085
1926.000000	41.174788
1925.000000	41.408034
1924.000000	41.493007
1923.000000	41.763160
1922.000000	41.972939
1921.000000	42.175344
1920.000000	42.381150
1919.000000	42.614074
1918.000000	42.904215
1917.000000	43.204585
1916.000000	43.379307
1915.000000	43.655933
1914.000000	43.910837
1913.000000	44.353517
1912.000000	44.515736
1911.000000	44.809148
1910.000000	45.073061
1909.000000	45.333672
1908.000000	45.729758
1907.000000	46.052979
1906.000000	46.342615
1905.000000	46.686509
1904.000000	47.067035
1903.000000	47.428707
1902.000000	47.663879
1901.000000	48.062925
1900.000000	48.443664
1899.000000	48.797727
1898.000000	49.144072
1897.000000	49.434191
1896.000000	49.780006
1895.000000	50.142905
1894.000000	50.410764
1893.000000	50.707865
1892.000000	51.020178
1891.000000	51.258085
1890.000000	51.570017
1889.000000	51.828168
1888.000000	52.092727
1887.000000	52.339235
1886.000000	52.607633
1885.000000	52.830028
1884.000000	53.092926
1883.000000	53.321490
1882.000000	53.457389
1881.000000	53.655971
1880.000000	53.889250
1879.000000	54.028930
1878.000000	54.183514
1877.000000	54.411106
1876.000000	54.584591
1875.000000	54.706316
1874.000000	54.827461
1873.000000	54.940947
1872.000000	55.079773
1871.000000	55.155683
1870.000000	55.237528
1869.000000	55.311629
1868.000000	55.402723
1867.000000	55.417312
1866.000000	55.463980
1865.000000	55.493980
1864.000000	55.517594
1863.000000	55.593421
1862.000000	55.624229
1861.000000	55.677588
1860.000000	55.717807
1859.000000	55.731279
1858.000000	55.751342
1857.000000	55.785609
1856.000000	55.854562
1855.000000	55.870063
1854.000000	55.851981
1853.000000	55.874476
1852.000000	55.877280
1851.000000	55.886618
1850.000000	55.878258
1849.000000	55.872263
1848.000000	55.863734
1847.000000	55.896614
1846.000000	55.915515
1845.000000	55.855775
1844.000000	55.827331
1843.000000	55.802737
1842.000000	55.834189
1841.000000	55.851644
1840.000000	55.829087
1839.000000	55.786236
1838.000000	55.787252
1837.000000	55.745688
1836.000000	55.738500
1835.000000	55.736367
1834.000000	55.692107
1833.000000	55.671486
1832.000000	55.629657
1831.000000	55.609511
1830.000000	55.580969
1829.000000	55.566948
1828.000000	55.563575
1827.000000	55.512140
1826.000000	55.499822
1825.000000	55.463016
1824.000000	55.435331
1823.000000	55.433171
1822.000000	55.424348
1821.000000	55.425079
1820.000000	55.390313
1819.000000	55.350253
1818.000000	55.321582
1817.000000	55.307542
1816.000000	55.325599
1815.000000	55.305363
1814.000000	55.278411
1813.000000	55.263016
1812.000000	55.243309
1811.000000	55.236503
1810.000000	55.224392
1809.000000	55.231781
1808.000000	55.215749
1807.000000	55.166627
1806.000000	55.159733
1805.000000	55.141075
1804.000000	55.128997
1803.000000	55.138849
1802.000000	55.131988
1801.000000	55.109568
1800.000000	55.080484
1799.000000	55.076778
1798.000000	55.073812
1797.000000	55.060719
1796.000000	55.058519
1795.000000	55.056301
1794.000000	55.046365
1793.000000	55.028078
1792.000000	55.026495
1791.000000	55.007521
1790.000000	54.976502
1789.000000	54.979185
1788.000000	54.994639
1787.000000	54.984432
1786.000000	54.970028
1785.000000	54.968987
1784.000000	54.979288
1783.000000	54.974406
1782.000000	54.925347
1781.000000	54.915240
1780.000000	54.889295
1779.000000	54.874896
1778.000000	54.863089
1777.000000	54.817674
1776.000000	54.774471
1775.000000	54.761009
1774.000000	54.737102
1773.000000	54.705896
1772.000000	54.647114
1771.000000	54.634005
1770.000000	54.594011
1769.000000	54.559406
1768.000000	54.531541
1767.000000	54.513269
1766.000000	54.516151
1765.000000	54.450917
1764.000000	54.440906
1763.000000	54.434943
1762.000000	54.417485
1761.000000	54.399452
1760.000000	54.304661
1759.000000	54.305591
1758.000000	54.305814
1757.000000	54.266502
1756.000000	54.229022
1755.000000	54.213619
1754.000000	54.193383
1753.000000	54.178094
1752.000000	54.158375
1751.000000	54.103690
1750.000000	54.090078
1749.000000	54.096939
1748.000000	54.022553
1747.000000	53.985486
1746.000000	53.962315
1745.000000	53.929004
1744.000000	53.910184
1743.000000	53.883126
1742.000000	53.827195
1741.000000	53.782741
1740.000000	53.768205
1739.000000	53.746096
1738.000000	53.732407
1737.000000	53.694645
1736.000000	53.685819
1735.000000	53.666979
1734.000000	53.695368
1733.000000	53.712320
1732.000000	53.670117
1731.000000	53.699303
1730.000000	53.699179
1729.000000	53.703216
1728.000000	53.731141
1727.000000	53.741872
1726.000000	53.801560
1725.000000	53.854248
1724.000000	53.888678
1723.000000	53.965401
1722.000000	53.983014
1721.000000	54.085397
1720.000000	54.140023
1719.000000	54.209136
1718.000000	54.245363
1717.000000	54.267369
1716.000000	54.359330
1715.000000	54.387890
1714.000000	54.447248
1713.000000	54.496970
1712.000000	54.540972
1711.000000	54.547404
1710.000000	54.582599
1709.000000	54.652443
1708.000000	54.720898
1707.000000	54.740637
1706.000000	54.753176
1705.000000	54.742611
1704.000000	54.782956
1703.000000	54.805115
1702.000000	54.802680
1701.000000	54.828849
1700.000000	54.822838
1699.000000	54.861151
1698.000000	54.888643
1697.000000	54.898379
1696.000000	54.937301
1695.000000	54.932652
1694.000000	54.925270
1693.000000	54.977267
1692.000000	54.992717
1691.000000	55.062428
1690.000000	55.110289
1689.000000	55.169427
1688.000000	55.209341
1687.000000	55.263233
1686.000000	55.295942
1685.000000	55.424612
1684.000000	55.512988
1683.000000	55.573412
1682.000000	55.653236
1681.000000	55.731610
1680.000000	55.823060
1679.000000	55.900768
1678.000000	55.976053
1677.000000	56.034225
1676.000000	56.156004
1675.000000	56.286469
1674.000000	56.314243
1673.000000	56.408117
1672.000000	56.505852
1671.000000	56.569455
1670.000000	56.666816
1669.000000	56.724613
1668.000000	56.787838
1667.000000	56.869239
1666.000000	56.900252
1665.000000	56.946358
1664.000000	57.002797
1663.000000	57.033898
1662.000000	57.084599
1661.000000	57.120146
1660.000000	57.157222
1659.000000	57.200015
1658.000000	57.225541
1657.000000	57.270207
1656.000000	57.293102
1655.000000	57.301280
1654.000000	57.314849
1653.000000	57.310940
1652.000000	57.328799
1651.000000	57.321014
1650.000000	57.318987
1649.000000	57.321863
1648.000000	57.301415
1647.000000	57.310176
1646.000000	57.316938
1645.000000	57.318643
1644.000000	57.308116
1643.000000	57.282623
1642.000000	57.278243
1641.000000	57.276603
1640.000000	57.250135
1639.000000	57.245463
1638.000000	57.236769
1637.000000	57.218792
1636.000000	57.181542
1635.000000	57.185971
1634.000000	57.183840
1633.000000	57.154859
1632.000000	57.142146
1631.000000	57.117173
1630.000000	57.107277
1629.000000	57.096754
1628.000000	57.068773
1627.000000	57.057480
1626.000000	57.029837
1625.000000	56.995944
1624.000000	56.965908
1623.000000	56.950042
1622.000000	56.929092
1621.000000	56.889053
1620.000000	56.881677
1619.000000	56.858327
1618.000000	56.833413
1617.000000	56.839245
1616.000000	56.809609
1615.000000	56.779502
1614.000000	56.749841
1613.000000	56.727136
1612.000000	56.686803
1611.000000	56.662400
1610.000000	56.647395
1609.000000	56.623520
1608.000000	56.589145
1607.000000	56.564416
1606.000000	56.525471
1605.000000	56.490234
1604.000000	56.477510
1603.000000	56.453387
1602.000000	56.427019
1601.000000	56.395044
1600.000000	56.368941
1599.000000	56.332262
1598.000000	56.296317
1597.000000	56.277930
1596.000000	56.253047
1595.000000	56.230560
1594.000000	56.206010
1593.000000	56.189215
1592.000000	56.155164
1591.000000	56.126584
1590.000000	56.099966
1589.000000	56.070509
1588.000000	56.052064
1587.000000	56.034944
1586.000000	56.025502
1585.000000	56.009639
1584.000000	55.987240
1583.000000	55.965359
1582.000000	55.935189
1581.000000	55.924247
1580.000000	55.913539
1579.000000	55.889666
1578.000000	55.865948
1577.000000	55.827121
1576.000000	55.806111
1575.000000	55.802931
1574.000000	55.754616
1573.000000	55.719879
1572.000000	55.714884
1571.000000	55.703102
1570.000000	55.685149
1569.000000	55.668903
1568.000000	55.664816
1567.000000	55.631274
1566.000000	55.617875
1565.000000	55.613499
1564.000000	55.604848
1563.000000	55.599189
1562.000000	55.562417
1561.000000	55.543313
1560.000000	55.539554
1559.000000	55.526510
1558.000000	55.513571
1557.000000	55.496411
1556.000000	55.469664
1555.000000	55.470358
1554.000000	55.470038
1553.000000	55.453941
1552.000000	55.442409
1551.000000	55.414788
1550.000000	55.395758
1549.000000	55.377246
1548.000000	55.372292
1547.000000	55.346044
1546.000000	55.297201
1545.000000	55.274372
1544.000000	55.209336
1543.000000	55.186321
1542.000000	55.156338
1541.000000	55.099749
1540.000000	55.074386
1539.000000	55.025945
1538.000000	54.977829
1537.000000	54.927716
1536.000000	54.896810
1535.000000	54.848781
1534.000000	54.814667
1533.000000	54.762845
1532.000000	54.709912
1531.000000	54.669053
1530.000000	54.635533
1529.000000	54.578043
1528.000000	54.548621
1527.000000	54.505397
1526.000000	54.467193
1525.000000	54.443815
1524.000000	54.405018
1523.000000	54.370860
1522.000000	54.354607
1521.000000	54.326223
1520.000000	54.312225
1519.000000	54.304090
1518.000000	54.275524
1517.000000	54.239729
1516.000000	54.206344
1515.000000	54.243991
1514.000000	54.201627
1513.000000	54.187534
1512.000000	54.175032
1511.000000	54.170657
1510.000000	54.170040
1509.000000	54.139134
1508.000000	54.145880
1507.000000	54.123738
1506.000000	54.118486
1505.000000	54.138248
1504.000000	54.121760
1503.000000	54.129300
1502.000000	54.140387
1501.000000	54.106693
1500.000000	54.125658
1499.000000	54.131095
1498.000000	54.150363
1497.000000	54.148347
1496.000000	54.157234
1495.000000	54.187444
1494.000000	54.177386
1493.000000	54.205782
1492.000000	54.220330
1491.000000	54.231411
1490.000000	54.274862
1489.000000	54.278664
1488.000000	54.310582
1487.000000	54.321383
1486.000000	54.339374
1485.000000	54.372421
1484.000000	54.385443
1483.000000	54.428291
1482.000000	54.450865
1481.000000	54.494441
1480.000000	54.491375
1479.000000	54.510773
1478.000000	54.562622
1477.000000	54.605686
1476.000000	54.598373
1475.000000	54.638383
1474.000000	54.659194
1473.000000	54.701731
1472.000000	54.721893
1471.000000	54.743250
1470.000000	54.757588
1469.000000	54.786822
