PE UV       SUBTECH     SPECTRUM    ASCII       PEDS        4.00        
   -1
RDms1240122.Sample.asc
18/03/20
18:01:27.00
18/03/20
18:01:27.00
Administrator

200.000000
1
Lambda 750
750N8071901
PerkinElmer UV WinLab 6.0.4.0738 / 1.61.00 Lambda 900

0
0
3350/servo 860.8/2
0
0
UV/VIS
1
1
1
CommonBeamDepol,150mm sphere / downward view
0
0
0
0
Program
Program
3350/servo 860.8/2
3350/0.2 860.8/0.2
3350/0.2 860.8/0.2
0
1
 
 
 
0
 
860.8
319.2
860.8
Front
100
on
 
 
0
0
0
 
0
 
 
 
0
 
 
0
0
0
0
0
 
 
 
 
0
0


0
0
#HDR
-1
-1
#GR
nm
%R
1.0
0.0
2350.000000
-1.000000
2151
8
53.737470
9.999471
#DATA
2350.000000	29.337291
2349.000000	29.486830
2348.000000	29.368031
2347.000000	29.716184
2346.000000	29.447135
2345.000000	29.049298
2344.000000	29.048261
2343.000000	28.986427
2342.000000	29.096500
2341.000000	29.123341
2340.000000	29.054394
2339.000000	28.922571
2338.000000	29.429252
2337.000000	29.537209
2336.000000	30.114605
2335.000000	30.217209
2334.000000	29.944786
2333.000000	29.944730
2332.000000	29.958723
2331.000000	29.960293
2330.000000	29.670922
2329.000000	29.680691
2328.000000	29.529379
2327.000000	29.455147
2326.000000	29.604458
2325.000000	29.897574
2324.000000	29.832236
2323.000000	29.637640
2322.000000	29.621350
2321.000000	29.575181
2320.000000	29.501977
2319.000000	29.648436
2318.000000	29.281256
2317.000000	29.228637
2316.000000	29.224935
2315.000000	29.281414
2314.000000	29.101248
2313.000000	28.974543
2312.000000	28.990817
2311.000000	28.948865
2310.000000	29.060692
2309.000000	29.151450
2308.000000	29.041245
2307.000000	28.787492
2306.000000	28.571761
2305.000000	28.553073
2304.000000	28.825896
2303.000000	28.924949
2302.000000	28.665047
2301.000000	28.701669
2300.000000	28.563566
2299.000000	28.457552
2298.000000	28.130670
2297.000000	28.313336
2296.000000	28.265565
2295.000000	28.399615
2294.000000	28.205126
2293.000000	28.368511
2292.000000	28.355941
2291.000000	28.042807
2290.000000	27.897061
2289.000000	27.967460
2288.000000	27.992402
2287.000000	28.007285
2286.000000	27.825168
2285.000000	27.817696
2284.000000	27.731479
2283.000000	27.683612
2282.000000	27.792095
2281.000000	27.797659
2280.000000	27.944297
2279.000000	28.004218
2278.000000	28.191222
2277.000000	28.326187
2276.000000	28.185710
2275.000000	28.172092
2274.000000	28.180336
2273.000000	28.190382
2272.000000	28.169630
2271.000000	28.141395
2270.000000	28.155622
2269.000000	28.303976
2268.000000	28.322905
2267.000000	28.508015
2266.000000	28.522903
2265.000000	28.575999
2264.000000	28.762555
2263.000000	28.766954
2262.000000	28.891803
2261.000000	29.005944
2260.000000	29.008926
2259.000000	29.183528
2258.000000	29.462757
2257.000000	29.678207
2256.000000	29.683206
2255.000000	29.711696
2254.000000	30.009637
2253.000000	30.159720
2252.000000	30.199174
2251.000000	30.361964
2250.000000	30.494737
2249.000000	30.774422
2248.000000	30.843065
2247.000000	30.973152
2246.000000	31.348627
2245.000000	31.428039
2244.000000	31.404321
2243.000000	31.652265
2242.000000	31.836907
2241.000000	31.877870
2240.000000	32.049867
2239.000000	32.172994
2238.000000	32.244680
2237.000000	32.322621
2236.000000	32.310365
2235.000000	32.405043
2234.000000	32.613222
2233.000000	32.633025
2232.000000	32.608951
2231.000000	32.635701
2230.000000	32.563096
2229.000000	32.628689
2228.000000	32.615587
2227.000000	32.553501
2226.000000	32.576493
2225.000000	32.551720
2224.000000	32.505503
2223.000000	32.474858
2222.000000	32.570393
2221.000000	32.588103
2220.000000	32.597836
2219.000000	32.599476
2218.000000	32.615111
2217.000000	32.614281
2216.000000	32.562478
2215.000000	32.496219
2214.000000	32.567539
2213.000000	32.615419
2212.000000	32.478726
2211.000000	32.419315
2210.000000	32.385404
2209.000000	32.362094
2208.000000	32.236866
2207.000000	32.156801
2206.000000	32.201029
2205.000000	32.284291
2204.000000	32.229913
2203.000000	32.013682
2202.000000	31.920797
2201.000000	31.968210
2200.000000	31.900734
2199.000000	31.885105
2198.000000	31.835762
2197.000000	31.610743
2196.000000	31.742053
2195.000000	31.792290
2194.000000	31.643380
2193.000000	31.473948
2192.000000	31.468396
2191.000000	31.501098
2190.000000	31.507038
2189.000000	31.467950
2188.000000	31.360766
2187.000000	31.203316
2186.000000	31.127099
2185.000000	31.108222
2184.000000	31.269526
2183.000000	31.343312
2182.000000	31.324392
2181.000000	31.171189
2180.000000	31.302086
2179.000000	31.192300
2178.000000	31.093291
2177.000000	31.252172
2176.000000	31.249261
2175.000000	31.225106
2174.000000	31.172884
2173.000000	31.147706
2172.000000	31.290901
2171.000000	31.328770
2170.000000	31.358482
2169.000000	31.473144
2168.000000	31.516991
2167.000000	31.532250
2166.000000	31.598117
2165.000000	31.695708
2164.000000	31.774574
2163.000000	31.769371
2162.000000	31.984796
2161.000000	32.084801
2160.000000	32.210076
2159.000000	32.344069
2158.000000	32.245082
2157.000000	32.424922
2156.000000	32.477030
2155.000000	32.587664
2154.000000	32.787563
2153.000000	32.983363
2152.000000	33.046486
2151.000000	33.048912
2150.000000	33.156267
2149.000000	33.225409
2148.000000	33.285288
2147.000000	33.466002
2146.000000	33.487522
2145.000000	33.744256
2144.000000	33.851648
2143.000000	33.852329
2142.000000	34.024806
2141.000000	34.157461
2140.000000	34.046331
2139.000000	33.983797
2138.000000	34.440532
2137.000000	34.295697
2136.000000	34.356805
2135.000000	34.599102
2134.000000	34.715580
2133.000000	34.751326
2132.000000	34.879450
2131.000000	34.766056
2130.000000	34.964852
2129.000000	34.834826
2128.000000	34.993356
2127.000000	35.078985
2126.000000	35.140682
2125.000000	34.958291
2124.000000	35.240170
2123.000000	35.108639
2122.000000	35.153383
2121.000000	35.232111
2120.000000	35.203769
2119.000000	35.162209
2118.000000	35.357056
2117.000000	35.344810
2116.000000	35.353675
2115.000000	35.677401
2114.000000	35.401701
2113.000000	35.213731
2112.000000	35.381617
2111.000000	35.327217
2110.000000	35.508202
2109.000000	35.581737
2108.000000	35.451115
2107.000000	35.578012
2106.000000	35.514531
2105.000000	35.449121
2104.000000	35.601832
2103.000000	35.491266
2102.000000	35.574149
2101.000000	35.645335
2100.000000	35.646936
2099.000000	35.461321
2098.000000	35.491080
2097.000000	35.527061
2096.000000	35.582136
2095.000000	35.654330
2094.000000	35.677393
2093.000000	35.641534
2092.000000	35.659747
2091.000000	35.493887
2090.000000	35.523327
2089.000000	35.552010
2088.000000	35.494663
2087.000000	35.619465
2086.000000	35.671230
2085.000000	35.485769
2084.000000	35.430743
2083.000000	35.351246
2082.000000	35.419671
2081.000000	35.303721
2080.000000	35.227798
2079.000000	35.184670
2078.000000	35.127603
2077.000000	35.096970
2076.000000	34.979429
2075.000000	34.900950
2074.000000	34.786605
2073.000000	34.790031
2072.000000	34.729584
2071.000000	34.727319
2070.000000	34.595459
2069.000000	34.519106
2068.000000	34.434786
2067.000000	34.340539
2066.000000	34.265577
2065.000000	34.115174
2064.000000	33.989036
2063.000000	33.947505
2062.000000	33.849560
2061.000000	33.681779
2060.000000	33.553929
2059.000000	33.529413
2058.000000	33.450925
2057.000000	33.293003
2056.000000	33.206733
2055.000000	33.222703
2054.000000	33.087942
2053.000000	32.939956
2052.000000	32.880717
2051.000000	32.776965
2050.000000	32.656004
2049.000000	32.660310
2048.000000	32.624629
2047.000000	32.590619
2046.000000	32.545489
2045.000000	32.459204
2044.000000	32.433526
2043.000000	32.456862
2042.000000	32.457467
2041.000000	32.477236
2040.000000	32.539257
2039.000000	32.540407
2038.000000	32.553332
2037.000000	32.597668
2036.000000	32.642786
2035.000000	32.651880
2034.000000	32.702015
2033.000000	32.826158
2032.000000	32.975475
2031.000000	32.970280
2030.000000	33.032153
2029.000000	33.158088
2028.000000	33.209048
2027.000000	33.257954
2026.000000	33.348665
2025.000000	33.395814
2024.000000	33.392736
2023.000000	33.449053
2022.000000	33.505124
2021.000000	33.545404
2020.000000	33.568261
2019.000000	33.611411
2018.000000	33.659138
2017.000000	33.638086
2016.000000	33.629789
2015.000000	33.650499
2014.000000	33.623927
2013.000000	33.605986
2012.000000	33.620963
2011.000000	33.599440
2010.000000	33.533211
2009.000000	33.443086
2008.000000	33.416274
2007.000000	33.350615
2006.000000	33.288178
2005.000000	33.234960
2004.000000	33.132544
2003.000000	33.065561
2002.000000	33.058845
2001.000000	32.996652
2000.000000	32.898936
1999.000000	32.802574
1998.000000	32.756995
1997.000000	32.700019
1996.000000	32.615194
1995.000000	32.555968
1994.000000	32.451617
1993.000000	32.368978
1992.000000	32.264183
1991.000000	32.197708
1990.000000	32.147709
1989.000000	32.072550
1988.000000	31.969513
1987.000000	31.910480
1986.000000	31.812647
1985.000000	31.749273
1984.000000	31.709469
1983.000000	31.593896
1982.000000	31.507075
1981.000000	31.464674
1980.000000	31.393457
1979.000000	31.290405
1978.000000	31.188066
1977.000000	31.148553
1976.000000	31.035519
1975.000000	30.904371
1974.000000	30.837081
1973.000000	30.741647
1972.000000	30.717662
1971.000000	30.626212
1970.000000	30.571360
1969.000000	30.504540
1968.000000	30.401647
1967.000000	30.354722
1966.000000	30.328505
1965.000000	30.267370
1964.000000	30.120123
1963.000000	30.060648
1962.000000	29.964409
1961.000000	29.915837
1960.000000	29.914502
1959.000000	29.794394
1958.000000	29.723118
1957.000000	29.647513
1956.000000	29.591312
1955.000000	29.592123
1954.000000	29.494640
1953.000000	29.456773
1952.000000	29.414971
1951.000000	29.348185
1950.000000	29.386339
1949.000000	29.312804
1948.000000	29.278194
1947.000000	29.262083
1946.000000	29.250471
1945.000000	29.244920
1944.000000	29.249396
1943.000000	29.245562
1942.000000	29.178407
1941.000000	29.244778
1940.000000	29.270177
1939.000000	29.333341
1938.000000	29.395058
1937.000000	29.433372
1936.000000	29.481049
1935.000000	29.494804
1934.000000	29.642758
1933.000000	29.816229
1932.000000	29.887073
1931.000000	29.897360
1930.000000	30.133538
1929.000000	30.218849
1928.000000	30.269581
1927.000000	30.455874
1926.000000	30.643357
1925.000000	30.814280
1924.000000	30.981980
1923.000000	31.184447
1922.000000	31.383550
1921.000000	31.666123
1920.000000	31.772781
1919.000000	32.000588
1918.000000	32.277096
1917.000000	32.574101
1916.000000	32.610804
1915.000000	33.019803
1914.000000	33.305110
1913.000000	33.530629
1912.000000	33.841871
1911.000000	34.118976
1910.000000	34.446179
1909.000000	34.738038
1908.000000	34.996097
1907.000000	35.269337
1906.000000	35.612967
1905.000000	35.948602
1904.000000	36.284153
1903.000000	36.610754
1902.000000	36.898780
1901.000000	37.320472
1900.000000	37.720356
1899.000000	38.020761
1898.000000	38.473434
1897.000000	38.706435
1896.000000	39.090729
1895.000000	39.408576
1894.000000	39.655297
1893.000000	40.044258
1892.000000	40.304914
1891.000000	40.601632
1890.000000	40.895395
1889.000000	41.173547
1888.000000	41.426577
1887.000000	41.686725
1886.000000	41.979620
1885.000000	42.227212
1884.000000	42.501077
1883.000000	42.709453
1882.000000	42.836661
1881.000000	43.053031
1880.000000	43.255633
1879.000000	43.455552
1878.000000	43.657824
1877.000000	43.868176
1876.000000	44.032629
1875.000000	44.131426
1874.000000	44.293180
1873.000000	44.397077
1872.000000	44.576597
1871.000000	44.670241
1870.000000	44.775532
1869.000000	44.882233
1868.000000	45.002500
1867.000000	45.047835
1866.000000	45.105648
1865.000000	45.147187
1864.000000	45.199018
1863.000000	45.227015
1862.000000	45.253057
1861.000000	45.286212
1860.000000	45.342841
1859.000000	45.384427
1858.000000	45.385208
1857.000000	45.364522
1856.000000	45.415536
1855.000000	45.434749
1854.000000	45.455043
1853.000000	45.525792
1852.000000	45.523123
1851.000000	45.520198
1850.000000	45.566964
1849.000000	45.536176
1848.000000	45.551466
1847.000000	45.545540
1846.000000	45.568983
1845.000000	45.601785
1844.000000	45.528492
1843.000000	45.519155
1842.000000	45.536306
1841.000000	45.546362
1840.000000	45.530887
1839.000000	45.522417
1838.000000	45.559780
1837.000000	45.493002
1836.000000	45.443713
1835.000000	45.443730
1834.000000	45.426554
1833.000000	45.434179
1832.000000	45.406986
1831.000000	45.376108
1830.000000	45.405050
1829.000000	45.364124
1828.000000	45.324445
1827.000000	45.311896
1826.000000	45.280631
1825.000000	45.261752
1824.000000	45.252266
1823.000000	45.231640
1822.000000	45.218398
1821.000000	45.189989
1820.000000	45.163454
1819.000000	45.151547
1818.000000	45.144489
1817.000000	45.113648
1816.000000	45.102693
1815.000000	45.110957
1814.000000	45.090815
1813.000000	45.073242
1812.000000	45.065869
1811.000000	45.040420
1810.000000	45.049384
1809.000000	45.045628
1808.000000	45.022487
1807.000000	44.992415
1806.000000	44.960146
1805.000000	44.961302
1804.000000	44.949043
1803.000000	44.937210
1802.000000	44.917179
1801.000000	44.927676
1800.000000	44.925200
1799.000000	44.886952
1798.000000	44.884071
1797.000000	44.876427
1796.000000	44.864472
1795.000000	44.869729
1794.000000	44.890646
1793.000000	44.857983
1792.000000	44.829208
1791.000000	44.850637
1790.000000	44.858730
1789.000000	44.831801
1788.000000	44.823469
1787.000000	44.821843
1786.000000	44.789349
1785.000000	44.782866
1784.000000	44.791147
1783.000000	44.788171
1782.000000	44.768133
1781.000000	44.738604
1780.000000	44.714610
1779.000000	44.712625
1778.000000	44.699924
1777.000000	44.642013
1776.000000	44.630505
1775.000000	44.592777
1774.000000	44.565433
1773.000000	44.540077
1772.000000	44.498697
1771.000000	44.465721
1770.000000	44.482505
1769.000000	44.459257
1768.000000	44.401562
1767.000000	44.372540
1766.000000	44.345374
1765.000000	44.345279
1764.000000	44.346369
1763.000000	44.305202
1762.000000	44.250394
1761.000000	44.236994
1760.000000	44.192477
1759.000000	44.136248
1758.000000	44.104307
1757.000000	44.100295
1756.000000	44.070864
1755.000000	44.060226
1754.000000	44.012024
1753.000000	44.012621
1752.000000	43.976437
1751.000000	43.943900
1750.000000	43.944879
1749.000000	43.906818
1748.000000	43.858300
1747.000000	43.846135
1746.000000	43.837621
1745.000000	43.779411
1744.000000	43.752489
1743.000000	43.752153
1742.000000	43.721667
1741.000000	43.695763
1740.000000	43.616282
1739.000000	43.600186
1738.000000	43.613839
1737.000000	43.620841
1736.000000	43.573796
1735.000000	43.574309
1734.000000	43.575196
1733.000000	43.583609
1732.000000	43.554337
1731.000000	43.570780
1730.000000	43.595024
1729.000000	43.608036
1728.000000	43.679384
1727.000000	43.671265
1726.000000	43.690789
1725.000000	43.778359
1724.000000	43.816911
1723.000000	43.844683
1722.000000	43.925480
1721.000000	44.016959
1720.000000	44.050980
1719.000000	44.152184
1718.000000	44.206077
1717.000000	44.242732
1716.000000	44.290784
1715.000000	44.321911
1714.000000	44.380878
1713.000000	44.447198
1712.000000	44.490174
1711.000000	44.559513
1710.000000	44.578988
1709.000000	44.624229
1708.000000	44.646121
1707.000000	44.650292
1706.000000	44.699159
1705.000000	44.746595
1704.000000	44.799208
1703.000000	44.777373
1702.000000	44.801589
1701.000000	44.801526
1700.000000	44.829239
1699.000000	44.817238
1698.000000	44.877084
1697.000000	44.902021
1696.000000	44.960190
1695.000000	44.956178
1694.000000	44.928460
1693.000000	44.968535
1692.000000	45.023868
1691.000000	45.028120
1690.000000	45.079610
1689.000000	45.148474
1688.000000	45.223894
1687.000000	45.286497
1686.000000	45.317768
1685.000000	45.444484
1684.000000	45.484183
1683.000000	45.564571
1682.000000	45.700751
1681.000000	45.773887
1680.000000	45.809924
1679.000000	45.921250
1678.000000	46.018442
1677.000000	46.111441
1676.000000	46.219138
1675.000000	46.317869
1674.000000	46.380196
1673.000000	46.472366
1672.000000	46.541125
1671.000000	46.615282
1670.000000	46.726122
1669.000000	46.842493
1668.000000	46.907492
1667.000000	46.973940
1666.000000	47.007389
1665.000000	47.040317
1664.000000	47.087804
1663.000000	47.129307
1662.000000	47.194479
1661.000000	47.227157
1660.000000	47.259978
1659.000000	47.309083
1658.000000	47.345421
1657.000000	47.390382
1656.000000	47.406089
1655.000000	47.438767
1654.000000	47.463903
1653.000000	47.469096
1652.000000	47.461097
1651.000000	47.469772
1650.000000	47.478519
1649.000000	47.458730
1648.000000	47.442614
1647.000000	47.468786
1646.000000	47.470282
1645.000000	47.496885
1644.000000	47.487095
1643.000000	47.487029
1642.000000	47.445864
1641.000000	47.453633
1640.000000	47.437339
1639.000000	47.445956
1638.000000	47.461933
1637.000000	47.429486
1636.000000	47.393063
1635.000000	47.385117
1634.000000	47.377743
1633.000000	47.348539
1632.000000	47.347576
1631.000000	47.326392
1630.000000	47.273827
1629.000000	47.270744
1628.000000	47.265798
1627.000000	47.252868
1626.000000	47.255088
1625.000000	47.243905
1624.000000	47.224712
1623.000000	47.211922
1622.000000	47.186513
1621.000000	47.163233
1620.000000	47.137739
1619.000000	47.110415
1618.000000	47.079412
1617.000000	47.056107
1616.000000	47.030682
1615.000000	46.999945
1614.000000	46.987141
1613.000000	46.962227
1612.000000	46.930607
1611.000000	46.894105
1610.000000	46.878434
1609.000000	46.848275
1608.000000	46.820802
1607.000000	46.796739
1606.000000	46.763250
1605.000000	46.743308
1604.000000	46.716675
1603.000000	46.686167
1602.000000	46.661456
1601.000000	46.634924
1600.000000	46.593296
1599.000000	46.558601
1598.000000	46.533349
1597.000000	46.513358
1596.000000	46.501881
1595.000000	46.486337
1594.000000	46.463117
1593.000000	46.440000
1592.000000	46.409236
1591.000000	46.384055
1590.000000	46.366246
1589.000000	46.334911
1588.000000	46.296873
1587.000000	46.276811
1586.000000	46.271161
1585.000000	46.263869
1584.000000	46.236046
1583.000000	46.213896
1582.000000	46.205953
1581.000000	46.190221
1580.000000	46.171400
1579.000000	46.142605
1578.000000	46.137170
1577.000000	46.115165
1576.000000	46.083581
1575.000000	46.073492
1574.000000	46.048714
1573.000000	46.031860
1572.000000	46.025716
1571.000000	45.992687
1570.000000	45.964001
1569.000000	45.948691
1568.000000	45.945433
1567.000000	45.918327
1566.000000	45.890945
1565.000000	45.907138
1564.000000	45.898268
1563.000000	45.898943
1562.000000	45.886868
1561.000000	45.861674
1560.000000	45.841357
1559.000000	45.822567
1558.000000	45.827994
1557.000000	45.825279
1556.000000	45.811552
1555.000000	45.813288
1554.000000	45.781778
1553.000000	45.770738
1552.000000	45.775881
1551.000000	45.757774
1550.000000	45.729531
1549.000000	45.721024
1548.000000	45.698014
1547.000000	45.675154
1546.000000	45.652405
1545.000000	45.629013
1544.000000	45.569661
1543.000000	45.540653
1542.000000	45.523235
1541.000000	45.466589
1540.000000	45.417013
1539.000000	45.369614
1538.000000	45.337531
1537.000000	45.291238
1536.000000	45.228789
1535.000000	45.192672
1534.000000	45.168966
1533.000000	45.116998
1532.000000	45.083308
1531.000000	45.030903
1530.000000	44.988902
1529.000000	44.959642
1528.000000	44.921367
1527.000000	44.877889
1526.000000	44.850450
1525.000000	44.825417
1524.000000	44.791185
1523.000000	44.766420
1522.000000	44.736906
1521.000000	44.688321
1520.000000	44.669224
1519.000000	44.657523
1518.000000	44.648088
1517.000000	44.632995
1516.000000	44.600992
1515.000000	44.566886
1514.000000	44.574139
1513.000000	44.570080
1512.000000	44.545753
1511.000000	44.543145
1510.000000	44.531830
1509.000000	44.531443
1508.000000	44.506223
1507.000000	44.504581
1506.000000	44.501528
1505.000000	44.503243
1504.000000	44.499159
1503.000000	44.507667
1502.000000	44.485017
1501.000000	44.485421
1500.000000	44.499530
1499.000000	44.491714
1498.000000	44.513466
1497.000000	44.527822
1496.000000	44.538589
1495.000000	44.544878
1494.000000	44.546348
1493.000000	44.555108
1492.000000	44.574424
1491.000000	44.605241
1490.000000	44.634232
1489.000000	44.650662
1488.000000	44.691586
1487.000000	44.708267
1486.000000	44.724691
1485.000000	44.747806
1484.000000	44.790434
1483.000000	44.844168
1482.000000	44.832292
1481.000000	44.870632
1480.000000	44.912460
1479.000000	44.934766
1478.000000	44.961985
1477.000000	44.989027
1476.000000	45.012979
1475.000000	45.039734
1474.000000	45.086864
1473.000000	45.097767
1472.000000	45.127447
1471.000000	45.149908
1470.000000	45.192747
