PE UV       SUBTECH     SPECTRUM    ASCII       PEDS        4.00        
   -1
RDms1240112.Sample.asc
18/03/20
16:32:34.00
18/03/20
16:32:34.00
Administrator

200.000000
1
Lambda 750
750N8071901
PerkinElmer UV WinLab 6.0.4.0738 / 1.61.00 Lambda 900

0
0
3350/servo 860.8/2
0
0
UV/VIS
1
1
1
CommonBeamDepol,150mm sphere / downward view
0
0
0
0
Program
Program
3350/servo 860.8/2
3350/0.2 860.8/0.2
3350/0.2 860.8/0.2
0
1
 
 
 
0
 
860.8
319.2
860.8
Front
100
on
 
 
0
0
0
 
0
 
 
 
0
 
 
0
0
0
0
0
 
 
 
 
0
0


0
0
#HDR
-1
-1
#GR
nm
%R
1.0
0.0
2350.000000
-1.000000
2151
8
52.130205
11.288403
#DATA
2350.000000	30.845721
2349.000000	31.065970
2348.000000	30.769704
2347.000000	31.458251
2346.000000	31.203063
2345.000000	30.907774
2344.000000	30.724756
2343.000000	30.530956
2342.000000	30.328550
2341.000000	31.252932
2340.000000	30.787471
2339.000000	31.164018
2338.000000	31.279466
2337.000000	31.189228
2336.000000	31.266374
2335.000000	31.472276
2334.000000	31.477826
2333.000000	31.747087
2332.000000	31.449252
2331.000000	31.664798
2330.000000	31.459250
2329.000000	31.341119
2328.000000	31.626026
2327.000000	31.206221
2326.000000	31.197133
2325.000000	31.454867
2324.000000	31.403076
2323.000000	31.129605
2322.000000	31.061860
2321.000000	31.335544
2320.000000	31.210506
2319.000000	30.945724
2318.000000	31.049644
2317.000000	30.933589
2316.000000	30.987013
2315.000000	30.578262
2314.000000	30.755210
2313.000000	30.910344
2312.000000	30.710388
2311.000000	30.762756
2310.000000	30.965470
2309.000000	30.744097
2308.000000	30.717071
2307.000000	30.440320
2306.000000	30.518981
2305.000000	30.732041
2304.000000	30.354161
2303.000000	30.435651
2302.000000	30.514822
2301.000000	30.169707
2300.000000	30.511540
2299.000000	30.490411
2298.000000	30.151284
2297.000000	30.261460
2296.000000	30.123826
2295.000000	29.870129
2294.000000	29.951558
2293.000000	30.070247
2292.000000	30.068599
2291.000000	30.207733
2290.000000	30.110800
2289.000000	29.958748
2288.000000	29.928715
2287.000000	29.942158
2286.000000	29.894663
2285.000000	29.674497
2284.000000	29.747209
2283.000000	29.748165
2282.000000	29.829449
2281.000000	29.898890
2280.000000	29.908170
2279.000000	30.052307
2278.000000	30.211867
2277.000000	29.998785
2276.000000	30.024867
2275.000000	30.102193
2274.000000	30.157820
2273.000000	30.168740
2272.000000	30.088587
2271.000000	30.095848
2270.000000	30.229445
2269.000000	30.118883
2268.000000	30.161409
2267.000000	30.356120
2266.000000	30.579323
2265.000000	30.460738
2264.000000	30.597635
2263.000000	30.846689
2262.000000	30.868920
2261.000000	30.900926
2260.000000	30.943138
2259.000000	31.103829
2258.000000	31.284952
2257.000000	31.476662
2256.000000	31.585544
2255.000000	31.573748
2254.000000	31.652246
2253.000000	31.707644
2252.000000	31.775060
2251.000000	31.856997
2250.000000	32.059790
2249.000000	32.397172
2248.000000	32.501382
2247.000000	32.502164
2246.000000	32.589139
2245.000000	32.718486
2244.000000	32.877697
2243.000000	32.981934
2242.000000	33.069233
2241.000000	33.153850
2240.000000	33.205235
2239.000000	33.267299
2238.000000	33.337015
2237.000000	33.361689
2236.000000	33.486576
2235.000000	33.568710
2234.000000	33.727477
2233.000000	33.804894
2232.000000	33.705304
2231.000000	33.669954
2230.000000	33.763323
2229.000000	33.826234
2228.000000	33.870107
2227.000000	33.846511
2226.000000	33.839353
2225.000000	33.785026
2224.000000	33.818834
2223.000000	33.748786
2222.000000	33.679195
2221.000000	33.760015
2220.000000	33.757389
2219.000000	33.686003
2218.000000	33.631982
2217.000000	33.685633
2216.000000	33.665084
2215.000000	33.707058
2214.000000	33.873449
2213.000000	33.791483
2212.000000	33.650375
2211.000000	33.418269
2210.000000	33.374398
2209.000000	33.432196
2208.000000	33.415135
2207.000000	33.530294
2206.000000	33.338641
2205.000000	33.494451
2204.000000	33.354264
2203.000000	33.251556
2202.000000	33.255169
2201.000000	33.114952
2200.000000	33.158320
2199.000000	33.116317
2198.000000	33.150458
2197.000000	33.087635
2196.000000	33.000062
2195.000000	33.011852
2194.000000	32.906493
2193.000000	32.873844
2192.000000	32.891275
2191.000000	32.885688
2190.000000	32.929992
2189.000000	32.934207
2188.000000	32.781969
2187.000000	32.803843
2186.000000	32.891054
2185.000000	32.781540
2184.000000	32.719132
2183.000000	32.797374
2182.000000	32.647463
2181.000000	32.578145
2180.000000	32.615147
2179.000000	32.639182
2178.000000	32.599688
2177.000000	32.751131
2176.000000	32.907680
2175.000000	32.782358
2174.000000	32.701527
2173.000000	32.767163
2172.000000	32.902116
2171.000000	32.723393
2170.000000	32.975836
2169.000000	32.980177
2168.000000	33.165725
2167.000000	33.191531
2166.000000	33.180213
2165.000000	33.236778
2164.000000	33.448176
2163.000000	33.216198
2162.000000	33.547477
2161.000000	33.609101
2160.000000	33.707151
2159.000000	33.863485
2158.000000	33.650476
2157.000000	33.844511
2156.000000	34.016901
2155.000000	34.103587
2154.000000	34.294475
2153.000000	34.463138
2152.000000	34.410119
2151.000000	34.430246
2150.000000	34.605718
2149.000000	34.619018
2148.000000	34.569392
2147.000000	34.732525
2146.000000	34.969914
2145.000000	34.937805
2144.000000	35.190454
2143.000000	35.071749
2142.000000	35.043600
2141.000000	35.298274
2140.000000	35.452139
2139.000000	35.417742
2138.000000	35.474669
2137.000000	35.406377
2136.000000	35.623154
2135.000000	35.634016
2134.000000	35.920238
2133.000000	35.721889
2132.000000	35.978084
2131.000000	35.769854
2130.000000	36.058350
2129.000000	35.963266
2128.000000	35.792040
2127.000000	35.920353
2126.000000	35.992775
2125.000000	35.959768
2124.000000	36.139777
2123.000000	36.101085
2122.000000	36.163673
2121.000000	36.091206
2120.000000	36.136025
2119.000000	36.145262
2118.000000	36.197550
2117.000000	36.205472
2116.000000	36.240361
2115.000000	36.282090
2114.000000	36.266650
2113.000000	36.167611
2112.000000	36.330640
2111.000000	36.327949
2110.000000	36.349525
2109.000000	36.471805
2108.000000	36.469761
2107.000000	36.402234
2106.000000	36.427349
2105.000000	36.456399
2104.000000	36.329005
2103.000000	36.352899
2102.000000	36.457530
2101.000000	36.441385
2100.000000	36.501810
2099.000000	36.413680
2098.000000	36.431535
2097.000000	36.314623
2096.000000	36.317329
2095.000000	36.388724
2094.000000	36.358870
2093.000000	36.430415
2092.000000	36.426564
2091.000000	36.405778
2090.000000	36.260339
2089.000000	36.406684
2088.000000	36.296667
2087.000000	36.265699
2086.000000	36.345705
2085.000000	36.292225
2084.000000	36.290620
2083.000000	36.152717
2082.000000	36.138814
2081.000000	36.186763
2080.000000	36.104192
2079.000000	36.063500
2078.000000	35.895883
2077.000000	35.959548
2076.000000	35.953955
2075.000000	35.729448
2074.000000	35.730394
2073.000000	35.768997
2072.000000	35.735874
2071.000000	35.674291
2070.000000	35.566094
2069.000000	35.428881
2068.000000	35.415765
2067.000000	35.359391
2066.000000	35.281494
2065.000000	35.195419
2064.000000	35.142073
2063.000000	35.039277
2062.000000	34.976289
2061.000000	34.832239
2060.000000	34.752010
2059.000000	34.734777
2058.000000	34.716893
2057.000000	34.546020
2056.000000	34.467387
2055.000000	34.419672
2054.000000	34.319740
2053.000000	34.260809
2052.000000	34.189048
2051.000000	34.087078
2050.000000	34.022660
2049.000000	33.951597
2048.000000	33.928807
2047.000000	33.879607
2046.000000	33.877893
2045.000000	33.869786
2044.000000	33.861463
2043.000000	33.813623
2042.000000	33.883177
2041.000000	33.876925
2040.000000	33.874117
2039.000000	33.859234
2038.000000	33.883771
2037.000000	33.933461
2036.000000	33.965721
2035.000000	33.997507
2034.000000	34.033836
2033.000000	34.098781
2032.000000	34.146745
2031.000000	34.142304
2030.000000	34.214257
2029.000000	34.373003
2028.000000	34.473616
2027.000000	34.480894
2026.000000	34.501528
2025.000000	34.555546
2024.000000	34.595576
2023.000000	34.641983
2022.000000	34.672627
2021.000000	34.671421
2020.000000	34.716677
2019.000000	34.749297
2018.000000	34.749140
2017.000000	34.750221
2016.000000	34.746794
2015.000000	34.709223
2014.000000	34.702145
2013.000000	34.699682
2012.000000	34.658156
2011.000000	34.650746
2010.000000	34.633837
2009.000000	34.571089
2008.000000	34.527512
2007.000000	34.481865
2006.000000	34.408944
2005.000000	34.351984
2004.000000	34.304677
2003.000000	34.268136
2002.000000	34.223235
2001.000000	34.126590
2000.000000	34.097685
1999.000000	34.032720
1998.000000	33.980159
1997.000000	33.934118
1996.000000	33.854505
1995.000000	33.786115
1994.000000	33.706133
1993.000000	33.670421
1992.000000	33.559453
1991.000000	33.511343
1990.000000	33.455684
1989.000000	33.411933
1988.000000	33.321815
1987.000000	33.270898
1986.000000	33.230332
1985.000000	33.174482
1984.000000	33.097469
1983.000000	33.013937
1982.000000	32.933500
1981.000000	32.906928
1980.000000	32.851830
1979.000000	32.790826
1978.000000	32.692914
1977.000000	32.621409
1976.000000	32.556789
1975.000000	32.455785
1974.000000	32.415840
1973.000000	32.366102
1972.000000	32.296990
1971.000000	32.252134
1970.000000	32.221230
1969.000000	32.171544
1968.000000	32.059450
1967.000000	32.060404
1966.000000	32.007169
1965.000000	31.948541
1964.000000	31.813122
1963.000000	31.795850
1962.000000	31.734267
1961.000000	31.685426
1960.000000	31.670774
1959.000000	31.548592
1958.000000	31.499809
1957.000000	31.474692
1956.000000	31.417264
1955.000000	31.431439
1954.000000	31.346112
1953.000000	31.343420
1952.000000	31.255607
1951.000000	31.271012
1950.000000	31.211440
1949.000000	31.175288
1948.000000	31.220017
1947.000000	31.171445
1946.000000	31.147869
1945.000000	31.167701
1944.000000	31.106612
1943.000000	31.207312
1942.000000	31.191059
1941.000000	31.229272
1940.000000	31.243772
1939.000000	31.366626
1938.000000	31.314856
1937.000000	31.318823
1936.000000	31.416228
1935.000000	31.468120
1934.000000	31.554921
1933.000000	31.660307
1932.000000	31.738737
1931.000000	31.880505
1930.000000	31.944869
1929.000000	31.994233
1928.000000	32.183113
1927.000000	32.356099
1926.000000	32.386350
1925.000000	32.586412
1924.000000	32.697217
1923.000000	32.751670
1922.000000	33.016059
1921.000000	33.203177
1920.000000	33.280878
1919.000000	33.510480
1918.000000	33.660300
1917.000000	33.956461
1916.000000	33.940158
1915.000000	34.254887
1914.000000	34.532926
1913.000000	34.764536
1912.000000	35.023901
1911.000000	35.253788
1910.000000	35.467386
1909.000000	35.677270
1908.000000	35.871009
1907.000000	36.147296
1906.000000	36.356541
1905.000000	36.627764
1904.000000	36.914374
1903.000000	37.164954
1902.000000	37.444305
1901.000000	37.769743
1900.000000	38.020298
1899.000000	38.319816
1898.000000	38.688044
1897.000000	38.876243
1896.000000	39.134788
1895.000000	39.382303
1894.000000	39.635716
1893.000000	39.797489
1892.000000	40.044188
1891.000000	40.283613
1890.000000	40.576752
1889.000000	40.795580
1888.000000	41.048917
1887.000000	41.203873
1886.000000	41.409635
1885.000000	41.610161
1884.000000	41.743825
1883.000000	41.943250
1882.000000	42.092173
1881.000000	42.289772
1880.000000	42.438124
1879.000000	42.534641
1878.000000	42.737072
1877.000000	42.902644
1876.000000	42.976608
1875.000000	43.128613
1874.000000	43.207506
1873.000000	43.342817
1872.000000	43.456784
1871.000000	43.472563
1870.000000	43.598757
1869.000000	43.621616
1868.000000	43.685351
1867.000000	43.769075
1866.000000	43.831173
1865.000000	43.871320
1864.000000	43.876459
1863.000000	43.893160
1862.000000	43.970053
1861.000000	43.998819
1860.000000	44.034369
1859.000000	44.015769
1858.000000	44.009860
1857.000000	44.074615
1856.000000	44.096839
1855.000000	44.128719
1854.000000	44.139906
1853.000000	44.146211
1852.000000	44.137830
1851.000000	44.159725
1850.000000	44.152063
1849.000000	44.148019
1848.000000	44.137077
1847.000000	44.162410
1846.000000	44.190491
1845.000000	44.225676
1844.000000	44.202383
1843.000000	44.170699
1842.000000	44.171592
1841.000000	44.140042
1840.000000	44.139578
1839.000000	44.143464
1838.000000	44.107033
1837.000000	44.097274
1836.000000	44.066177
1835.000000	44.059864
1834.000000	44.018236
1833.000000	43.997130
1832.000000	44.016380
1831.000000	44.015831
1830.000000	43.990624
1829.000000	43.961019
1828.000000	43.949859
1827.000000	43.925555
1826.000000	43.950962
1825.000000	43.942928
1824.000000	43.925003
1823.000000	43.894538
1822.000000	43.867457
1821.000000	43.883555
1820.000000	43.862745
1819.000000	43.835420
1818.000000	43.845235
1817.000000	43.832083
1816.000000	43.816517
1815.000000	43.821504
1814.000000	43.796261
1813.000000	43.771766
1812.000000	43.786686
1811.000000	43.779579
1810.000000	43.765144
1809.000000	43.766805
1808.000000	43.746499
1807.000000	43.729982
1806.000000	43.720376
1805.000000	43.708691
1804.000000	43.695497
1803.000000	43.681156
1802.000000	43.683457
1801.000000	43.676798
1800.000000	43.663199
1799.000000	43.656378
1798.000000	43.663467
1797.000000	43.666030
1796.000000	43.633219
1795.000000	43.630181
1794.000000	43.658728
1793.000000	43.652539
1792.000000	43.641033
1791.000000	43.632445
1790.000000	43.621952
1789.000000	43.627715
1788.000000	43.635835
1787.000000	43.611324
1786.000000	43.608773
1785.000000	43.604925
1784.000000	43.601096
1783.000000	43.584644
1782.000000	43.581498
1781.000000	43.578934
1780.000000	43.555483
1779.000000	43.558714
1778.000000	43.562258
1777.000000	43.516753
1776.000000	43.480242
1775.000000	43.467533
1774.000000	43.430073
1773.000000	43.418905
1772.000000	43.374723
1771.000000	43.394498
1770.000000	43.366003
1769.000000	43.335103
1768.000000	43.304253
1767.000000	43.278776
1766.000000	43.258985
1765.000000	43.232033
1764.000000	43.253830
1763.000000	43.213747
1762.000000	43.190732
1761.000000	43.183871
1760.000000	43.130590
1759.000000	43.087237
1758.000000	43.082247
1757.000000	43.073196
1756.000000	43.069798
1755.000000	43.052629
1754.000000	42.992079
1753.000000	42.992885
1752.000000	42.983991
1751.000000	42.975845
1750.000000	42.940858
1749.000000	42.940639
1748.000000	42.908109
1747.000000	42.883594
1746.000000	42.871454
1745.000000	42.837111
1744.000000	42.814837
1743.000000	42.796371
1742.000000	42.718716
1741.000000	42.726913
1740.000000	42.736830
1739.000000	42.711062
1738.000000	42.671883
1737.000000	42.670887
1736.000000	42.631666
1735.000000	42.681697
1734.000000	42.682115
1733.000000	42.682296
1732.000000	42.654275
1731.000000	42.667232
1730.000000	42.713135
1729.000000	42.692012
1728.000000	42.732418
1727.000000	42.768086
1726.000000	42.786973
1725.000000	42.845205
1724.000000	42.852727
1723.000000	42.890456
1722.000000	42.971035
1721.000000	43.025381
1720.000000	43.085020
1719.000000	43.199696
1718.000000	43.180215
1717.000000	43.192404
1716.000000	43.244334
1715.000000	43.305296
1714.000000	43.364659
1713.000000	43.392884
1712.000000	43.411686
1711.000000	43.461185
1710.000000	43.508213
1709.000000	43.556284
1708.000000	43.606014
1707.000000	43.590904
1706.000000	43.621800
1705.000000	43.662695
1704.000000	43.711324
1703.000000	43.682933
1702.000000	43.695195
1701.000000	43.728005
1700.000000	43.742439
1699.000000	43.735773
1698.000000	43.770393
1697.000000	43.793706
1696.000000	43.852218
1695.000000	43.865344
1694.000000	43.855752
1693.000000	43.915748
1692.000000	43.934631
1691.000000	43.956186
1690.000000	44.000951
1689.000000	44.064902
1688.000000	44.095938
1687.000000	44.155228
1686.000000	44.224091
1685.000000	44.278910
1684.000000	44.365441
1683.000000	44.461454
1682.000000	44.525882
1681.000000	44.573600
1680.000000	44.634803
1679.000000	44.707358
1678.000000	44.799914
1677.000000	44.852701
1676.000000	44.960460
1675.000000	45.036495
1674.000000	45.074931
1673.000000	45.157491
1672.000000	45.235447
1671.000000	45.259508
1670.000000	45.329082
1669.000000	45.419558
1668.000000	45.466173
1667.000000	45.550620
1666.000000	45.596812
1665.000000	45.595957
1664.000000	45.643527
1663.000000	45.633010
1662.000000	45.701551
1661.000000	45.769949
1660.000000	45.770977
1659.000000	45.815223
1658.000000	45.848351
1657.000000	45.861134
1656.000000	45.875542
1655.000000	45.912334
1654.000000	45.946366
1653.000000	45.939766
1652.000000	45.951288
1651.000000	45.942240
1650.000000	45.952929
1649.000000	45.941487
1648.000000	45.942970
1647.000000	45.962653
1646.000000	45.929560
1645.000000	45.930825
1644.000000	45.950196
1643.000000	45.934683
1642.000000	45.927534
1641.000000	45.914488
1640.000000	45.909464
1639.000000	45.917082
1638.000000	45.927514
1637.000000	45.924857
1636.000000	45.909292
1635.000000	45.897634
1634.000000	45.861418
1633.000000	45.834171
1632.000000	45.837825
1631.000000	45.819020
1630.000000	45.808219
1629.000000	45.803710
1628.000000	45.780475
1627.000000	45.788288
1626.000000	45.794816
1625.000000	45.766210
1624.000000	45.745003
1623.000000	45.743475
1622.000000	45.730674
1621.000000	45.689403
1620.000000	45.668319
1619.000000	45.664551
1618.000000	45.647927
1617.000000	45.647726
1616.000000	45.626353
1615.000000	45.589253
1614.000000	45.578871
1613.000000	45.574940
1612.000000	45.551460
1611.000000	45.524642
1610.000000	45.503466
1609.000000	45.501179
1608.000000	45.480844
1607.000000	45.449919
1606.000000	45.411324
1605.000000	45.416355
1604.000000	45.402913
1603.000000	45.366566
1602.000000	45.350075
1601.000000	45.315414
1600.000000	45.286149
1599.000000	45.288173
1598.000000	45.275312
1597.000000	45.258652
1596.000000	45.237457
1595.000000	45.227226
1594.000000	45.228080
1593.000000	45.204980
1592.000000	45.178770
1591.000000	45.143605
1590.000000	45.123765
1589.000000	45.130237
1588.000000	45.105097
1587.000000	45.087945
1586.000000	45.087064
1585.000000	45.063453
1584.000000	45.046656
1583.000000	45.051022
1582.000000	45.029040
1581.000000	45.003778
1580.000000	44.989478
1579.000000	44.991702
1578.000000	44.991889
1577.000000	44.972609
1576.000000	44.956119
1575.000000	44.947660
1574.000000	44.922087
1573.000000	44.902376
1572.000000	44.901786
1571.000000	44.884116
1570.000000	44.857498
1569.000000	44.858630
1568.000000	44.852554
1567.000000	44.837152
1566.000000	44.823780
1565.000000	44.823191
1564.000000	44.809340
1563.000000	44.801838
1562.000000	44.791522
1561.000000	44.791310
1560.000000	44.788486
1559.000000	44.777049
1558.000000	44.775842
1557.000000	44.775528
1556.000000	44.768722
1555.000000	44.785133
1554.000000	44.764273
1553.000000	44.739992
1552.000000	44.723808
1551.000000	44.701576
1550.000000	44.704866
1549.000000	44.682048
1548.000000	44.681624
1547.000000	44.654363
1546.000000	44.635065
1545.000000	44.615436
1544.000000	44.571641
1543.000000	44.548151
1542.000000	44.527350
1541.000000	44.473943
1540.000000	44.467653
1539.000000	44.431796
1538.000000	44.401167
1537.000000	44.365533
1536.000000	44.326145
1535.000000	44.294811
1534.000000	44.275497
1533.000000	44.251231
1532.000000	44.194594
1531.000000	44.162554
1530.000000	44.128677
1529.000000	44.114684
1528.000000	44.079917
1527.000000	44.053466
1526.000000	44.015767
1525.000000	44.013054
1524.000000	43.977156
1523.000000	43.973152
1522.000000	43.925138
1521.000000	43.918531
1520.000000	43.896193
1519.000000	43.889884
1518.000000	43.875519
1517.000000	43.851114
1516.000000	43.834317
1515.000000	43.845073
1514.000000	43.807227
1513.000000	43.797437
1512.000000	43.785208
1511.000000	43.795428
1510.000000	43.794285
1509.000000	43.771268
1508.000000	43.782855
1507.000000	43.773310
1506.000000	43.765734
1505.000000	43.778637
1504.000000	43.778382
1503.000000	43.782409
1502.000000	43.773446
1501.000000	43.762986
1500.000000	43.763552
1499.000000	43.785353
1498.000000	43.820524
1497.000000	43.789591
1496.000000	43.808102
1495.000000	43.834154
1494.000000	43.829974
1493.000000	43.858986
1492.000000	43.865456
1491.000000	43.891923
1490.000000	43.912865
1489.000000	43.935716
1488.000000	43.952226
1487.000000	43.982848
1486.000000	43.981658
1485.000000	44.034349
1484.000000	44.064848
1483.000000	44.073628
1482.000000	44.079136
1481.000000	44.143038
1480.000000	44.148732
1479.000000	44.163628
1478.000000	44.182403
1477.000000	44.217854
1476.000000	44.228481
1475.000000	44.270567
1474.000000	44.289142
1473.000000	44.341270
1472.000000	44.345771
1471.000000	44.342805
1470.000000	44.376704
