PE UV       SUBTECH     SPECTRUM    ASCII       PEDS        4.00        
   -1
RDms148362.Sample.asc
18/03/20
10:46:19.00
18/03/20
10:46:19.00
Administrator

200.000000
1
Lambda 750
750N8071901
PerkinElmer UV WinLab 6.0.4.0738 / 1.61.00 Lambda 900

0
0
3350/servo 860.8/2
0
0
UV/VIS
1
1
1
CommonBeamDepol,150mm sphere / downward view
0
0
0
0
Program
Program
3350/servo 860.8/2
3350/0.2 860.8/0.2
3350/0.2 860.8/0.2
0
1
 
 
 
0
 
860.8
319.2
860.8
Front
100
on
 
 
0
0
0
 
0
 
 
 
0
 
 
0
0
0
0
0
 
 
 
 
0
0


0
0
#HDR
-1
-1
#GR
nm
%R
1.0
0.0
2350.000000
-1.000000
2151
8
57.913045
9.364404
#DATA
2350.000000	29.540657
2349.000000	29.772224
2348.000000	29.313952
2347.000000	30.022495
2346.000000	29.310577
2345.000000	29.872726
2344.000000	29.688653
2343.000000	29.519804
2342.000000	29.919859
2341.000000	29.813566
2340.000000	29.900268
2339.000000	29.805604
2338.000000	30.347111
2337.000000	30.551473
2336.000000	30.356156
2335.000000	30.291137
2334.000000	30.467182
2333.000000	30.603040
2332.000000	30.457569
2331.000000	30.447011
2330.000000	30.142275
2329.000000	30.387481
2328.000000	30.406998
2327.000000	30.409263
2326.000000	30.492901
2325.000000	30.337400
2324.000000	30.228511
2323.000000	30.123077
2322.000000	29.931308
2321.000000	29.781464
2320.000000	30.145749
2319.000000	30.133646
2318.000000	30.042467
2317.000000	30.068121
2316.000000	29.536837
2315.000000	29.413907
2314.000000	29.370339
2313.000000	29.667568
2312.000000	29.516201
2311.000000	29.518457
2310.000000	29.390343
2309.000000	29.403581
2308.000000	29.296771
2307.000000	29.160930
2306.000000	29.312671
2305.000000	29.349449
2304.000000	29.404463
2303.000000	29.126773
2302.000000	28.981987
2301.000000	29.069637
2300.000000	29.002227
2299.000000	28.720624
2298.000000	28.768214
2297.000000	28.640445
2296.000000	28.743954
2295.000000	28.698578
2294.000000	28.767796
2293.000000	28.536951
2292.000000	28.506444
2291.000000	28.634308
2290.000000	28.673136
2289.000000	28.504768
2288.000000	28.584200
2287.000000	28.611963
2286.000000	28.583368
2285.000000	28.554794
2284.000000	28.407621
2283.000000	28.330110
2282.000000	28.485368
2281.000000	28.534452
2280.000000	28.437883
2279.000000	28.501170
2278.000000	28.523646
2277.000000	28.582638
2276.000000	28.572745
2275.000000	28.526984
2274.000000	28.624693
2273.000000	28.736779
2272.000000	28.716907
2271.000000	28.798760
2270.000000	28.943657
2269.000000	28.867076
2268.000000	28.975864
2267.000000	29.214557
2266.000000	29.179950
2265.000000	29.227032
2264.000000	29.552433
2263.000000	29.621923
2262.000000	29.494484
2261.000000	29.755581
2260.000000	29.955909
2259.000000	30.176044
2258.000000	30.467088
2257.000000	30.617778
2256.000000	30.654274
2255.000000	30.750317
2254.000000	31.001375
2253.000000	31.178929
2252.000000	31.247914
2251.000000	31.500495
2250.000000	31.649441
2249.000000	31.839005
2248.000000	32.042390
2247.000000	32.223904
2246.000000	32.379299
2245.000000	32.456803
2244.000000	32.649861
2243.000000	32.886918
2242.000000	33.114444
2241.000000	33.241243
2240.000000	33.301512
2239.000000	33.351447
2238.000000	33.447769
2237.000000	33.725889
2236.000000	33.820093
2235.000000	33.773574
2234.000000	33.878857
2233.000000	33.970915
2232.000000	33.992134
2231.000000	34.040772
2230.000000	34.183240
2229.000000	34.372768
2228.000000	34.396343
2227.000000	34.244280
2226.000000	34.103385
2225.000000	34.180988
2224.000000	34.151314
2223.000000	34.012773
2222.000000	34.142472
2221.000000	34.130985
2220.000000	34.192467
2219.000000	34.220083
2218.000000	34.012121
2217.000000	34.069269
2216.000000	34.181654
2215.000000	34.095885
2214.000000	33.990782
2213.000000	33.913402
2212.000000	33.866531
2211.000000	33.859627
2210.000000	33.732427
2209.000000	33.645520
2208.000000	33.730888
2207.000000	33.799669
2206.000000	33.539032
2205.000000	33.535745
2204.000000	33.559585
2203.000000	33.398897
2202.000000	33.253954
2201.000000	33.339104
2200.000000	33.221685
2199.000000	33.176285
2198.000000	33.200673
2197.000000	33.131399
2196.000000	32.892975
2195.000000	32.923642
2194.000000	32.774087
2193.000000	32.566290
2192.000000	32.648035
2191.000000	32.743383
2190.000000	32.630627
2189.000000	32.570778
2188.000000	32.534710
2187.000000	32.513467
2186.000000	32.552418
2185.000000	32.470436
2184.000000	32.528473
2183.000000	32.499749
2182.000000	32.442329
2181.000000	32.369886
2180.000000	32.354496
2179.000000	32.311023
2178.000000	32.179658
2177.000000	32.293509
2176.000000	32.140777
2175.000000	32.208310
2174.000000	32.375960
2173.000000	32.379894
2172.000000	32.347909
2171.000000	32.421569
2170.000000	32.549624
2169.000000	32.497599
2168.000000	32.780843
2167.000000	32.754211
2166.000000	32.851998
2165.000000	33.047236
2164.000000	33.053275
2163.000000	33.119588
2162.000000	33.044832
2161.000000	33.154584
2160.000000	33.439465
2159.000000	33.570985
2158.000000	33.547316
2157.000000	33.710393
2156.000000	33.786191
2155.000000	33.995831
2154.000000	34.152905
2153.000000	34.390913
2152.000000	34.474795
2151.000000	34.435292
2150.000000	34.496983
2149.000000	34.727017
2148.000000	34.832952
2147.000000	34.864021
2146.000000	35.131799
2145.000000	35.195950
2144.000000	35.244838
2143.000000	35.400989
2142.000000	35.449181
2141.000000	35.746101
2140.000000	35.840000
2139.000000	35.750153
2138.000000	36.041936
2137.000000	36.158603
2136.000000	36.233477
2135.000000	36.361067
2134.000000	36.421398
2133.000000	36.172714
2132.000000	36.612021
2131.000000	36.592985
2130.000000	36.723900
2129.000000	36.615643
2128.000000	36.723799
2127.000000	36.619707
2126.000000	36.591793
2125.000000	36.815297
2124.000000	37.005940
2123.000000	36.980290
2122.000000	37.045534
2121.000000	36.973615
2120.000000	37.078800
2119.000000	37.133982
2118.000000	37.068169
2117.000000	37.064129
2116.000000	37.085442
2115.000000	37.228309
2114.000000	37.200999
2113.000000	37.067056
2112.000000	37.188750
2111.000000	37.207338
2110.000000	37.200686
2109.000000	37.243201
2108.000000	37.363902
2107.000000	37.318111
2106.000000	37.434331
2105.000000	37.332144
2104.000000	37.394518
2103.000000	37.414711
2102.000000	37.423344
2101.000000	37.430546
2100.000000	37.560432
2099.000000	37.459999
2098.000000	37.431222
2097.000000	37.414569
2096.000000	37.405231
2095.000000	37.335507
2094.000000	37.384926
2093.000000	37.398192
2092.000000	37.435350
2091.000000	37.376710
2090.000000	37.324321
2089.000000	37.340772
2088.000000	37.342674
2087.000000	37.296475
2086.000000	37.261885
2085.000000	37.292887
2084.000000	37.197579
2083.000000	37.174981
2082.000000	37.091277
2081.000000	37.018671
2080.000000	37.059437
2079.000000	36.952189
2078.000000	36.789069
2077.000000	36.779288
2076.000000	36.730857
2075.000000	36.589277
2074.000000	36.555258
2073.000000	36.521392
2072.000000	36.375878
2071.000000	36.261960
2070.000000	36.111013
2069.000000	36.037658
2068.000000	35.938974
2067.000000	35.878520
2066.000000	35.753324
2065.000000	35.622584
2064.000000	35.522135
2063.000000	35.387750
2062.000000	35.222828
2061.000000	35.164386
2060.000000	35.025331
2059.000000	34.895352
2058.000000	34.755487
2057.000000	34.670807
2056.000000	34.501023
2055.000000	34.384124
2054.000000	34.327639
2053.000000	34.217153
2052.000000	34.090460
2051.000000	34.014138
2050.000000	33.859820
2049.000000	33.803550
2048.000000	33.754319
2047.000000	33.682114
2046.000000	33.638546
2045.000000	33.578428
2044.000000	33.536522
2043.000000	33.574981
2042.000000	33.611904
2041.000000	33.626582
2040.000000	33.644018
2039.000000	33.601793
2038.000000	33.635121
2037.000000	33.680146
2036.000000	33.737680
2035.000000	33.789887
2034.000000	33.858094
2033.000000	33.970818
2032.000000	34.031944
2031.000000	34.106400
2030.000000	34.212330
2029.000000	34.325437
2028.000000	34.410932
2027.000000	34.496721
2026.000000	34.611611
2025.000000	34.683784
2024.000000	34.716089
2023.000000	34.766496
2022.000000	34.869208
2021.000000	34.916105
2020.000000	34.932135
2019.000000	35.000183
2018.000000	35.061516
2017.000000	35.050317
2016.000000	35.028715
2015.000000	34.992192
2014.000000	34.982161
2013.000000	34.966252
2012.000000	34.965564
2011.000000	34.953421
2010.000000	34.878545
2009.000000	34.807846
2008.000000	34.776559
2007.000000	34.681882
2006.000000	34.620152
2005.000000	34.579235
2004.000000	34.500009
2003.000000	34.392954
2002.000000	34.315269
2001.000000	34.236691
2000.000000	34.171428
1999.000000	34.086564
1998.000000	33.995396
1997.000000	33.926094
1996.000000	33.857045
1995.000000	33.735716
1994.000000	33.650640
1993.000000	33.612884
1992.000000	33.482115
1991.000000	33.392094
1990.000000	33.299916
1989.000000	33.225958
1988.000000	33.144969
1987.000000	33.050645
1986.000000	32.933021
1985.000000	32.883282
1984.000000	32.791745
1983.000000	32.709178
1982.000000	32.654644
1981.000000	32.554844
1980.000000	32.451357
1979.000000	32.318661
1978.000000	32.236324
1977.000000	32.131268
1976.000000	32.038743
1975.000000	31.981301
1974.000000	31.891597
1973.000000	31.784482
1972.000000	31.705496
1971.000000	31.645593
1970.000000	31.516794
1969.000000	31.463488
1968.000000	31.391947
1967.000000	31.347343
1966.000000	31.271360
1965.000000	31.188181
1964.000000	31.056033
1963.000000	30.958664
1962.000000	30.894486
1961.000000	30.786374
1960.000000	30.772031
1959.000000	30.656356
1958.000000	30.599324
1957.000000	30.529446
1956.000000	30.479669
1955.000000	30.454553
1954.000000	30.364507
1953.000000	30.334401
1952.000000	30.268411
1951.000000	30.328836
1950.000000	30.177715
1949.000000	30.184628
1948.000000	30.114024
1947.000000	30.187160
1946.000000	30.175886
1945.000000	30.099299
1944.000000	30.091630
1943.000000	30.191680
1942.000000	30.153351
1941.000000	30.130688
1940.000000	30.212112
1939.000000	30.310516
1938.000000	30.328620
1937.000000	30.396851
1936.000000	30.514139
1935.000000	30.546935
1934.000000	30.608624
1933.000000	30.762429
1932.000000	30.843173
1931.000000	30.983722
1930.000000	31.160475
1929.000000	31.280807
1928.000000	31.485730
1927.000000	31.676856
1926.000000	31.828285
1925.000000	31.983226
1924.000000	32.283924
1923.000000	32.426804
1922.000000	32.665628
1921.000000	32.932243
1920.000000	33.175766
1919.000000	33.419759
1918.000000	33.679491
1917.000000	34.027537
1916.000000	34.186762
1915.000000	34.523509
1914.000000	34.880707
1913.000000	35.195633
1912.000000	35.451279
1911.000000	35.757535
1910.000000	36.098709
1909.000000	36.495164
1908.000000	36.771349
1907.000000	37.208256
1906.000000	37.510505
1905.000000	37.906075
1904.000000	38.310323
1903.000000	38.658061
1902.000000	39.114420
1901.000000	39.566524
1900.000000	39.947504
1899.000000	40.335541
1898.000000	40.693434
1897.000000	41.067059
1896.000000	41.452824
1895.000000	41.806264
1894.000000	42.247482
1893.000000	42.570974
1892.000000	42.943027
1891.000000	43.297999
1890.000000	43.634848
1889.000000	43.983485
1888.000000	44.299813
1887.000000	44.623027
1886.000000	44.991825
1885.000000	45.295564
1884.000000	45.526791
1883.000000	45.817333
1882.000000	46.036983
1881.000000	46.259747
1880.000000	46.482628
1879.000000	46.640099
1878.000000	46.859855
1877.000000	47.061257
1876.000000	47.261696
1875.000000	47.484208
1874.000000	47.561504
1873.000000	47.692521
1872.000000	47.869927
1871.000000	47.952200
1870.000000	48.043037
1869.000000	48.135155
1868.000000	48.260590
1867.000000	48.271769
1866.000000	48.347179
1865.000000	48.461365
1864.000000	48.472105
1863.000000	48.502065
1862.000000	48.571469
1861.000000	48.625795
1860.000000	48.693928
1859.000000	48.704002
1858.000000	48.731854
1857.000000	48.725377
1856.000000	48.823852
1855.000000	48.865002
1854.000000	48.839665
1853.000000	48.883879
1852.000000	48.854377
1851.000000	48.895365
1850.000000	48.928575
1849.000000	48.907688
1848.000000	48.850530
1847.000000	48.884183
1846.000000	48.912800
1845.000000	48.882564
1844.000000	48.867878
1843.000000	48.876785
1842.000000	48.866628
1841.000000	48.847211
1840.000000	48.809317
1839.000000	48.820375
1838.000000	48.793568
1837.000000	48.725739
1836.000000	48.700059
1835.000000	48.663733
1834.000000	48.636714
1833.000000	48.634982
1832.000000	48.567551
1831.000000	48.543697
1830.000000	48.526766
1829.000000	48.472338
1828.000000	48.452290
1827.000000	48.443992
1826.000000	48.422959
1825.000000	48.413835
1824.000000	48.401343
1823.000000	48.376751
1822.000000	48.344431
1821.000000	48.359555
1820.000000	48.343786
1819.000000	48.289335
1818.000000	48.268122
1817.000000	48.269801
1816.000000	48.237537
1815.000000	48.219588
1814.000000	48.206454
1813.000000	48.184247
1812.000000	48.186818
1811.000000	48.191459
1810.000000	48.179802
1809.000000	48.174104
1808.000000	48.140148
1807.000000	48.106039
1806.000000	48.113927
1805.000000	48.108194
1804.000000	48.081349
1803.000000	48.065795
1802.000000	48.048346
1801.000000	48.049542
1800.000000	48.046124
1799.000000	48.027191
1798.000000	48.004649
1797.000000	48.000492
1796.000000	47.990634
1795.000000	47.988848
1794.000000	47.986101
1793.000000	47.975976
1792.000000	47.966457
1791.000000	47.968340
1790.000000	47.972838
1789.000000	47.968121
1788.000000	47.988128
1787.000000	47.973382
1786.000000	47.949665
1785.000000	47.904033
1784.000000	47.898595
1783.000000	47.916446
1782.000000	47.885214
1781.000000	47.858018
1780.000000	47.831963
1779.000000	47.810024
1778.000000	47.775775
1777.000000	47.735046
1776.000000	47.704849
1775.000000	47.661245
1774.000000	47.616626
1773.000000	47.562363
1772.000000	47.513646
1771.000000	47.496225
1770.000000	47.427567
1769.000000	47.377365
1768.000000	47.372740
1767.000000	47.326915
1766.000000	47.344057
1765.000000	47.283082
1764.000000	47.276577
1763.000000	47.211888
1762.000000	47.149167
1761.000000	47.123584
1760.000000	47.065103
1759.000000	47.061605
1758.000000	47.042878
1757.000000	46.997383
1756.000000	46.972079
1755.000000	46.922190
1754.000000	46.868425
1753.000000	46.877348
1752.000000	46.851793
1751.000000	46.826884
1750.000000	46.757457
1749.000000	46.750325
1748.000000	46.702157
1747.000000	46.648385
1746.000000	46.646889
1745.000000	46.561118
1744.000000	46.531185
1743.000000	46.484191
1742.000000	46.441234
1741.000000	46.432425
1740.000000	46.363381
1739.000000	46.345719
1738.000000	46.317615
1737.000000	46.265609
1736.000000	46.265185
1735.000000	46.219876
1734.000000	46.239356
1733.000000	46.240696
1732.000000	46.199232
1731.000000	46.227182
1730.000000	46.189379
1729.000000	46.203066
1728.000000	46.268147
1727.000000	46.283031
1726.000000	46.358137
1725.000000	46.395230
1724.000000	46.499621
1723.000000	46.538495
1722.000000	46.612352
1721.000000	46.701649
1720.000000	46.738206
1719.000000	46.867476
1718.000000	46.885236
1717.000000	46.936737
1716.000000	47.003106
1715.000000	47.090705
1714.000000	47.157401
1713.000000	47.245527
1712.000000	47.296237
1711.000000	47.363606
1710.000000	47.396618
1709.000000	47.468647
1708.000000	47.507955
1707.000000	47.510070
1706.000000	47.568258
1705.000000	47.588746
1704.000000	47.617087
1703.000000	47.656993
1702.000000	47.675952
1701.000000	47.702068
1700.000000	47.767146
1699.000000	47.751938
1698.000000	47.775293
1697.000000	47.785550
1696.000000	47.831531
1695.000000	47.905336
1694.000000	47.914979
1693.000000	47.963545
1692.000000	47.980175
1691.000000	48.053342
1690.000000	48.107664
1689.000000	48.190235
1688.000000	48.238956
1687.000000	48.304377
1686.000000	48.418184
1685.000000	48.500436
1684.000000	48.598781
1683.000000	48.707698
1682.000000	48.822266
1681.000000	48.927851
1680.000000	49.002187
1679.000000	49.120697
1678.000000	49.235521
1677.000000	49.322283
1676.000000	49.448476
1675.000000	49.575669
1674.000000	49.666960
1673.000000	49.780429
1672.000000	49.905752
1671.000000	50.006557
1670.000000	50.105106
1669.000000	50.201168
1668.000000	50.284253
1667.000000	50.387088
1666.000000	50.420750
1665.000000	50.460632
1664.000000	50.527040
1663.000000	50.574143
1662.000000	50.638273
1661.000000	50.660658
1660.000000	50.714859
1659.000000	50.777356
1658.000000	50.823623
1657.000000	50.844354
1656.000000	50.871499
1655.000000	50.900261
1654.000000	50.907835
1653.000000	50.907246
1652.000000	50.946281
1651.000000	50.917520
1650.000000	50.926132
1649.000000	50.915347
1648.000000	50.886388
1647.000000	50.914363
1646.000000	50.914966
1645.000000	50.878936
1644.000000	50.890644
1643.000000	50.887126
1642.000000	50.859984
1641.000000	50.857245
1640.000000	50.840230
1639.000000	50.839722
1638.000000	50.819312
1637.000000	50.806659
1636.000000	50.770728
1635.000000	50.764807
1634.000000	50.767943
1633.000000	50.733061
1632.000000	50.716394
1631.000000	50.683490
1630.000000	50.672830
1629.000000	50.647431
1628.000000	50.634092
1627.000000	50.620801
1626.000000	50.602903
1625.000000	50.574077
1624.000000	50.548419
1623.000000	50.529806
1622.000000	50.499684
1621.000000	50.463482
1620.000000	50.446704
1619.000000	50.419684
1618.000000	50.402551
1617.000000	50.387487
1616.000000	50.351979
1615.000000	50.317720
1614.000000	50.291152
1613.000000	50.252434
1612.000000	50.239469
1611.000000	50.209146
1610.000000	50.173280
1609.000000	50.142463
1608.000000	50.114678
1607.000000	50.089898
1606.000000	50.037732
1605.000000	50.004114
1604.000000	49.975213
1603.000000	49.947126
1602.000000	49.920558
1601.000000	49.882969
1600.000000	49.854940
1599.000000	49.831831
1598.000000	49.796575
1597.000000	49.767115
1596.000000	49.733146
1595.000000	49.685811
1594.000000	49.677233
1593.000000	49.684564
1592.000000	49.646989
1591.000000	49.600032
1590.000000	49.571369
1589.000000	49.541773
1588.000000	49.508666
1587.000000	49.503517
1586.000000	49.499335
1585.000000	49.474578
1584.000000	49.438149
1583.000000	49.410540
1582.000000	49.395643
1581.000000	49.378710
1580.000000	49.344091
1579.000000	49.318204
1578.000000	49.311851
1577.000000	49.277013
1576.000000	49.247014
1575.000000	49.227620
1574.000000	49.184514
1573.000000	49.175693
1572.000000	49.147369
1571.000000	49.130144
1570.000000	49.102291
1569.000000	49.069453
1568.000000	49.057328
1567.000000	49.023747
1566.000000	49.014172
1565.000000	49.001300
1564.000000	48.983212
1563.000000	48.977733
1562.000000	48.946158
1561.000000	48.918696
1560.000000	48.915489
1559.000000	48.894028
1558.000000	48.885506
1557.000000	48.880612
1556.000000	48.858025
1555.000000	48.865269
1554.000000	48.858358
1553.000000	48.814621
1552.000000	48.802772
1551.000000	48.772999
1550.000000	48.736822
1549.000000	48.728435
1548.000000	48.698545
1547.000000	48.669696
1546.000000	48.641820
1545.000000	48.605796
1544.000000	48.544010
1543.000000	48.490350
1542.000000	48.440273
1541.000000	48.400967
1540.000000	48.366316
1539.000000	48.306407
1538.000000	48.239084
1537.000000	48.174091
1536.000000	48.128717
1535.000000	48.078235
1534.000000	48.049285
1533.000000	47.992056
1532.000000	47.920999
1531.000000	47.868269
1530.000000	47.825690
1529.000000	47.787193
1528.000000	47.749199
1527.000000	47.704802
1526.000000	47.657677
1525.000000	47.630555
1524.000000	47.579965
1523.000000	47.542880
1522.000000	47.517760
1521.000000	47.490358
1520.000000	47.455089
1519.000000	47.439279
1518.000000	47.426175
1517.000000	47.391296
1516.000000	47.349572
1515.000000	47.365454
1514.000000	47.344446
1513.000000	47.337551
1512.000000	47.309214
1511.000000	47.289147
1510.000000	47.303257
1509.000000	47.256470
1508.000000	47.257713
1507.000000	47.265400
1506.000000	47.239127
1505.000000	47.274602
1504.000000	47.254208
1503.000000	47.273763
1502.000000	47.261430
1501.000000	47.241895
1500.000000	47.274121
1499.000000	47.264406
1498.000000	47.289876
1497.000000	47.292750
1496.000000	47.306124
1495.000000	47.326933
1494.000000	47.315572
1493.000000	47.362696
1492.000000	47.367181
1491.000000	47.382862
1490.000000	47.424582
1489.000000	47.447243
1488.000000	47.457992
1487.000000	47.505401
1486.000000	47.507237
1485.000000	47.546584
1484.000000	47.584597
1483.000000	47.631939
1482.000000	47.661375
1481.000000	47.696456
1480.000000	47.727132
1479.000000	47.760653
1478.000000	47.795951
1477.000000	47.831296
1476.000000	47.860908
1475.000000	47.921005
1474.000000	47.927330
1473.000000	47.992791
1472.000000	48.016019
1471.000000	48.007316
1470.000000	48.066446
