PE UV       SUBTECH     SPECTRUM    ASCII       PEDS        4.00        
   -1
RDmsmeh82.Sample.asc
18/03/20
12:31:01.00
18/03/20
12:31:01.00
Administrator

200.000000
1
Lambda 750
750N8071901
PerkinElmer UV WinLab 6.0.4.0738 / 1.61.00 Lambda 900

0
0
3350/servo 860.8/2
0
0
UV/VIS
1
1
1
CommonBeamDepol,150mm sphere / downward view
0
0
0
0
Program
Program
3350/servo 860.8/2
3350/0.2 860.8/0.2
3350/0.2 860.8/0.2
0
1
 
 
 
0
 
860.8
319.2
860.8
Front
100
on
 
 
0
0
0
 
0
 
 
 
0
 
 
0
0
0
0
0
 
 
 
 
0
0


0
0
#HDR
-1
-1
#GR
nm
%R
1.0
0.0
2350.000000
-1.000000
2151
8
53.681218
8.414645
#DATA
2350.000000	34.929187
2349.000000	35.055031
2348.000000	34.723017
2347.000000	35.705519
2346.000000	35.309656
2345.000000	35.393358
2344.000000	34.831917
2343.000000	34.945938
2342.000000	35.108169
2341.000000	35.024364
2340.000000	35.239764
2339.000000	35.317447
2338.000000	35.424619
2337.000000	35.482611
2336.000000	35.405648
2335.000000	35.528504
2334.000000	35.826179
2333.000000	35.952604
2332.000000	35.708057
2331.000000	35.753070
2330.000000	35.716084
2329.000000	35.526248
2328.000000	35.800368
2327.000000	35.630347
2326.000000	35.536463
2325.000000	35.724259
2324.000000	35.553509
2323.000000	35.306397
2322.000000	35.201137
2321.000000	35.496268
2320.000000	35.479561
2319.000000	35.399095
2318.000000	35.466855
2317.000000	35.273906
2316.000000	35.003966
2315.000000	34.963915
2314.000000	35.004959
2313.000000	34.760180
2312.000000	34.732314
2311.000000	34.906498
2310.000000	34.883209
2309.000000	34.841710
2308.000000	34.716447
2307.000000	34.601579
2306.000000	34.363133
2305.000000	34.501494
2304.000000	34.368895
2303.000000	34.367957
2302.000000	34.464537
2301.000000	34.157297
2300.000000	34.161431
2299.000000	34.170241
2298.000000	33.970088
2297.000000	33.942418
2296.000000	34.164494
2295.000000	34.033681
2294.000000	33.960122
2293.000000	33.950964
2292.000000	33.863301
2291.000000	33.618492
2290.000000	33.594058
2289.000000	33.684364
2288.000000	33.789647
2287.000000	33.722802
2286.000000	33.436698
2285.000000	33.434403
2284.000000	33.706866
2283.000000	33.468786
2282.000000	33.497006
2281.000000	33.623741
2280.000000	33.463983
2279.000000	33.554137
2278.000000	33.534542
2277.000000	33.629111
2276.000000	33.790903
2275.000000	33.738770
2274.000000	33.863114
2273.000000	33.830834
2272.000000	33.798601
2271.000000	33.826521
2270.000000	33.712080
2269.000000	33.744898
2268.000000	33.844990
2267.000000	34.066809
2266.000000	34.100514
2265.000000	34.146438
2264.000000	34.372250
2263.000000	34.385444
2262.000000	34.425504
2261.000000	34.652480
2260.000000	34.666329
2259.000000	34.798033
2258.000000	34.901651
2257.000000	35.097978
2256.000000	35.228925
2255.000000	35.309207
2254.000000	35.518649
2253.000000	35.724412
2252.000000	35.908226
2251.000000	36.001898
2250.000000	36.055546
2249.000000	36.269430
2248.000000	36.475522
2247.000000	36.622400
2246.000000	36.752409
2245.000000	36.881110
2244.000000	37.086162
2243.000000	37.214141
2242.000000	37.281524
2241.000000	37.389263
2240.000000	37.515459
2239.000000	37.584022
2238.000000	37.640393
2237.000000	37.690617
2236.000000	37.700250
2235.000000	37.867522
2234.000000	38.076212
2233.000000	38.055328
2232.000000	38.028827
2231.000000	38.193153
2230.000000	38.187410
2229.000000	38.120791
2228.000000	38.246764
2227.000000	38.298120
2226.000000	38.220239
2225.000000	38.173582
2224.000000	38.152231
2223.000000	38.186187
2222.000000	38.109855
2221.000000	38.136134
2220.000000	38.308722
2219.000000	38.314898
2218.000000	38.210174
2217.000000	38.055358
2216.000000	38.038452
2215.000000	38.039402
2214.000000	38.156041
2213.000000	38.222316
2212.000000	38.125220
2211.000000	37.913266
2210.000000	37.805791
2209.000000	37.772112
2208.000000	37.743226
2207.000000	37.765039
2206.000000	37.618767
2205.000000	37.662107
2204.000000	37.646015
2203.000000	37.583829
2202.000000	37.486395
2201.000000	37.529664
2200.000000	37.479692
2199.000000	37.426709
2198.000000	37.529145
2197.000000	37.276698
2196.000000	37.295480
2195.000000	37.250623
2194.000000	37.212186
2193.000000	37.175940
2192.000000	37.083267
2191.000000	37.036951
2190.000000	37.084105
2189.000000	37.068296
2188.000000	36.871504
2187.000000	36.858996
2186.000000	36.984715
2185.000000	36.949706
2184.000000	36.954179
2183.000000	36.958544
2182.000000	36.941622
2181.000000	36.731798
2180.000000	36.700116
2179.000000	36.742439
2178.000000	36.764606
2177.000000	36.841031
2176.000000	36.807724
2175.000000	36.822720
2174.000000	36.913187
2173.000000	36.850316
2172.000000	37.030098
2171.000000	37.067743
2170.000000	37.142200
2169.000000	37.121418
2168.000000	37.367466
2167.000000	37.195272
2166.000000	37.226315
2165.000000	37.300708
2164.000000	37.408391
2163.000000	37.457311
2162.000000	37.565610
2161.000000	37.663991
2160.000000	37.736486
2159.000000	38.019026
2158.000000	37.946773
2157.000000	38.100885
2156.000000	38.149339
2155.000000	38.322712
2154.000000	38.551047
2153.000000	38.789755
2152.000000	38.665803
2151.000000	38.617038
2150.000000	38.734224
2149.000000	39.088403
2148.000000	39.175324
2147.000000	39.353596
2146.000000	39.335262
2145.000000	39.437067
2144.000000	39.521483
2143.000000	39.383926
2142.000000	39.681480
2141.000000	39.841263
2140.000000	39.861686
2139.000000	39.971415
2138.000000	40.035825
2137.000000	40.030234
2136.000000	40.196236
2135.000000	40.153969
2134.000000	40.401312
2133.000000	40.233666
2132.000000	40.414334
2131.000000	40.596208
2130.000000	40.642361
2129.000000	40.466813
2128.000000	40.612186
2127.000000	40.771155
2126.000000	40.643429
2125.000000	40.612563
2124.000000	40.820670
2123.000000	40.806390
2122.000000	40.863193
2121.000000	40.837006
2120.000000	40.884970
2119.000000	40.802957
2118.000000	40.818265
2117.000000	40.858899
2116.000000	41.049965
2115.000000	41.101596
2114.000000	40.902411
2113.000000	41.017477
2112.000000	41.077257
2111.000000	40.990133
2110.000000	40.916992
2109.000000	41.150439
2108.000000	41.262005
2107.000000	41.073937
2106.000000	41.201861
2105.000000	41.095278
2104.000000	41.112997
2103.000000	41.077857
2102.000000	41.235453
2101.000000	41.180080
2100.000000	41.254272
2099.000000	41.192533
2098.000000	41.196792
2097.000000	41.251025
2096.000000	41.144854
2095.000000	41.185382
2094.000000	41.266892
2093.000000	41.290666
2092.000000	41.169912
2091.000000	41.189289
2090.000000	41.204526
2089.000000	41.250889
2088.000000	41.192268
2087.000000	41.150605
2086.000000	41.142872
2085.000000	41.159164
2084.000000	41.088554
2083.000000	41.015075
2082.000000	40.957019
2081.000000	40.939624
2080.000000	40.942284
2079.000000	40.871292
2078.000000	40.803239
2077.000000	40.763842
2076.000000	40.730488
2075.000000	40.537530
2074.000000	40.468937
2073.000000	40.472304
2072.000000	40.350874
2071.000000	40.258615
2070.000000	40.214606
2069.000000	40.065705
2068.000000	40.053314
2067.000000	39.964723
2066.000000	39.782559
2065.000000	39.740906
2064.000000	39.680938
2063.000000	39.636120
2062.000000	39.568799
2061.000000	39.407303
2060.000000	39.202040
2059.000000	39.090672
2058.000000	39.062367
2057.000000	38.984498
2056.000000	38.810940
2055.000000	38.721814
2054.000000	38.594416
2053.000000	38.481547
2052.000000	38.354174
2051.000000	38.305832
2050.000000	38.202901
2049.000000	38.146261
2048.000000	38.132315
2047.000000	38.094051
2046.000000	38.002012
2045.000000	37.948700
2044.000000	37.968697
2043.000000	38.005504
2042.000000	38.002338
2041.000000	37.979705
2040.000000	37.919804
2039.000000	37.871117
2038.000000	37.923020
2037.000000	38.004450
2036.000000	38.056256
2035.000000	38.093610
2034.000000	38.154510
2033.000000	38.245828
2032.000000	38.358384
2031.000000	38.427030
2030.000000	38.507125
2029.000000	38.602678
2028.000000	38.698098
2027.000000	38.791145
2026.000000	38.907574
2025.000000	38.951942
2024.000000	38.937294
2023.000000	38.963796
2022.000000	39.004613
2021.000000	39.041349
2020.000000	39.084704
2019.000000	39.102884
2018.000000	39.145746
2017.000000	39.192898
2016.000000	39.147680
2015.000000	39.153469
2014.000000	39.151036
2013.000000	39.096971
2012.000000	39.079625
2011.000000	39.070348
2010.000000	39.028726
2009.000000	38.957962
2008.000000	38.913559
2007.000000	38.866800
2006.000000	38.775829
2005.000000	38.710287
2004.000000	38.656831
2003.000000	38.593419
2002.000000	38.534014
2001.000000	38.459132
2000.000000	38.369723
1999.000000	38.342521
1998.000000	38.288665
1997.000000	38.214405
1996.000000	38.147413
1995.000000	38.032979
1994.000000	37.944237
1993.000000	37.889503
1992.000000	37.809783
1991.000000	37.668796
1990.000000	37.625227
1989.000000	37.548718
1988.000000	37.489163
1987.000000	37.413096
1986.000000	37.281452
1985.000000	37.231449
1984.000000	37.171777
1983.000000	37.103169
1982.000000	37.018851
1981.000000	36.918331
1980.000000	36.855547
1979.000000	36.742172
1978.000000	36.655655
1977.000000	36.562263
1976.000000	36.506345
1975.000000	36.424123
1974.000000	36.363932
1973.000000	36.319776
1972.000000	36.222109
1971.000000	36.109086
1970.000000	36.068377
1969.000000	36.004381
1968.000000	35.940054
1967.000000	35.874006
1966.000000	35.825969
1965.000000	35.742513
1964.000000	35.626627
1963.000000	35.590642
1962.000000	35.482221
1961.000000	35.398047
1960.000000	35.335002
1959.000000	35.254174
1958.000000	35.201545
1957.000000	35.132577
1956.000000	35.038101
1955.000000	34.985351
1954.000000	35.000737
1953.000000	34.963527
1952.000000	34.867776
1951.000000	34.919755
1950.000000	34.789202
1949.000000	34.749079
1948.000000	34.787464
1947.000000	34.804881
1946.000000	34.681837
1945.000000	34.714576
1944.000000	34.671907
1943.000000	34.729217
1942.000000	34.759869
1941.000000	34.738502
1940.000000	34.676103
1939.000000	34.761862
1938.000000	34.785556
1937.000000	34.909143
1936.000000	35.023469
1935.000000	35.093575
1934.000000	35.158427
1933.000000	35.202380
1932.000000	35.327492
1931.000000	35.353066
1930.000000	35.580765
1929.000000	35.644718
1928.000000	35.771890
1927.000000	35.959833
1926.000000	35.984101
1925.000000	36.232309
1924.000000	36.413102
1923.000000	36.515008
1922.000000	36.797592
1921.000000	36.999800
1920.000000	37.177255
1919.000000	37.480098
1918.000000	37.633757
1917.000000	37.922264
1916.000000	38.049357
1915.000000	38.313438
1914.000000	38.660124
1913.000000	38.860208
1912.000000	39.095412
1911.000000	39.429174
1910.000000	39.640169
1909.000000	39.958872
1908.000000	40.140540
1907.000000	40.493091
1906.000000	40.710426
1905.000000	41.048120
1904.000000	41.382528
1903.000000	41.680413
1902.000000	42.070175
1901.000000	42.343284
1900.000000	42.633612
1899.000000	43.026900
1898.000000	43.364680
1897.000000	43.613887
1896.000000	43.893525
1895.000000	44.144735
1894.000000	44.417911
1893.000000	44.691929
1892.000000	44.955258
1891.000000	45.228601
1890.000000	45.541145
1889.000000	45.787226
1888.000000	46.008413
1887.000000	46.258889
1886.000000	46.505954
1885.000000	46.738556
1884.000000	46.974246
1883.000000	47.155973
1882.000000	47.265907
1881.000000	47.469715
1880.000000	47.661459
1879.000000	47.820028
1878.000000	47.936885
1877.000000	48.091100
1876.000000	48.191328
1875.000000	48.337662
1874.000000	48.475883
1873.000000	48.539384
1872.000000	48.659136
1871.000000	48.773388
1870.000000	48.825335
1869.000000	48.841358
1868.000000	48.957510
1867.000000	48.980982
1866.000000	49.024144
1865.000000	49.094849
1864.000000	49.129350
1863.000000	49.117559
1862.000000	49.170666
1861.000000	49.213436
1860.000000	49.255716
1859.000000	49.222279
1858.000000	49.272447
1857.000000	49.320289
1856.000000	49.336924
1855.000000	49.378305
1854.000000	49.381749
1853.000000	49.351055
1852.000000	49.362822
1851.000000	49.388410
1850.000000	49.399311
1849.000000	49.402455
1848.000000	49.386740
1847.000000	49.383550
1846.000000	49.377707
1845.000000	49.387294
1844.000000	49.360846
1843.000000	49.320677
1842.000000	49.376422
1841.000000	49.371492
1840.000000	49.343434
1839.000000	49.371715
1838.000000	49.350952
1837.000000	49.306516
1836.000000	49.274462
1835.000000	49.234346
1834.000000	49.248099
1833.000000	49.194427
1832.000000	49.148184
1831.000000	49.129690
1830.000000	49.102883
1829.000000	49.058877
1828.000000	49.060166
1827.000000	49.054416
1826.000000	49.050649
1825.000000	49.037641
1824.000000	49.034002
1823.000000	49.003749
1822.000000	48.968024
1821.000000	48.947206
1820.000000	48.936017
1819.000000	48.906224
1818.000000	48.871146
1817.000000	48.874847
1816.000000	48.883846
1815.000000	48.864683
1814.000000	48.828962
1813.000000	48.816750
1812.000000	48.808861
1811.000000	48.797033
1810.000000	48.808014
1809.000000	48.804880
1808.000000	48.783089
1807.000000	48.755063
1806.000000	48.751599
1805.000000	48.754286
1804.000000	48.736882
1803.000000	48.711767
1802.000000	48.668735
1801.000000	48.694746
1800.000000	48.697315
1799.000000	48.655123
1798.000000	48.658836
1797.000000	48.672197
1796.000000	48.676945
1795.000000	48.669196
1794.000000	48.683992
1793.000000	48.651532
1792.000000	48.635185
1791.000000	48.645001
1790.000000	48.640710
1789.000000	48.624343
1788.000000	48.629457
1787.000000	48.628662
1786.000000	48.616838
1785.000000	48.596689
1784.000000	48.603725
1783.000000	48.590483
1782.000000	48.566038
1781.000000	48.560689
1780.000000	48.546473
1779.000000	48.539270
1778.000000	48.509556
1777.000000	48.493946
1776.000000	48.471120
1775.000000	48.417404
1774.000000	48.402863
1773.000000	48.397096
1772.000000	48.342346
1771.000000	48.292837
1770.000000	48.266180
1769.000000	48.256764
1768.000000	48.244544
1767.000000	48.199421
1766.000000	48.168477
1765.000000	48.130711
1764.000000	48.138928
1763.000000	48.141225
1762.000000	48.102157
1761.000000	48.054656
1760.000000	48.004071
1759.000000	48.001578
1758.000000	48.021007
1757.000000	47.962741
1756.000000	47.933895
1755.000000	47.899954
1754.000000	47.886402
1753.000000	47.859167
1752.000000	47.874367
1751.000000	47.821829
1750.000000	47.777142
1749.000000	47.787260
1748.000000	47.718864
1747.000000	47.683687
1746.000000	47.662601
1745.000000	47.660840
1744.000000	47.602267
1743.000000	47.564171
1742.000000	47.523185
1741.000000	47.503475
1740.000000	47.509727
1739.000000	47.507077
1738.000000	47.468739
1737.000000	47.421291
1736.000000	47.412420
1735.000000	47.425938
1734.000000	47.432017
1733.000000	47.392218
1732.000000	47.381596
1731.000000	47.430473
1730.000000	47.398256
1729.000000	47.406656
1728.000000	47.454350
1727.000000	47.457560
1726.000000	47.506915
1725.000000	47.495006
1724.000000	47.570873
1723.000000	47.607178
1722.000000	47.621434
1721.000000	47.720100
1720.000000	47.797873
1719.000000	47.887247
1718.000000	47.876658
1717.000000	47.898964
1716.000000	47.981402
1715.000000	48.055792
1714.000000	48.055288
1713.000000	48.087349
1712.000000	48.159233
1711.000000	48.199527
1710.000000	48.223350
1709.000000	48.247705
1708.000000	48.283301
1707.000000	48.333981
1706.000000	48.373146
1705.000000	48.364645
1704.000000	48.400903
1703.000000	48.388671
1702.000000	48.417712
1701.000000	48.395737
1700.000000	48.435661
1699.000000	48.430550
1698.000000	48.500869
1697.000000	48.465832
1696.000000	48.502981
1695.000000	48.523722
1694.000000	48.533719
1693.000000	48.576515
1692.000000	48.565748
1691.000000	48.617083
1690.000000	48.684854
1689.000000	48.700005
1688.000000	48.755499
1687.000000	48.833465
1686.000000	48.822644
1685.000000	48.936564
1684.000000	48.967458
1683.000000	49.066820
1682.000000	49.152139
1681.000000	49.237635
1680.000000	49.308072
1679.000000	49.366510
1678.000000	49.437010
1677.000000	49.483634
1676.000000	49.612836
1675.000000	49.699100
1674.000000	49.745418
1673.000000	49.809190
1672.000000	49.927306
1671.000000	49.981346
1670.000000	50.062616
1669.000000	50.133807
1668.000000	50.183677
1667.000000	50.299815
1666.000000	50.312844
1665.000000	50.313014
1664.000000	50.364178
1663.000000	50.395780
1662.000000	50.461294
1661.000000	50.479938
1660.000000	50.512326
1659.000000	50.572730
1658.000000	50.612573
1657.000000	50.620528
1656.000000	50.639478
1655.000000	50.661038
1654.000000	50.679441
1653.000000	50.684586
1652.000000	50.702092
1651.000000	50.679315
1650.000000	50.694180
1649.000000	50.690117
1648.000000	50.663433
1647.000000	50.673492
1646.000000	50.671964
1645.000000	50.668028
1644.000000	50.668973
1643.000000	50.655591
1642.000000	50.649191
1641.000000	50.641397
1640.000000	50.625297
1639.000000	50.606506
1638.000000	50.618268
1637.000000	50.590913
1636.000000	50.575202
1635.000000	50.568145
1634.000000	50.549634
1633.000000	50.524602
1632.000000	50.510970
1631.000000	50.484913
1630.000000	50.457289
1629.000000	50.454934
1628.000000	50.448801
1627.000000	50.424940
1626.000000	50.410401
1625.000000	50.381381
1624.000000	50.361617
1623.000000	50.362007
1622.000000	50.336559
1621.000000	50.302589
1620.000000	50.278485
1619.000000	50.269851
1618.000000	50.252706
1617.000000	50.231639
1616.000000	50.212488
1615.000000	50.184638
1614.000000	50.144154
1613.000000	50.119157
1612.000000	50.112700
1611.000000	50.088270
1610.000000	50.061146
1609.000000	50.035908
1608.000000	50.005079
1607.000000	49.985169
1606.000000	49.955158
1605.000000	49.936061
1604.000000	49.915380
1603.000000	49.879168
1602.000000	49.857268
1601.000000	49.842537
1600.000000	49.815119
1599.000000	49.784291
1598.000000	49.768741
1597.000000	49.740398
1596.000000	49.710595
1595.000000	49.701962
1594.000000	49.682820
1593.000000	49.656632
1592.000000	49.624542
1591.000000	49.595867
1590.000000	49.577260
1589.000000	49.556399
1588.000000	49.534363
1587.000000	49.520481
1586.000000	49.520973
1585.000000	49.513690
1584.000000	49.487522
1583.000000	49.468038
1582.000000	49.447242
1581.000000	49.430712
1580.000000	49.403101
1579.000000	49.395494
1578.000000	49.405406
1577.000000	49.370262
1576.000000	49.335690
1575.000000	49.324733
1574.000000	49.300090
1573.000000	49.271565
1572.000000	49.259204
1571.000000	49.237714
1570.000000	49.201315
1569.000000	49.199051
1568.000000	49.183979
1567.000000	49.156466
1566.000000	49.146699
1565.000000	49.139721
1564.000000	49.120090
1563.000000	49.112390
1562.000000	49.089053
1561.000000	49.065544
1560.000000	49.084891
1559.000000	49.067896
1558.000000	49.028893
1557.000000	49.019831
1556.000000	49.010214
1555.000000	48.999514
1554.000000	48.998112
1553.000000	48.976672
1552.000000	48.979853
1551.000000	48.959933
1550.000000	48.941623
1549.000000	48.908448
1548.000000	48.883546
1547.000000	48.874616
1546.000000	48.845631
1545.000000	48.829836
1544.000000	48.770851
1543.000000	48.713739
1542.000000	48.687230
1541.000000	48.633562
1540.000000	48.614997
1539.000000	48.580379
1538.000000	48.538417
1537.000000	48.483104
1536.000000	48.448247
1535.000000	48.410442
1534.000000	48.372805
1533.000000	48.338601
1532.000000	48.289344
1531.000000	48.231672
1530.000000	48.200285
1529.000000	48.168925
1528.000000	48.135503
1527.000000	48.098929
1526.000000	48.058464
1525.000000	48.034011
1524.000000	48.006638
1523.000000	47.998668
1522.000000	47.965162
1521.000000	47.944376
1520.000000	47.919332
1519.000000	47.922978
1518.000000	47.883388
1517.000000	47.854038
1516.000000	47.836056
1515.000000	47.839531
1514.000000	47.830755
1513.000000	47.817644
1512.000000	47.793028
1511.000000	47.783128
1510.000000	47.790969
1509.000000	47.756605
1508.000000	47.770501
1507.000000	47.770596
1506.000000	47.758451
1505.000000	47.788651
1504.000000	47.780138
1503.000000	47.770468
1502.000000	47.776343
1501.000000	47.755028
1500.000000	47.751649
1499.000000	47.770743
1498.000000	47.787225
1497.000000	47.784728
1496.000000	47.803694
1495.000000	47.802944
1494.000000	47.806115
1493.000000	47.825226
1492.000000	47.823773
1491.000000	47.851902
1490.000000	47.882906
1489.000000	47.908602
1488.000000	47.943350
1487.000000	47.951762
1486.000000	47.954522
1485.000000	47.991884
1484.000000	48.008685
1483.000000	48.044310
1482.000000	48.060632
1481.000000	48.102776
1480.000000	48.109234
1479.000000	48.124386
1478.000000	48.147336
1477.000000	48.170995
1476.000000	48.186375
1475.000000	48.209352
1474.000000	48.239073
1473.000000	48.274966
1472.000000	48.309062
1471.000000	48.310206
1470.000000	48.344017
1469.000000	48.349405
