PE UV       SUBTECH     SPECTRUM    ASCII       PEDS        4.00        
   -1
RDmsfkat92.Sample.asc
18/03/20
14:39:28.00
18/03/20
14:39:28.00
Administrator

200.000000
1
Lambda 750
750N8071901
PerkinElmer UV WinLab 6.0.4.0738 / 1.61.00 Lambda 900

0
0
3350/servo 860.8/2
0
0
UV/VIS
1
1
1
CommonBeamDepol,150mm sphere / downward view
0
0
0
0
Program
Program
3350/servo 860.8/2
3350/0.2 860.8/0.2
3350/0.2 860.8/0.2
0
1
 
 
 
0
 
860.8
319.2
860.8
Front
100
on
 
 
0
0
0
 
0
 
 
 
0
 
 
0
0
0
0
0
 
 
 
 
0
0


0
0
#HDR
-1
-1
#GR
nm
%R
1.0
0.0
2350.000000
-1.000000
2151
8
59.956602
10.854741
#DATA
2350.000000	26.133106
2349.000000	26.499444
2348.000000	26.129072
2347.000000	26.746337
2346.000000	26.211941
2345.000000	26.253046
2344.000000	26.059561
2343.000000	25.703371
2342.000000	25.853377
2341.000000	26.124413
2340.000000	26.214949
2339.000000	26.289507
2338.000000	26.463821
2337.000000	26.506275
2336.000000	26.732157
2335.000000	26.512077
2334.000000	26.877266
2333.000000	26.977706
2332.000000	26.889660
2331.000000	26.974305
2330.000000	26.572194
2329.000000	26.825316
2328.000000	27.146293
2327.000000	26.799004
2326.000000	26.653159
2325.000000	26.615992
2324.000000	26.804393
2323.000000	26.588324
2322.000000	26.447440
2321.000000	26.783312
2320.000000	26.717884
2319.000000	26.517256
2318.000000	26.661406
2317.000000	26.642328
2316.000000	26.444123
2315.000000	26.151631
2314.000000	25.953600
2313.000000	25.894981
2312.000000	26.277284
2311.000000	26.165776
2310.000000	25.709198
2309.000000	25.944396
2308.000000	25.904850
2307.000000	25.851618
2306.000000	25.855567
2305.000000	25.803764
2304.000000	25.847250
2303.000000	25.326915
2302.000000	25.253841
2301.000000	25.476803
2300.000000	25.210590
2299.000000	25.196668
2298.000000	25.073706
2297.000000	24.885303
2296.000000	25.194770
2295.000000	25.217593
2294.000000	24.903556
2293.000000	24.690754
2292.000000	24.451889
2291.000000	24.633298
2290.000000	24.672407
2289.000000	24.646770
2288.000000	24.691035
2287.000000	24.702070
2286.000000	24.556486
2285.000000	24.418918
2284.000000	24.423936
2283.000000	24.434307
2282.000000	24.516090
2281.000000	24.428853
2280.000000	24.374271
2279.000000	24.571773
2278.000000	24.442231
2277.000000	24.210271
2276.000000	24.428181
2275.000000	24.358486
2274.000000	24.335157
2273.000000	24.580938
2272.000000	24.694608
2271.000000	24.739306
2270.000000	24.746594
2269.000000	24.789467
2268.000000	24.776102
2267.000000	24.819072
2266.000000	24.914015
2265.000000	24.938274
2264.000000	25.175620
2263.000000	25.325819
2262.000000	25.355684
2261.000000	25.493971
2260.000000	25.629536
2259.000000	25.925858
2258.000000	26.172892
2257.000000	26.346997
2256.000000	26.452395
2255.000000	26.483047
2254.000000	26.637264
2253.000000	26.900948
2252.000000	26.955569
2251.000000	26.934402
2250.000000	27.207967
2249.000000	27.627241
2248.000000	27.703065
2247.000000	27.837256
2246.000000	28.207117
2245.000000	28.445679
2244.000000	28.580753
2243.000000	28.718392
2242.000000	28.774630
2241.000000	28.825772
2240.000000	28.940259
2239.000000	29.059969
2238.000000	29.233156
2237.000000	29.425960
2236.000000	29.410667
2235.000000	29.417692
2234.000000	29.506989
2233.000000	29.642795
2232.000000	29.831934
2231.000000	29.849970
2230.000000	29.807726
2229.000000	29.759653
2228.000000	29.760823
2227.000000	29.753683
2226.000000	29.740829
2225.000000	29.770823
2224.000000	29.949874
2223.000000	29.974544
2222.000000	29.831557
2221.000000	29.770273
2220.000000	29.791469
2219.000000	29.803115
2218.000000	29.617965
2217.000000	29.573826
2216.000000	29.741826
2215.000000	29.661063
2214.000000	29.471192
2213.000000	29.487029
2212.000000	29.461272
2211.000000	29.357338
2210.000000	29.396771
2209.000000	29.368203
2208.000000	29.168846
2207.000000	29.093111
2206.000000	29.054356
2205.000000	29.067566
2204.000000	29.013720
2203.000000	28.743872
2202.000000	28.904772
2201.000000	28.844814
2200.000000	28.799395
2199.000000	28.669102
2198.000000	28.592371
2197.000000	28.627682
2196.000000	28.482676
2195.000000	28.348942
2194.000000	28.237394
2193.000000	28.166064
2192.000000	28.194272
2191.000000	28.055614
2190.000000	28.184852
2189.000000	28.037901
2188.000000	27.875053
2187.000000	27.796417
2186.000000	27.833256
2185.000000	27.893934
2184.000000	27.864189
2183.000000	27.925954
2182.000000	27.902373
2181.000000	27.867179
2180.000000	27.671690
2179.000000	27.766414
2178.000000	27.988961
2177.000000	27.905973
2176.000000	27.757778
2175.000000	27.792357
2174.000000	27.939848
2173.000000	27.814297
2172.000000	27.882408
2171.000000	28.086606
2170.000000	28.013452
2169.000000	28.160762
2168.000000	28.408358
2167.000000	28.392112
2166.000000	28.414886
2165.000000	28.486718
2164.000000	28.603674
2163.000000	28.570376
2162.000000	28.618761
2161.000000	28.644976
2160.000000	28.970721
2159.000000	28.989632
2158.000000	28.978146
2157.000000	29.112012
2156.000000	29.441983
2155.000000	29.576515
2154.000000	29.605732
2153.000000	29.969443
2152.000000	29.870305
2151.000000	29.994692
2150.000000	30.030448
2149.000000	30.375330
2148.000000	30.456701
2147.000000	30.631071
2146.000000	30.503237
2145.000000	30.819200
2144.000000	30.839650
2143.000000	30.992267
2142.000000	31.101433
2141.000000	31.238443
2140.000000	31.457092
2139.000000	31.513671
2138.000000	31.816617
2137.000000	31.889970
2136.000000	31.872716
2135.000000	31.818810
2134.000000	32.150941
2133.000000	32.001275
2132.000000	32.155498
2131.000000	32.386677
2130.000000	32.505486
2129.000000	32.284841
2128.000000	32.413253
2127.000000	32.435485
2126.000000	32.523013
2125.000000	32.539270
2124.000000	32.664024
2123.000000	32.611510
2122.000000	32.722092
2121.000000	32.663162
2120.000000	32.934893
2119.000000	32.882305
2118.000000	32.896276
2117.000000	32.866354
2116.000000	33.082423
2115.000000	33.075047
2114.000000	33.037819
2113.000000	32.961083
2112.000000	33.025348
2111.000000	33.236701
2110.000000	33.174737
2109.000000	33.233926
2108.000000	33.211806
2107.000000	33.129524
2106.000000	33.152785
2105.000000	33.158447
2104.000000	33.260022
2103.000000	33.260619
2102.000000	33.324674
2101.000000	33.288117
2100.000000	33.497320
2099.000000	33.368406
2098.000000	33.412038
2097.000000	33.356203
2096.000000	33.310285
2095.000000	33.434832
2094.000000	33.353069
2093.000000	33.390784
2092.000000	33.392511
2091.000000	33.403507
2090.000000	33.322683
2089.000000	33.317613
2088.000000	33.268032
2087.000000	33.185815
2086.000000	33.270082
2085.000000	33.244883
2084.000000	33.152711
2083.000000	33.032570
2082.000000	33.014631
2081.000000	32.925912
2080.000000	32.883657
2079.000000	32.837142
2078.000000	32.707368
2077.000000	32.627466
2076.000000	32.695281
2075.000000	32.535899
2074.000000	32.475453
2073.000000	32.348152
2072.000000	32.221164
2071.000000	32.150605
2070.000000	32.088418
2069.000000	31.934311
2068.000000	31.783904
2067.000000	31.595883
2066.000000	31.474457
2065.000000	31.343037
2064.000000	31.266492
2063.000000	31.174753
2062.000000	31.064702
2061.000000	30.861263
2060.000000	30.617951
2059.000000	30.507363
2058.000000	30.435945
2057.000000	30.304606
2056.000000	30.186242
2055.000000	30.113782
2054.000000	29.949974
2053.000000	29.771146
2052.000000	29.636257
2051.000000	29.474145
2050.000000	29.443982
2049.000000	29.381496
2048.000000	29.298807
2047.000000	29.278688
2046.000000	29.198776
2045.000000	29.117689
2044.000000	29.097561
2043.000000	29.103012
2042.000000	29.118477
2041.000000	29.138051
2040.000000	29.134686
2039.000000	29.152493
2038.000000	29.227764
2037.000000	29.292361
2036.000000	29.337444
2035.000000	29.340719
2034.000000	29.441609
2033.000000	29.595831
2032.000000	29.677005
2031.000000	29.767005
2030.000000	29.868252
2029.000000	30.001846
2028.000000	30.115043
2027.000000	30.193674
2026.000000	30.312198
2025.000000	30.407306
2024.000000	30.434324
2023.000000	30.526068
2022.000000	30.605727
2021.000000	30.645695
2020.000000	30.701320
2019.000000	30.709038
2018.000000	30.731790
2017.000000	30.769816
2016.000000	30.765186
2015.000000	30.783094
2014.000000	30.777142
2013.000000	30.761735
2012.000000	30.731402
2011.000000	30.691705
2010.000000	30.701039
2009.000000	30.611822
2008.000000	30.524684
2007.000000	30.462630
2006.000000	30.377613
2005.000000	30.265428
2004.000000	30.162380
2003.000000	30.114693
2002.000000	30.067065
2001.000000	29.975248
2000.000000	29.902336
1999.000000	29.834366
1998.000000	29.773640
1997.000000	29.675568
1996.000000	29.582220
1995.000000	29.481231
1994.000000	29.355213
1993.000000	29.281066
1992.000000	29.184223
1991.000000	29.067102
1990.000000	28.982433
1989.000000	28.906961
1988.000000	28.862062
1987.000000	28.721547
1986.000000	28.632480
1985.000000	28.564703
1984.000000	28.528698
1983.000000	28.429040
1982.000000	28.304975
1981.000000	28.233447
1980.000000	28.148530
1979.000000	28.031158
1978.000000	27.965088
1977.000000	27.884738
1976.000000	27.802152
1975.000000	27.747960
1974.000000	27.640611
1973.000000	27.572491
1972.000000	27.499532
1971.000000	27.401431
1970.000000	27.322107
1969.000000	27.243728
1968.000000	27.166869
1967.000000	27.142590
1966.000000	27.040206
1965.000000	26.942405
1964.000000	26.870387
1963.000000	26.780366
1962.000000	26.694764
1961.000000	26.631496
1960.000000	26.523728
1959.000000	26.487881
1958.000000	26.459490
1957.000000	26.386993
1956.000000	26.324094
1955.000000	26.310812
1954.000000	26.231222
1953.000000	26.185897
1952.000000	26.086338
1951.000000	26.123103
1950.000000	26.052872
1949.000000	25.969195
1948.000000	25.994393
1947.000000	25.980575
1946.000000	25.999516
1945.000000	25.979758
1944.000000	25.963100
1943.000000	25.946645
1942.000000	25.889384
1941.000000	26.035892
1940.000000	26.154954
1939.000000	26.203487
1938.000000	26.117888
1937.000000	26.263155
1936.000000	26.300022
1935.000000	26.376829
1934.000000	26.450928
1933.000000	26.612297
1932.000000	26.636090
1931.000000	26.769338
1930.000000	26.991426
1929.000000	27.079845
1928.000000	27.252379
1927.000000	27.500637
1926.000000	27.622151
1925.000000	27.856709
1924.000000	28.054338
1923.000000	28.206280
1922.000000	28.437337
1921.000000	28.765141
1920.000000	28.950658
1919.000000	29.173309
1918.000000	29.428925
1917.000000	29.765756
1916.000000	30.030595
1915.000000	30.375045
1914.000000	30.727022
1913.000000	31.157617
1912.000000	31.363632
1911.000000	31.739030
1910.000000	32.109161
1909.000000	32.472822
1908.000000	32.874344
1907.000000	33.418226
1906.000000	33.743702
1905.000000	34.218081
1904.000000	34.672023
1903.000000	35.136789
1902.000000	35.651207
1901.000000	36.060335
1900.000000	36.563216
1899.000000	37.110583
1898.000000	37.675958
1897.000000	38.153657
1896.000000	38.602903
1895.000000	39.061261
1894.000000	39.547143
1893.000000	40.082787
1892.000000	40.530950
1891.000000	41.064710
1890.000000	41.431667
1889.000000	41.880323
1888.000000	42.321863
1887.000000	42.747195
1886.000000	43.185709
1885.000000	43.604396
1884.000000	43.975229
1883.000000	44.395699
1882.000000	44.657740
1881.000000	45.087609
1880.000000	45.352082
1879.000000	45.661913
1878.000000	45.955994
1877.000000	46.219313
1876.000000	46.447748
1875.000000	46.714721
1874.000000	46.910954
1873.000000	47.133016
1872.000000	47.301238
1871.000000	47.466603
1870.000000	47.613360
1869.000000	47.784841
1868.000000	47.926677
1867.000000	48.044318
1866.000000	48.153428
1865.000000	48.208560
1864.000000	48.323280
1863.000000	48.442057
1862.000000	48.466719
1861.000000	48.572133
1860.000000	48.620483
1859.000000	48.640003
1858.000000	48.710957
1857.000000	48.768791
1856.000000	48.808228
1855.000000	48.849076
1854.000000	48.864817
1853.000000	48.885401
1852.000000	48.897576
1851.000000	48.892526
1850.000000	48.916102
1849.000000	48.935879
1848.000000	48.926466
1847.000000	48.925459
1846.000000	48.931566
1845.000000	48.908429
1844.000000	48.866154
1843.000000	48.844036
1842.000000	48.812677
1841.000000	48.804730
1840.000000	48.776056
1839.000000	48.722787
1838.000000	48.700231
1837.000000	48.615265
1836.000000	48.583981
1835.000000	48.539016
1834.000000	48.513401
1833.000000	48.505575
1832.000000	48.433356
1831.000000	48.366468
1830.000000	48.342917
1829.000000	48.305248
1828.000000	48.273419
1827.000000	48.255373
1826.000000	48.212409
1825.000000	48.190265
1824.000000	48.185549
1823.000000	48.138098
1822.000000	48.088189
1821.000000	48.056435
1820.000000	47.996676
1819.000000	47.949406
1818.000000	47.915774
1817.000000	47.882490
1816.000000	47.833492
1815.000000	47.811780
1814.000000	47.786774
1813.000000	47.760478
1812.000000	47.757760
1811.000000	47.722263
1810.000000	47.675281
1809.000000	47.652202
1808.000000	47.618883
1807.000000	47.591394
1806.000000	47.570299
1805.000000	47.521079
1804.000000	47.489070
1803.000000	47.469239
1802.000000	47.428058
1801.000000	47.415829
1800.000000	47.386087
1799.000000	47.358286
1798.000000	47.354427
1797.000000	47.323906
1796.000000	47.283987
1795.000000	47.269657
1794.000000	47.273770
1793.000000	47.261776
1792.000000	47.251757
1791.000000	47.244386
1790.000000	47.212417
1789.000000	47.180694
1788.000000	47.168182
1787.000000	47.150874
1786.000000	47.125666
1785.000000	47.091392
1784.000000	47.096640
1783.000000	47.066118
1782.000000	47.023047
1781.000000	46.994858
1780.000000	46.960437
1779.000000	46.918576
1778.000000	46.849066
1777.000000	46.795015
1776.000000	46.744443
1775.000000	46.704629
1774.000000	46.663806
1773.000000	46.590644
1772.000000	46.520955
1771.000000	46.489020
1770.000000	46.451152
1769.000000	46.389657
1768.000000	46.318908
1767.000000	46.245865
1766.000000	46.249273
1765.000000	46.185720
1764.000000	46.143215
1763.000000	46.067151
1762.000000	46.036480
1761.000000	45.976578
1760.000000	45.893504
1759.000000	45.835155
1758.000000	45.800381
1757.000000	45.767775
1756.000000	45.711793
1755.000000	45.668305
1754.000000	45.584818
1753.000000	45.548766
1752.000000	45.500055
1751.000000	45.470326
1750.000000	45.417061
1749.000000	45.382865
1748.000000	45.286188
1747.000000	45.223039
1746.000000	45.181953
1745.000000	45.136614
1744.000000	45.044971
1743.000000	45.008819
1742.000000	44.942201
1741.000000	44.883352
1740.000000	44.830311
1739.000000	44.828389
1738.000000	44.772414
1737.000000	44.737473
1736.000000	44.684511
1735.000000	44.686886
1734.000000	44.688286
1733.000000	44.675773
1732.000000	44.705746
1731.000000	44.712136
1730.000000	44.690307
1729.000000	44.751460
1728.000000	44.817325
1727.000000	44.831312
1726.000000	44.940996
1725.000000	44.995044
1724.000000	45.115920
1723.000000	45.162920
1722.000000	45.284697
1721.000000	45.355914
1720.000000	45.421575
1719.000000	45.570925
1718.000000	45.643011
1717.000000	45.748994
1716.000000	45.849462
1715.000000	45.926925
1714.000000	46.007084
1713.000000	46.087589
1712.000000	46.145135
1711.000000	46.221635
1710.000000	46.301457
1709.000000	46.329892
1708.000000	46.412284
1707.000000	46.437685
1706.000000	46.493042
1705.000000	46.507692
1704.000000	46.542313
1703.000000	46.562678
1702.000000	46.553857
1701.000000	46.588273
1700.000000	46.636386
1699.000000	46.599365
1698.000000	46.679203
1697.000000	46.723199
1696.000000	46.732331
1695.000000	46.757820
1694.000000	46.790042
1693.000000	46.855950
1692.000000	46.895326
1691.000000	46.985133
1690.000000	47.072421
1689.000000	47.148430
1688.000000	47.254454
1687.000000	47.361573
1686.000000	47.473596
1685.000000	47.623099
1684.000000	47.787324
1683.000000	47.932124
1682.000000	48.133954
1681.000000	48.285619
1680.000000	48.412373
1679.000000	48.608639
1678.000000	48.793607
1677.000000	48.943594
1676.000000	49.128194
1675.000000	49.324335
1674.000000	49.468579
1673.000000	49.638655
1672.000000	49.799405
1671.000000	49.935500
1670.000000	50.082641
1669.000000	50.271374
1668.000000	50.358415
1667.000000	50.504840
1666.000000	50.582404
1665.000000	50.682414
1664.000000	50.761528
1663.000000	50.841179
1662.000000	50.938792
1661.000000	51.011228
1660.000000	51.056443
1659.000000	51.153587
1658.000000	51.210362
1657.000000	51.247812
1656.000000	51.263617
1655.000000	51.305264
1654.000000	51.332111
1653.000000	51.353682
1652.000000	51.381127
1651.000000	51.366097
1650.000000	51.386683
1649.000000	51.390088
1648.000000	51.358505
1647.000000	51.351099
1646.000000	51.347738
1645.000000	51.343218
1644.000000	51.327889
1643.000000	51.294521
1642.000000	51.271106
1641.000000	51.243231
1640.000000	51.224286
1639.000000	51.201635
1638.000000	51.167863
1637.000000	51.139317
1636.000000	51.107439
1635.000000	51.078896
1634.000000	51.031661
1633.000000	51.003184
1632.000000	50.993239
1631.000000	50.931432
1630.000000	50.865314
1629.000000	50.837998
1628.000000	50.799573
1627.000000	50.765664
1626.000000	50.728969
1625.000000	50.673219
1624.000000	50.635979
1623.000000	50.603040
1622.000000	50.539500
1621.000000	50.479023
1620.000000	50.445586
1619.000000	50.400485
1618.000000	50.348810
1617.000000	50.308242
1616.000000	50.251399
1615.000000	50.198251
1614.000000	50.121195
1613.000000	50.048760
1612.000000	49.999137
1611.000000	49.939257
1610.000000	49.901070
1609.000000	49.842809
1608.000000	49.778161
1607.000000	49.722686
1606.000000	49.657869
1605.000000	49.614386
1604.000000	49.559531
1603.000000	49.487262
1602.000000	49.435369
1601.000000	49.382947
1600.000000	49.317973
1599.000000	49.258706
1598.000000	49.200777
1597.000000	49.153336
1596.000000	49.094605
1595.000000	49.041077
1594.000000	48.994623
1593.000000	48.946939
1592.000000	48.877892
1591.000000	48.812892
1590.000000	48.776167
1589.000000	48.739177
1588.000000	48.701812
1587.000000	48.661300
1586.000000	48.610765
1585.000000	48.577237
1584.000000	48.529312
1583.000000	48.478781
1582.000000	48.430399
1581.000000	48.391572
1580.000000	48.352610
1579.000000	48.316586
1578.000000	48.291285
1577.000000	48.227297
1576.000000	48.177718
1575.000000	48.133987
1574.000000	48.075058
1573.000000	48.027563
1572.000000	47.981375
1571.000000	47.946262
1570.000000	47.916552
1569.000000	47.882350
1568.000000	47.858155
1567.000000	47.809676
1566.000000	47.774410
1565.000000	47.745156
1564.000000	47.707645
1563.000000	47.686304
1562.000000	47.666191
1561.000000	47.631694
1560.000000	47.605564
1559.000000	47.581587
1558.000000	47.561416
1557.000000	47.538991
1556.000000	47.509340
1555.000000	47.497743
1554.000000	47.466511
1553.000000	47.435157
1552.000000	47.421760
1551.000000	47.368202
1550.000000	47.331643
1549.000000	47.293914
1548.000000	47.251942
1547.000000	47.201442
1546.000000	47.142943
1545.000000	47.072659
1544.000000	46.987190
1543.000000	46.913227
1542.000000	46.841046
1541.000000	46.767820
1540.000000	46.695112
1539.000000	46.606822
1538.000000	46.505229
1537.000000	46.416451
1536.000000	46.341912
1535.000000	46.236273
1534.000000	46.158431
1533.000000	46.078998
1532.000000	45.978756
1531.000000	45.912351
1530.000000	45.835326
1529.000000	45.764693
1528.000000	45.691143
1527.000000	45.624794
1526.000000	45.553115
1525.000000	45.510172
1524.000000	45.455533
1523.000000	45.405817
1522.000000	45.355180
1521.000000	45.290029
1520.000000	45.242418
1519.000000	45.201853
1518.000000	45.189268
1517.000000	45.144702
1516.000000	45.120743
1515.000000	45.107823
1514.000000	45.061393
1513.000000	45.039361
1512.000000	44.987229
1511.000000	44.987320
1510.000000	44.989847
1509.000000	44.950469
1508.000000	44.959152
1507.000000	44.942249
1506.000000	44.926849
1505.000000	44.928113
1504.000000	44.910684
1503.000000	44.924220
1502.000000	44.919787
1501.000000	44.908473
1500.000000	44.904865
1499.000000	44.930479
1498.000000	44.943926
1497.000000	44.945191
1496.000000	44.955997
1495.000000	44.978673
1494.000000	45.011136
1493.000000	45.044257
1492.000000	45.047355
1491.000000	45.081633
1490.000000	45.121995
1489.000000	45.192241
1488.000000	45.232497
1487.000000	45.252365
1486.000000	45.278428
1485.000000	45.349228
1484.000000	45.390631
1483.000000	45.448434
1482.000000	45.488109
1481.000000	45.552060
1480.000000	45.615114
1479.000000	45.650638
1478.000000	45.731502
1477.000000	45.784471
1476.000000	45.817649
1475.000000	45.877800
1474.000000	45.899426
1473.000000	45.954105
1472.000000	46.010105
1471.000000	46.046658
1470.000000	46.097663
