PE UV       SUBTECH     SPECTRUM    ASCII       PEDS        4.00        
   -1
RDms148352.Sample.asc
18/03/20
09:44:00.00
18/03/20
09:44:00.00
Administrator

200.000000
1
Lambda 750
750N8071901
PerkinElmer UV WinLab 6.0.4.0738 / 1.61.00 Lambda 900

0
0
3350/servo 860.8/2
0
0
UV/VIS
1
1
1
CommonBeamDepol,150mm sphere / downward view
0
0
0
0
Program
Program
3350/servo 860.8/2
3350/0.2 860.8/0.2
3350/0.2 860.8/0.2
0
1
 
 
 
0
 
860.8
319.2
860.8
Front
100
on
 
 
0
0
0
 
0
 
 
 
0
 
 
0
0
0
0
0
 
 
 
 
0
0


0
0
#HDR
-1
-1
#GR
nm
%R
1.0
0.0
2350.000000
-1.000000
2151
8
66.139876
6.547200
#DATA
2350.000000	36.597358
2349.000000	36.305064
2348.000000	36.176653
2347.000000	37.049761
2346.000000	36.741010
2345.000000	36.330753
2344.000000	36.395484
2343.000000	36.343261
2342.000000	36.406131
2341.000000	36.546718
2340.000000	36.568849
2339.000000	36.783179
2338.000000	36.834317
2337.000000	36.959853
2336.000000	37.346819
2335.000000	37.174479
2334.000000	37.199514
2333.000000	37.360592
2332.000000	37.605338
2331.000000	37.236636
2330.000000	36.727252
2329.000000	37.132625
2328.000000	37.163478
2327.000000	36.923443
2326.000000	37.156470
2325.000000	37.074650
2324.000000	36.951946
2323.000000	36.828500
2322.000000	36.403432
2321.000000	36.565243
2320.000000	36.951540
2319.000000	36.556068
2318.000000	36.326531
2317.000000	36.420533
2316.000000	36.304322
2315.000000	36.101862
2314.000000	36.204627
2313.000000	36.215719
2312.000000	35.992918
2311.000000	35.704557
2310.000000	35.796422
2309.000000	35.933078
2308.000000	35.706006
2307.000000	35.685028
2306.000000	35.574709
2305.000000	35.543614
2304.000000	35.541020
2303.000000	35.812120
2302.000000	35.528375
2301.000000	35.552523
2300.000000	35.493919
2299.000000	35.348172
2298.000000	35.329638
2297.000000	35.369864
2296.000000	35.456898
2295.000000	35.224398
2294.000000	35.227642
2293.000000	35.200398
2292.000000	35.168033
2291.000000	35.133136
2290.000000	35.057828
2289.000000	35.069574
2288.000000	35.288126
2287.000000	35.322645
2286.000000	35.068827
2285.000000	35.074991
2284.000000	34.924489
2283.000000	35.033770
2282.000000	35.022769
2281.000000	34.933570
2280.000000	35.053669
2279.000000	35.110855
2278.000000	35.111980
2277.000000	35.112992
2276.000000	35.156623
2275.000000	35.332202
2274.000000	35.326048
2273.000000	35.455265
2272.000000	35.396311
2271.000000	35.373564
2270.000000	35.442868
2269.000000	35.520391
2268.000000	35.518552
2267.000000	35.697875
2266.000000	35.943774
2265.000000	36.067498
2264.000000	36.055038
2263.000000	36.212868
2262.000000	36.325657
2261.000000	36.535654
2260.000000	36.743158
2259.000000	36.874394
2258.000000	37.067512
2257.000000	37.416204
2256.000000	37.593840
2255.000000	37.768239
2254.000000	37.842364
2253.000000	37.921810
2252.000000	38.182989
2251.000000	38.348874
2250.000000	38.538413
2249.000000	38.907959
2248.000000	39.086885
2247.000000	39.179801
2246.000000	39.372568
2245.000000	39.625947
2244.000000	39.855252
2243.000000	40.139755
2242.000000	40.317326
2241.000000	40.435951
2240.000000	40.564348
2239.000000	40.733310
2238.000000	40.758616
2237.000000	40.738052
2236.000000	40.879310
2235.000000	41.085043
2234.000000	41.197163
2233.000000	41.093409
2232.000000	41.029143
2231.000000	41.134044
2230.000000	41.290903
2229.000000	41.309006
2228.000000	41.395772
2227.000000	41.342349
2226.000000	41.214831
2225.000000	41.292077
2224.000000	41.370937
2223.000000	41.334260
2222.000000	41.268708
2221.000000	41.301027
2220.000000	41.311768
2219.000000	41.324197
2218.000000	41.423558
2217.000000	41.238009
2216.000000	41.228746
2215.000000	41.304396
2214.000000	41.252732
2213.000000	41.126477
2212.000000	41.085559
2211.000000	40.897338
2210.000000	40.768800
2209.000000	40.764522
2208.000000	40.722450
2207.000000	40.674715
2206.000000	40.639550
2205.000000	40.592565
2204.000000	40.535518
2203.000000	40.413204
2202.000000	40.285241
2201.000000	40.295428
2200.000000	40.294576
2199.000000	40.226785
2198.000000	40.270254
2197.000000	40.143732
2196.000000	40.020122
2195.000000	39.917603
2194.000000	39.848342
2193.000000	39.809433
2192.000000	39.695920
2191.000000	39.704187
2190.000000	39.728626
2189.000000	39.730939
2188.000000	39.672117
2187.000000	39.603004
2186.000000	39.417757
2185.000000	39.416301
2184.000000	39.404346
2183.000000	39.385194
2182.000000	39.410614
2181.000000	39.380199
2180.000000	39.291149
2179.000000	39.182563
2178.000000	39.150842
2177.000000	39.249713
2176.000000	39.350215
2175.000000	39.235115
2174.000000	39.291248
2173.000000	39.252336
2172.000000	39.416086
2171.000000	39.503636
2170.000000	39.625006
2169.000000	39.558238
2168.000000	39.887560
2167.000000	39.873014
2166.000000	39.803576
2165.000000	39.880435
2164.000000	40.063677
2163.000000	40.100990
2162.000000	40.378930
2161.000000	40.397963
2160.000000	40.531837
2159.000000	40.538123
2158.000000	40.712012
2157.000000	40.976614
2156.000000	40.917361
2155.000000	41.130624
2154.000000	41.233613
2153.000000	41.567429
2152.000000	41.617681
2151.000000	41.734400
2150.000000	41.853189
2149.000000	42.150970
2148.000000	41.915371
2147.000000	42.308777
2146.000000	42.376159
2145.000000	42.508866
2144.000000	42.651124
2143.000000	42.580191
2142.000000	42.842607
2141.000000	43.021747
2140.000000	43.082223
2139.000000	43.134263
2138.000000	43.434983
2137.000000	43.314132
2136.000000	43.475308
2135.000000	43.466374
2134.000000	43.669549
2133.000000	43.749855
2132.000000	44.006746
2131.000000	44.094742
2130.000000	44.214818
2129.000000	43.806301
2128.000000	43.947455
2127.000000	44.041830
2126.000000	44.168253
2125.000000	44.190797
2124.000000	44.347285
2123.000000	44.317963
2122.000000	44.388819
2121.000000	44.384414
2120.000000	44.544807
2119.000000	44.438248
2118.000000	44.504027
2117.000000	44.590030
2116.000000	44.653885
2115.000000	44.557697
2114.000000	44.756736
2113.000000	44.800321
2112.000000	44.695617
2111.000000	44.685121
2110.000000	44.853851
2109.000000	44.845918
2108.000000	44.762712
2107.000000	44.713887
2106.000000	44.813030
2105.000000	44.807029
2104.000000	44.857957
2103.000000	44.826179
2102.000000	44.778388
2101.000000	44.939418
2100.000000	45.013099
2099.000000	44.787878
2098.000000	44.833987
2097.000000	44.895318
2096.000000	44.843436
2095.000000	44.813942
2094.000000	44.994312
2093.000000	44.940108
2092.000000	44.983973
2091.000000	44.807640
2090.000000	44.711533
2089.000000	44.769357
2088.000000	44.845553
2087.000000	44.711181
2086.000000	44.708817
2085.000000	44.776592
2084.000000	44.659693
2083.000000	44.617145
2082.000000	44.537235
2081.000000	44.489953
2080.000000	44.426387
2079.000000	44.318506
2078.000000	44.223606
2077.000000	44.182745
2076.000000	44.141849
2075.000000	44.045750
2074.000000	43.981870
2073.000000	43.825853
2072.000000	43.680802
2071.000000	43.597243
2070.000000	43.523602
2069.000000	43.431537
2068.000000	43.305839
2067.000000	43.145818
2066.000000	43.042248
2065.000000	42.930160
2064.000000	42.865681
2063.000000	42.708014
2062.000000	42.605535
2061.000000	42.405046
2060.000000	42.221034
2059.000000	42.066385
2058.000000	41.956952
2057.000000	41.854277
2056.000000	41.750916
2055.000000	41.604087
2054.000000	41.501889
2053.000000	41.338319
2052.000000	41.212321
2051.000000	41.065184
2050.000000	40.989019
2049.000000	40.965132
2048.000000	40.860785
2047.000000	40.756515
2046.000000	40.666543
2045.000000	40.579434
2044.000000	40.599620
2043.000000	40.596411
2042.000000	40.580437
2041.000000	40.605160
2040.000000	40.543540
2039.000000	40.541448
2038.000000	40.627142
2037.000000	40.624100
2036.000000	40.685928
2035.000000	40.758588
2034.000000	40.853523
2033.000000	40.977165
2032.000000	41.042621
2031.000000	41.120794
2030.000000	41.250796
2029.000000	41.325130
2028.000000	41.426378
2027.000000	41.528083
2026.000000	41.604954
2025.000000	41.683686
2024.000000	41.753526
2023.000000	41.862086
2022.000000	41.880052
2021.000000	41.872058
2020.000000	41.962892
2019.000000	41.994412
2018.000000	41.973571
2017.000000	42.022445
2016.000000	42.023839
2015.000000	41.981330
2014.000000	42.000544
2013.000000	41.924177
2012.000000	41.868525
2011.000000	41.863466
2010.000000	41.806450
2009.000000	41.753855
2008.000000	41.704670
2007.000000	41.626609
2006.000000	41.546518
2005.000000	41.469299
2004.000000	41.364358
2003.000000	41.271179
2002.000000	41.199046
2001.000000	41.090388
2000.000000	41.026922
1999.000000	40.921919
1998.000000	40.783668
1997.000000	40.715497
1996.000000	40.675450
1995.000000	40.554272
1994.000000	40.430346
1993.000000	40.316004
1992.000000	40.240591
1991.000000	40.176180
1990.000000	40.084168
1989.000000	39.942388
1988.000000	39.833786
1987.000000	39.759511
1986.000000	39.670314
1985.000000	39.549962
1984.000000	39.443153
1983.000000	39.343722
1982.000000	39.282944
1981.000000	39.191477
1980.000000	39.070707
1979.000000	38.956622
1978.000000	38.870355
1977.000000	38.780810
1976.000000	38.674005
1975.000000	38.563979
1974.000000	38.440366
1973.000000	38.351938
1972.000000	38.297271
1971.000000	38.225625
1970.000000	38.113458
1969.000000	38.067739
1968.000000	37.912577
1967.000000	37.843897
1966.000000	37.789278
1965.000000	37.635635
1964.000000	37.530025
1963.000000	37.479698
1962.000000	37.403073
1961.000000	37.310020
1960.000000	37.272022
1959.000000	37.164916
1958.000000	37.079444
1957.000000	37.013514
1956.000000	36.903335
1955.000000	36.857445
1954.000000	36.837956
1953.000000	36.775105
1952.000000	36.695350
1951.000000	36.684555
1950.000000	36.572446
1949.000000	36.583373
1948.000000	36.546038
1947.000000	36.574235
1946.000000	36.500636
1945.000000	36.583187
1944.000000	36.506741
1943.000000	36.523026
1942.000000	36.554176
1941.000000	36.636638
1940.000000	36.656532
1939.000000	36.788258
1938.000000	36.758332
1937.000000	36.924466
1936.000000	36.976117
1935.000000	37.068124
1934.000000	37.141609
1933.000000	37.222173
1932.000000	37.356775
1931.000000	37.460917
1930.000000	37.715203
1929.000000	37.832613
1928.000000	38.079642
1927.000000	38.305947
1926.000000	38.407084
1925.000000	38.606292
1924.000000	38.802089
1923.000000	39.135840
1922.000000	39.324629
1921.000000	39.669156
1920.000000	39.809742
1919.000000	40.074180
1918.000000	40.436125
1917.000000	40.767208
1916.000000	40.968748
1915.000000	41.445970
1914.000000	41.700038
1913.000000	42.125762
1912.000000	42.493733
1911.000000	42.833353
1910.000000	43.162240
1909.000000	43.574094
1908.000000	43.878805
1907.000000	44.309015
1906.000000	44.725095
1905.000000	45.151967
1904.000000	45.626111
1903.000000	46.084617
1902.000000	46.586761
1901.000000	47.002980
1900.000000	47.448989
1899.000000	47.961262
1898.000000	48.450395
1897.000000	48.837453
1896.000000	49.266195
1895.000000	49.715458
1894.000000	50.168003
1893.000000	50.604508
1892.000000	50.969512
1891.000000	51.360979
1890.000000	51.758565
1889.000000	52.169334
1888.000000	52.506551
1887.000000	52.897611
1886.000000	53.311973
1885.000000	53.635230
1884.000000	53.934408
1883.000000	54.300055
1882.000000	54.636207
1881.000000	54.887137
1880.000000	55.112512
1879.000000	55.373174
1878.000000	55.616917
1877.000000	55.861971
1876.000000	55.996224
1875.000000	56.309482
1874.000000	56.524609
1873.000000	56.684154
1872.000000	56.826090
1871.000000	56.930024
1870.000000	57.090469
1869.000000	57.238255
1868.000000	57.352172
1867.000000	57.405176
1866.000000	57.492340
1865.000000	57.580309
1864.000000	57.663297
1863.000000	57.724741
1862.000000	57.785050
1861.000000	57.812389
1860.000000	57.914240
1859.000000	57.887253
1858.000000	57.981578
1857.000000	58.054490
1856.000000	58.067557
1855.000000	58.076048
1854.000000	58.092531
1853.000000	58.116249
1852.000000	58.084663
1851.000000	58.132495
1850.000000	58.137219
1849.000000	58.110431
1848.000000	58.062204
1847.000000	58.104110
1846.000000	58.101480
1845.000000	58.115193
1844.000000	58.067945
1843.000000	58.023413
1842.000000	58.027207
1841.000000	57.996318
1840.000000	57.978431
1839.000000	57.983889
1838.000000	57.931062
1837.000000	57.888832
1836.000000	57.874374
1835.000000	57.849045
1834.000000	57.788315
1833.000000	57.759459
1832.000000	57.721968
1831.000000	57.660638
1830.000000	57.637933
1829.000000	57.613440
1828.000000	57.587598
1827.000000	57.540051
1826.000000	57.491617
1825.000000	57.466929
1824.000000	57.461972
1823.000000	57.414907
1822.000000	57.375464
1821.000000	57.359908
1820.000000	57.328827
1819.000000	57.289586
1818.000000	57.254062
1817.000000	57.241151
1816.000000	57.214021
1815.000000	57.191969
1814.000000	57.161482
1813.000000	57.146298
1812.000000	57.129660
1811.000000	57.074465
1810.000000	57.050180
1809.000000	57.056304
1808.000000	57.023505
1807.000000	56.976474
1806.000000	56.958167
1805.000000	56.930994
1804.000000	56.898815
1803.000000	56.879303
1802.000000	56.840549
1801.000000	56.824112
1800.000000	56.805568
1799.000000	56.773291
1798.000000	56.749950
1797.000000	56.736830
1796.000000	56.710241
1795.000000	56.689403
1794.000000	56.687320
1793.000000	56.658850
1792.000000	56.640087
1791.000000	56.623349
1790.000000	56.611250
1789.000000	56.606418
1788.000000	56.575738
1787.000000	56.539629
1786.000000	56.531985
1785.000000	56.488622
1784.000000	56.458199
1783.000000	56.440584
1782.000000	56.405993
1781.000000	56.375604
1780.000000	56.313941
1779.000000	56.283050
1778.000000	56.250000
1777.000000	56.196244
1776.000000	56.131487
1775.000000	56.083653
1774.000000	56.029293
1773.000000	55.972334
1772.000000	55.888079
1771.000000	55.840108
1770.000000	55.821420
1769.000000	55.751836
1768.000000	55.722760
1767.000000	55.649733
1766.000000	55.609918
1765.000000	55.566074
1764.000000	55.539895
1763.000000	55.476760
1762.000000	55.419096
1761.000000	55.387787
1760.000000	55.314902
1759.000000	55.288989
1758.000000	55.282621
1757.000000	55.222706
1756.000000	55.157381
1755.000000	55.153143
1754.000000	55.133054
1753.000000	55.076120
1752.000000	55.034518
1751.000000	54.990538
1750.000000	54.919716
1749.000000	54.899047
1748.000000	54.818635
1747.000000	54.768114
1746.000000	54.721531
1745.000000	54.666931
1744.000000	54.610883
1743.000000	54.568934
1742.000000	54.488709
1741.000000	54.446136
1740.000000	54.370308
1739.000000	54.304507
1738.000000	54.302173
1737.000000	54.256883
1736.000000	54.211762
1735.000000	54.218876
1734.000000	54.234963
1733.000000	54.198231
1732.000000	54.176148
1731.000000	54.186050
1730.000000	54.189176
1729.000000	54.176581
1728.000000	54.239834
1727.000000	54.286394
1726.000000	54.358922
1725.000000	54.417250
1724.000000	54.517133
1723.000000	54.545741
1722.000000	54.634389
1721.000000	54.755112
1720.000000	54.853685
1719.000000	54.946942
1718.000000	55.054095
1717.000000	55.098291
1716.000000	55.202937
1715.000000	55.309151
1714.000000	55.386208
1713.000000	55.469914
1712.000000	55.537550
1711.000000	55.598506
1710.000000	55.658651
1709.000000	55.755117
1708.000000	55.824498
1707.000000	55.862025
1706.000000	55.898237
1705.000000	55.938835
1704.000000	55.997312
1703.000000	56.058433
1702.000000	56.043420
1701.000000	56.078959
1700.000000	56.104258
1699.000000	56.147821
1698.000000	56.202263
1697.000000	56.223268
1696.000000	56.262214
1695.000000	56.297919
1694.000000	56.329992
1693.000000	56.417425
1692.000000	56.468491
1691.000000	56.525510
1690.000000	56.581525
1689.000000	56.652680
1688.000000	56.738947
1687.000000	56.862492
1686.000000	56.945795
1685.000000	57.093301
1684.000000	57.206852
1683.000000	57.322368
1682.000000	57.464540
1681.000000	57.626902
1680.000000	57.716115
1679.000000	57.864421
1678.000000	58.013106
1677.000000	58.113710
1676.000000	58.259539
1675.000000	58.439996
1674.000000	58.550905
1673.000000	58.671922
1672.000000	58.842631
1671.000000	58.953145
1670.000000	59.052947
1669.000000	59.170942
1668.000000	59.270939
1667.000000	59.391916
1666.000000	59.456856
1665.000000	59.518643
1664.000000	59.579526
1663.000000	59.632447
1662.000000	59.725164
1661.000000	59.773953
1660.000000	59.816359
1659.000000	59.917357
1658.000000	59.967159
1657.000000	59.972994
1656.000000	59.987749
1655.000000	60.020804
1654.000000	60.041046
1653.000000	60.047965
1652.000000	60.073277
1651.000000	60.032181
1650.000000	60.064313
1649.000000	60.065974
1648.000000	60.024926
1647.000000	60.058496
1646.000000	60.032326
1645.000000	60.055775
1644.000000	60.007883
1643.000000	59.965234
1642.000000	59.971718
1641.000000	59.952300
1640.000000	59.937612
1639.000000	59.916282
1638.000000	59.904791
1637.000000	59.882193
1636.000000	59.832467
1635.000000	59.825056
1634.000000	59.787095
1633.000000	59.748000
1632.000000	59.733010
1631.000000	59.679982
1630.000000	59.662793
1629.000000	59.631929
1628.000000	59.593356
1627.000000	59.578778
1626.000000	59.551566
1625.000000	59.522637
1624.000000	59.474070
1623.000000	59.433201
1622.000000	59.398003
1621.000000	59.340135
1620.000000	59.311705
1619.000000	59.264184
1618.000000	59.235717
1617.000000	59.205417
1616.000000	59.150883
1615.000000	59.110262
1614.000000	59.081600
1613.000000	59.026468
1612.000000	58.970064
1611.000000	58.924407
1610.000000	58.876161
1609.000000	58.829684
1608.000000	58.785899
1607.000000	58.748898
1606.000000	58.682565
1605.000000	58.641203
1604.000000	58.609050
1603.000000	58.541010
1602.000000	58.500142
1601.000000	58.457306
1600.000000	58.403341
1599.000000	58.360549
1598.000000	58.310858
1597.000000	58.257119
1596.000000	58.228501
1595.000000	58.201024
1594.000000	58.151550
1593.000000	58.103261
1592.000000	58.056069
1591.000000	58.000077
1590.000000	57.965730
1589.000000	57.927185
1588.000000	57.882314
1587.000000	57.857023
1586.000000	57.828139
1585.000000	57.778721
1584.000000	57.749445
1583.000000	57.735111
1582.000000	57.685588
1581.000000	57.649173
1580.000000	57.618313
1579.000000	57.583236
1578.000000	57.562423
1577.000000	57.518713
1576.000000	57.464753
1575.000000	57.436067
1574.000000	57.382846
1573.000000	57.327869
1572.000000	57.300083
1571.000000	57.275009
1570.000000	57.242606
1569.000000	57.223268
1568.000000	57.189301
1567.000000	57.144903
1566.000000	57.139854
1565.000000	57.115510
1564.000000	57.086850
1563.000000	57.072090
1562.000000	57.062160
1561.000000	57.045103
1560.000000	57.028225
1559.000000	56.990273
1558.000000	56.970791
1557.000000	56.952067
1556.000000	56.912768
1555.000000	56.927753
1554.000000	56.916121
1553.000000	56.877370
1552.000000	56.861294
1551.000000	56.819179
1550.000000	56.801241
1549.000000	56.764149
1548.000000	56.735634
1547.000000	56.690615
1546.000000	56.646495
1545.000000	56.600430
1544.000000	56.530480
1543.000000	56.471821
1542.000000	56.424835
1541.000000	56.352884
1540.000000	56.290370
1539.000000	56.229881
1538.000000	56.170287
1537.000000	56.072202
1536.000000	56.018158
1535.000000	55.947947
1534.000000	55.893370
1533.000000	55.799233
1532.000000	55.706213
1531.000000	55.654882
1530.000000	55.608020
1529.000000	55.521254
1528.000000	55.465738
1527.000000	55.414803
1526.000000	55.344720
1525.000000	55.312486
1524.000000	55.253592
1523.000000	55.201291
1522.000000	55.142182
1521.000000	55.125502
1520.000000	55.083730
1519.000000	55.048273
1518.000000	55.029690
1517.000000	54.995430
1516.000000	54.951352
1515.000000	54.943780
1514.000000	54.897370
1513.000000	54.897771
1512.000000	54.863483
1511.000000	54.833022
1510.000000	54.830245
1509.000000	54.793218
1508.000000	54.800349
1507.000000	54.792254
1506.000000	54.770331
1505.000000	54.778855
1504.000000	54.746415
1503.000000	54.759881
1502.000000	54.733315
1501.000000	54.693247
1500.000000	54.713681
1499.000000	54.729356
1498.000000	54.725524
1497.000000	54.726045
1496.000000	54.754948
1495.000000	54.772859
1494.000000	54.769490
1493.000000	54.808879
1492.000000	54.813108
1491.000000	54.830124
1490.000000	54.855561
1489.000000	54.888799
1488.000000	54.935890
1487.000000	54.948219
1486.000000	54.984865
1485.000000	55.034228
1484.000000	55.060470
1483.000000	55.114527
1482.000000	55.155047
1481.000000	55.192961
1480.000000	55.236393
1479.000000	55.279251
1478.000000	55.315647
1477.000000	55.360618
1476.000000	55.385140
1475.000000	55.431541
1474.000000	55.462965
1473.000000	55.521653
1472.000000	55.554416
1471.000000	55.591014
1470.000000	55.640047
