PE UV       SUBTECH     SPECTRUM    ASCII       PEDS        4.00        
   -1
RDmsfkat102.Sample.asc
18/03/20
15:40:13.00
18/03/20
15:40:13.00
Administrator

200.000000
1
Lambda 750
750N8071901
PerkinElmer UV WinLab 6.0.4.0738 / 1.61.00 Lambda 900

0
0
3350/servo 860.8/2
0
0
UV/VIS
1
1
1
CommonBeamDepol,150mm sphere / downward view
0
0
0
0
Program
Program
3350/servo 860.8/2
3350/0.2 860.8/0.2
3350/0.2 860.8/0.2
0
1
 
 
 
0
 
860.8
319.2
860.8
Front
100
on
 
 
0
0
0
 
0
 
 
 
0
 
 
0
0
0
0
0
 
 
 
 
0
0


0
0
#HDR
-1
-1
#GR
nm
%R
1.0
0.0
2350.000000
-1.000000
2151
8
48.890835
9.312767
#DATA
2350.000000	18.947727
2349.000000	18.726969
2348.000000	18.391125
2347.000000	19.335536
2346.000000	18.845549
2345.000000	18.412046
2344.000000	18.741149
2343.000000	18.624796
2342.000000	18.769236
2341.000000	18.956969
2340.000000	18.856344
2339.000000	19.306167
2338.000000	19.373112
2337.000000	19.426568
2336.000000	19.329577
2335.000000	19.153116
2334.000000	19.428145
2333.000000	19.621624
2332.000000	19.630995
2331.000000	19.576089
2330.000000	19.279127
2329.000000	19.561829
2328.000000	19.435241
2327.000000	19.336391
2326.000000	19.437041
2325.000000	19.647440
2324.000000	19.247873
2323.000000	19.376952
2322.000000	19.138523
2321.000000	19.017775
2320.000000	19.208974
2319.000000	19.116432
2318.000000	19.434494
2317.000000	19.318328
2316.000000	19.164579
2315.000000	18.893540
2314.000000	18.890543
2313.000000	18.901813
2312.000000	18.877016
2311.000000	18.804950
2310.000000	18.702761
2309.000000	18.606340
2308.000000	18.515073
2307.000000	18.498064
2306.000000	18.760798
2305.000000	18.727312
2304.000000	18.536541
2303.000000	18.582286
2302.000000	18.539528
2301.000000	18.474634
2300.000000	18.445952
2299.000000	18.306457
2298.000000	17.943014
2297.000000	18.154870
2296.000000	17.945238
2295.000000	17.731960
2294.000000	17.834004
2293.000000	17.919999
2292.000000	17.884579
2291.000000	17.870155
2290.000000	17.696075
2289.000000	17.833583
2288.000000	17.863655
2287.000000	17.811555
2286.000000	17.748370
2285.000000	17.613044
2284.000000	17.726198
2283.000000	17.875854
2282.000000	17.791524
2281.000000	17.820938
2280.000000	17.768723
2279.000000	17.756982
2278.000000	17.662664
2277.000000	17.694496
2276.000000	17.640403
2275.000000	17.708673
2274.000000	17.863123
2273.000000	18.029063
2272.000000	18.065984
2271.000000	18.055077
2270.000000	17.976739
2269.000000	17.846262
2268.000000	18.104849
2267.000000	18.183633
2266.000000	18.096062
2265.000000	18.082288
2264.000000	18.192594
2263.000000	18.166862
2262.000000	18.388526
2261.000000	18.610042
2260.000000	18.759781
2259.000000	19.062194
2258.000000	19.131587
2257.000000	19.271475
2256.000000	19.346995
2255.000000	19.420799
2254.000000	19.663992
2253.000000	19.828812
2252.000000	19.876431
2251.000000	19.958469
2250.000000	20.081847
2249.000000	20.210867
2248.000000	20.251198
2247.000000	20.315827
2246.000000	20.534098
2245.000000	20.815552
2244.000000	21.050637
2243.000000	21.097153
2242.000000	20.996783
2241.000000	21.132762
2240.000000	21.284910
2239.000000	21.311603
2238.000000	21.433189
2237.000000	21.604486
2236.000000	21.606155
2235.000000	21.553565
2234.000000	21.767416
2233.000000	21.892219
2232.000000	21.873240
2231.000000	21.990228
2230.000000	22.056651
2229.000000	22.056504
2228.000000	22.056536
2227.000000	22.209947
2226.000000	22.190342
2225.000000	22.025058
2224.000000	21.935464
2223.000000	21.906092
2222.000000	21.832359
2221.000000	21.962792
2220.000000	22.124388
2219.000000	22.021302
2218.000000	21.939853
2217.000000	21.898771
2216.000000	21.830576
2215.000000	21.841538
2214.000000	21.873469
2213.000000	21.854788
2212.000000	21.749867
2211.000000	21.601889
2210.000000	21.548298
2209.000000	21.492640
2208.000000	21.495806
2207.000000	21.403651
2206.000000	21.428419
2205.000000	21.559962
2204.000000	21.384393
2203.000000	21.283995
2202.000000	21.280262
2201.000000	21.261896
2200.000000	21.112795
2199.000000	20.986564
2198.000000	21.132506
2197.000000	21.230592
2196.000000	21.104513
2195.000000	20.895293
2194.000000	20.815425
2193.000000	20.822970
2192.000000	20.829527
2191.000000	20.724815
2190.000000	20.757593
2189.000000	20.669025
2188.000000	20.467109
2187.000000	20.421764
2186.000000	20.535649
2185.000000	20.335159
2184.000000	20.351133
2183.000000	20.535764
2182.000000	20.571867
2181.000000	20.544731
2180.000000	20.347298
2179.000000	20.337700
2178.000000	20.284064
2177.000000	20.317809
2176.000000	20.466027
2175.000000	20.524151
2174.000000	20.537877
2173.000000	20.644304
2172.000000	20.659021
2171.000000	20.578453
2170.000000	20.658469
2169.000000	20.700348
2168.000000	20.840996
2167.000000	20.771465
2166.000000	20.644033
2165.000000	20.878883
2164.000000	20.843344
2163.000000	20.928761
2162.000000	21.179443
2161.000000	21.266222
2160.000000	21.385908
2159.000000	21.324093
2158.000000	21.533820
2157.000000	21.699663
2156.000000	21.848988
2155.000000	21.856572
2154.000000	21.881507
2153.000000	22.067851
2152.000000	22.137670
2151.000000	22.217333
2150.000000	22.299226
2149.000000	22.380567
2148.000000	22.218716
2147.000000	22.516200
2146.000000	22.728511
2145.000000	22.795024
2144.000000	22.951375
2143.000000	22.794606
2142.000000	23.012395
2141.000000	23.150891
2140.000000	23.437130
2139.000000	23.353364
2138.000000	23.554798
2137.000000	23.679568
2136.000000	23.454843
2135.000000	23.529875
2134.000000	23.879782
2133.000000	23.694420
2132.000000	23.944774
2131.000000	24.107972
2130.000000	24.080577
2129.000000	24.081805
2128.000000	24.066701
2127.000000	24.073495
2126.000000	24.209378
2125.000000	24.252094
2124.000000	24.280418
2123.000000	24.313906
2122.000000	24.249762
2121.000000	24.308049
2120.000000	24.500644
2119.000000	24.523667
2118.000000	24.554304
2117.000000	24.604735
2116.000000	24.848847
2115.000000	24.857537
2114.000000	24.770380
2113.000000	24.728216
2112.000000	24.773379
2111.000000	24.778789
2110.000000	24.641187
2109.000000	24.828261
2108.000000	24.805834
2107.000000	24.911097
2106.000000	24.810014
2105.000000	24.802254
2104.000000	24.900367
2103.000000	24.870696
2102.000000	24.958229
2101.000000	24.790488
2100.000000	24.976313
2099.000000	25.028202
2098.000000	24.935130
2097.000000	24.899669
2096.000000	25.064393
2095.000000	24.916109
2094.000000	24.991094
2093.000000	25.046860
2092.000000	24.992278
2091.000000	24.861263
2090.000000	24.934683
2089.000000	25.000481
2088.000000	24.940955
2087.000000	24.820955
2086.000000	24.844023
2085.000000	24.936775
2084.000000	24.888326
2083.000000	24.771745
2082.000000	24.771832
2081.000000	24.568591
2080.000000	24.562880
2079.000000	24.535960
2078.000000	24.516124
2077.000000	24.537942
2076.000000	24.460912
2075.000000	24.340407
2074.000000	24.248360
2073.000000	24.157211
2072.000000	24.077785
2071.000000	24.021134
2070.000000	23.892673
2069.000000	23.699176
2068.000000	23.633138
2067.000000	23.529995
2066.000000	23.471562
2065.000000	23.422868
2064.000000	23.326719
2063.000000	23.267720
2062.000000	23.144516
2061.000000	22.999993
2060.000000	22.853927
2059.000000	22.730071
2058.000000	22.601875
2057.000000	22.508457
2056.000000	22.441135
2055.000000	22.398789
2054.000000	22.313644
2053.000000	22.194784
2052.000000	22.104743
2051.000000	21.986879
2050.000000	21.861019
2049.000000	21.756115
2048.000000	21.735654
2047.000000	21.745360
2046.000000	21.695024
2045.000000	21.624130
2044.000000	21.581998
2043.000000	21.644529
2042.000000	21.708265
2041.000000	21.701052
2040.000000	21.668836
2039.000000	21.702417
2038.000000	21.759738
2037.000000	21.773428
2036.000000	21.805195
2035.000000	21.916613
2034.000000	21.992879
2033.000000	22.043864
2032.000000	22.118182
2031.000000	22.182599
2030.000000	22.266267
2029.000000	22.397275
2028.000000	22.480566
2027.000000	22.567056
2026.000000	22.697218
2025.000000	22.793914
2024.000000	22.845549
2023.000000	22.877427
2022.000000	22.926792
2021.000000	22.988050
2020.000000	23.045298
2019.000000	23.075767
2018.000000	23.087103
2017.000000	23.103926
2016.000000	23.097391
2015.000000	23.146082
2014.000000	23.204209
2013.000000	23.204789
2012.000000	23.189565
2011.000000	23.134478
2010.000000	23.064202
2009.000000	23.031108
2008.000000	22.996707
2007.000000	22.949749
2006.000000	22.872381
2005.000000	22.862042
2004.000000	22.760387
2003.000000	22.646601
2002.000000	22.624175
2001.000000	22.556115
2000.000000	22.523223
1999.000000	22.438228
1998.000000	22.362583
1997.000000	22.317139
1996.000000	22.257577
1995.000000	22.174431
1994.000000	22.104935
1993.000000	22.029722
1992.000000	21.989463
1991.000000	21.917949
1990.000000	21.795136
1989.000000	21.694837
1988.000000	21.618419
1987.000000	21.619357
1986.000000	21.511549
1985.000000	21.404184
1984.000000	21.339327
1983.000000	21.290801
1982.000000	21.242583
1981.000000	21.163597
1980.000000	21.077059
1979.000000	20.990561
1978.000000	20.967739
1977.000000	20.897588
1976.000000	20.808172
1975.000000	20.759134
1974.000000	20.666732
1973.000000	20.650003
1972.000000	20.562219
1971.000000	20.515636
1970.000000	20.428539
1969.000000	20.368376
1968.000000	20.278284
1967.000000	20.241971
1966.000000	20.239316
1965.000000	20.166265
1964.000000	20.113502
1963.000000	20.013323
1962.000000	19.962887
1961.000000	19.819620
1960.000000	19.788093
1959.000000	19.759820
1958.000000	19.679886
1957.000000	19.616880
1956.000000	19.571945
1955.000000	19.518526
1954.000000	19.510773
1953.000000	19.477132
1952.000000	19.490328
1951.000000	19.436586
1950.000000	19.359206
1949.000000	19.354740
1948.000000	19.320938
1947.000000	19.323137
1946.000000	19.320800
1945.000000	19.365483
1944.000000	19.279685
1943.000000	19.300758
1942.000000	19.390456
1941.000000	19.418173
1940.000000	19.428239
1939.000000	19.436680
1938.000000	19.533715
1937.000000	19.514414
1936.000000	19.612497
1935.000000	19.758587
1934.000000	19.792014
1933.000000	19.817765
1932.000000	19.848499
1931.000000	19.938584
1930.000000	20.100151
1929.000000	20.162036
1928.000000	20.325263
1927.000000	20.568748
1926.000000	20.634111
1925.000000	20.750689
1924.000000	21.075921
1923.000000	21.165483
1922.000000	21.313224
1921.000000	21.552623
1920.000000	21.646334
1919.000000	21.897030
1918.000000	22.147419
1917.000000	22.410978
1916.000000	22.538923
1915.000000	22.915950
1914.000000	23.243284
1913.000000	23.448326
1912.000000	23.634998
1911.000000	23.967551
1910.000000	24.174529
1909.000000	24.559446
1908.000000	24.954704
1907.000000	25.262295
1906.000000	25.625449
1905.000000	25.880900
1904.000000	26.273994
1903.000000	26.599921
1902.000000	27.037010
1901.000000	27.435970
1900.000000	27.843569
1899.000000	28.286095
1898.000000	28.657340
1897.000000	29.135954
1896.000000	29.471598
1895.000000	29.899575
1894.000000	30.216982
1893.000000	30.557377
1892.000000	31.028849
1891.000000	31.407235
1890.000000	31.788700
1889.000000	32.154809
1888.000000	32.481352
1887.000000	32.801339
1886.000000	33.262629
1885.000000	33.541195
1884.000000	33.868514
1883.000000	34.196912
1882.000000	34.540011
1881.000000	34.808758
1880.000000	35.054225
1879.000000	35.337512
1878.000000	35.550083
1877.000000	35.771520
1876.000000	36.064945
1875.000000	36.255249
1874.000000	36.378965
1873.000000	36.560410
1872.000000	36.734719
1871.000000	36.884718
1870.000000	37.015017
1869.000000	37.197264
1868.000000	37.359450
1867.000000	37.392445
1866.000000	37.486034
1865.000000	37.587894
1864.000000	37.648395
1863.000000	37.707509
1862.000000	37.789167
1861.000000	37.807236
1860.000000	37.916472
1859.000000	37.926159
1858.000000	37.978433
1857.000000	38.043738
1856.000000	38.074618
1855.000000	38.138801
1854.000000	38.152023
1853.000000	38.102844
1852.000000	38.119344
1851.000000	38.125965
1850.000000	38.179952
1849.000000	38.167199
1848.000000	38.160200
1847.000000	38.180456
1846.000000	38.158166
1845.000000	38.150553
1844.000000	38.145606
1843.000000	38.081430
1842.000000	38.119673
1841.000000	38.082782
1840.000000	38.044042
1839.000000	38.052038
1838.000000	38.066300
1837.000000	37.979382
1836.000000	37.930485
1835.000000	37.905000
1834.000000	37.839528
1833.000000	37.804462
1832.000000	37.778427
1831.000000	37.734047
1830.000000	37.699027
1829.000000	37.671607
1828.000000	37.672323
1827.000000	37.653101
1826.000000	37.605643
1825.000000	37.570247
1824.000000	37.564700
1823.000000	37.541587
1822.000000	37.515437
1821.000000	37.473335
1820.000000	37.440244
1819.000000	37.390376
1818.000000	37.379766
1817.000000	37.360778
1816.000000	37.327105
1815.000000	37.321273
1814.000000	37.269684
1813.000000	37.248571
1812.000000	37.236895
1811.000000	37.202815
1810.000000	37.185538
1809.000000	37.165361
1808.000000	37.144083
1807.000000	37.125185
1806.000000	37.107174
1805.000000	37.084677
1804.000000	37.074465
1803.000000	37.034649
1802.000000	36.995108
1801.000000	36.995760
1800.000000	36.979958
1799.000000	36.950751
1798.000000	36.930039
1797.000000	36.929048
1796.000000	36.913166
1795.000000	36.896548
1794.000000	36.890006
1793.000000	36.886300
1792.000000	36.866590
1791.000000	36.843465
1790.000000	36.814469
1789.000000	36.798708
1788.000000	36.815669
1787.000000	36.795983
1786.000000	36.767509
1785.000000	36.756248
1784.000000	36.739275
1783.000000	36.735427
1782.000000	36.677651
1781.000000	36.649452
1780.000000	36.624660
1779.000000	36.582722
1778.000000	36.547255
1777.000000	36.516605
1776.000000	36.481704
1775.000000	36.431944
1774.000000	36.389126
1773.000000	36.325916
1772.000000	36.255794
1771.000000	36.212179
1770.000000	36.193660
1769.000000	36.157130
1768.000000	36.094911
1767.000000	36.044633
1766.000000	36.021283
1765.000000	35.961092
1764.000000	35.953030
1763.000000	35.901603
1762.000000	35.855281
1761.000000	35.792662
1760.000000	35.721033
1759.000000	35.684097
1758.000000	35.660629
1757.000000	35.624757
1756.000000	35.564825
1755.000000	35.509182
1754.000000	35.477763
1753.000000	35.434354
1752.000000	35.370413
1751.000000	35.311291
1750.000000	35.291593
1749.000000	35.289027
1748.000000	35.198924
1747.000000	35.155229
1746.000000	35.105889
1745.000000	35.052724
1744.000000	35.005553
1743.000000	34.950065
1742.000000	34.866360
1741.000000	34.857290
1740.000000	34.794577
1739.000000	34.745563
1738.000000	34.728298
1737.000000	34.696284
1736.000000	34.700338
1735.000000	34.705672
1734.000000	34.678170
1733.000000	34.641979
1732.000000	34.679290
1731.000000	34.696366
1730.000000	34.704288
1729.000000	34.736793
1728.000000	34.778222
1727.000000	34.795726
1726.000000	34.840370
1725.000000	34.900753
1724.000000	35.000742
1723.000000	35.023187
1722.000000	35.151484
1721.000000	35.189802
1720.000000	35.290034
1719.000000	35.387755
1718.000000	35.488564
1717.000000	35.537066
1716.000000	35.650550
1715.000000	35.727156
1714.000000	35.770026
1713.000000	35.857140
1712.000000	35.945026
1711.000000	36.004269
1710.000000	36.072912
1709.000000	36.117884
1708.000000	36.135978
1707.000000	36.178048
1706.000000	36.253172
1705.000000	36.271476
1704.000000	36.312750
1703.000000	36.284005
1702.000000	36.344902
1701.000000	36.322597
1700.000000	36.379532
1699.000000	36.353692
1698.000000	36.391738
1697.000000	36.422911
1696.000000	36.459656
1695.000000	36.507538
1694.000000	36.552052
1693.000000	36.583087
1692.000000	36.611260
1691.000000	36.681751
1690.000000	36.805184
1689.000000	36.857768
1688.000000	36.938023
1687.000000	37.046641
1686.000000	37.150810
1685.000000	37.265191
1684.000000	37.395023
1683.000000	37.546339
1682.000000	37.688508
1681.000000	37.844340
1680.000000	37.968956
1679.000000	38.096957
1678.000000	38.274188
1677.000000	38.393657
1676.000000	38.574129
1675.000000	38.732692
1674.000000	38.897482
1673.000000	39.042423
1672.000000	39.189142
1671.000000	39.339776
1670.000000	39.477499
1669.000000	39.606807
1668.000000	39.681653
1667.000000	39.835635
1666.000000	39.917963
1665.000000	39.988317
1664.000000	40.076463
1663.000000	40.143889
1662.000000	40.206868
1661.000000	40.288725
1660.000000	40.351132
1659.000000	40.455623
1658.000000	40.489896
1657.000000	40.524748
1656.000000	40.561928
1655.000000	40.588174
1654.000000	40.611319
1653.000000	40.639821
1652.000000	40.675134
1651.000000	40.679691
1650.000000	40.674216
1649.000000	40.670367
1648.000000	40.654809
1647.000000	40.657207
1646.000000	40.657874
1645.000000	40.639125
1644.000000	40.613850
1643.000000	40.595163
1642.000000	40.591480
1641.000000	40.579447
1640.000000	40.564271
1639.000000	40.522726
1638.000000	40.520053
1637.000000	40.511309
1636.000000	40.467271
1635.000000	40.442306
1634.000000	40.399722
1633.000000	40.368928
1632.000000	40.362591
1631.000000	40.326113
1630.000000	40.284287
1629.000000	40.245868
1628.000000	40.224197
1627.000000	40.176396
1626.000000	40.159934
1625.000000	40.130672
1624.000000	40.083355
1623.000000	40.065840
1622.000000	40.025881
1621.000000	39.963271
1620.000000	39.918207
1619.000000	39.874100
1618.000000	39.844892
1617.000000	39.810320
1616.000000	39.769256
1615.000000	39.696573
1614.000000	39.665510
1613.000000	39.616382
1612.000000	39.567523
1611.000000	39.530920
1610.000000	39.470776
1609.000000	39.421962
1608.000000	39.378241
1607.000000	39.339160
1606.000000	39.273588
1605.000000	39.230275
1604.000000	39.190131
1603.000000	39.124419
1602.000000	39.075541
1601.000000	39.027852
1600.000000	38.981611
1599.000000	38.934527
1598.000000	38.889854
1597.000000	38.840991
1596.000000	38.795163
1595.000000	38.757139
1594.000000	38.718502
1593.000000	38.666302
1592.000000	38.615138
1591.000000	38.582316
1590.000000	38.552101
1589.000000	38.504705
1588.000000	38.457390
1587.000000	38.438581
1586.000000	38.401611
1585.000000	38.350814
1584.000000	38.320998
1583.000000	38.293841
1582.000000	38.260855
1581.000000	38.227073
1580.000000	38.179421
1579.000000	38.144598
1578.000000	38.122186
1577.000000	38.096128
1576.000000	38.041199
1575.000000	37.994261
1574.000000	37.961787
1573.000000	37.927172
1572.000000	37.886726
1571.000000	37.859850
1570.000000	37.837923
1569.000000	37.784664
1568.000000	37.745266
1567.000000	37.728197
1566.000000	37.710786
1565.000000	37.684222
1564.000000	37.656336
1563.000000	37.635965
1562.000000	37.619727
1561.000000	37.610987
1560.000000	37.597003
1559.000000	37.570558
1558.000000	37.526199
1557.000000	37.519789
1556.000000	37.506904
1555.000000	37.480897
1554.000000	37.472209
1553.000000	37.445056
1552.000000	37.407931
1551.000000	37.374091
1550.000000	37.363698
1549.000000	37.315723
1548.000000	37.287063
1547.000000	37.251250
1546.000000	37.200288
1545.000000	37.146066
1544.000000	37.086679
1543.000000	37.013356
1542.000000	36.958208
1541.000000	36.890058
1540.000000	36.827312
1539.000000	36.764828
1538.000000	36.685021
1537.000000	36.609645
1536.000000	36.530624
1535.000000	36.466523
1534.000000	36.402269
1533.000000	36.329215
1532.000000	36.252213
1531.000000	36.187183
1530.000000	36.118075
1529.000000	36.043168
1528.000000	35.982354
1527.000000	35.918364
1526.000000	35.862341
1525.000000	35.815121
1524.000000	35.771329
1523.000000	35.722867
1522.000000	35.670230
1521.000000	35.629116
1520.000000	35.601851
1519.000000	35.564835
1518.000000	35.554804
1517.000000	35.494527
1516.000000	35.469151
1515.000000	35.457860
1514.000000	35.428451
1513.000000	35.408252
1512.000000	35.387311
1511.000000	35.363930
1510.000000	35.373952
1509.000000	35.331942
1508.000000	35.327884
1507.000000	35.325138
1506.000000	35.307994
1505.000000	35.302960
1504.000000	35.310494
1503.000000	35.312634
1502.000000	35.294793
1501.000000	35.289835
1500.000000	35.298556
1499.000000	35.312807
1498.000000	35.321915
1497.000000	35.322066
1496.000000	35.340778
1495.000000	35.368045
1494.000000	35.373844
1493.000000	35.407405
1492.000000	35.423069
1491.000000	35.444638
1490.000000	35.494656
1489.000000	35.531837
1488.000000	35.582018
1487.000000	35.603025
1486.000000	35.646014
1485.000000	35.686570
1484.000000	35.737346
1483.000000	35.796051
1482.000000	35.819445
1481.000000	35.875420
1480.000000	35.919629
1479.000000	35.975632
1478.000000	36.041464
1477.000000	36.072383
1476.000000	36.099403
1475.000000	36.154908
1474.000000	36.177122
1473.000000	36.235772
1472.000000	36.288506
1471.000000	36.327206
1470.000000	36.371214
