PE UV       SUBTECH     SPECTRUM    ASCII       PEDS        4.00        
   -1
RTms1240122.Sample.asc
18/03/20
17:51:50.00
18/03/20
17:51:50.00
Administrator

200.000000
1
Lambda 750
750N8071901
PerkinElmer UV WinLab 6.0.4.0738 / 1.61.00 Lambda 900

0
0
3350/servo 860.8/2
0
0
UV/VIS
1
1
1
CommonBeamDepol,150mm sphere / downward view
0
0
0
0
Program
Program
3350/servo 860.8/2
3350/0.2 860.8/0.2
3350/0.2 860.8/0.2
0
1
 
 
 
0
 
860.8
319.2
860.8
Front
100
on
 
 
0
0
0
 
0
 
 
 
0
 
 
0
0
0
0
0
 
 
 
 
0
0


0
0
#HDR
-1
-1
#GR
nm
%R
1.0
0.0
2350.000000
-1.000000
2151
8
53.532643
10.169765
#DATA
2350.000000	28.813977
2349.000000	29.067729
2348.000000	29.394938
2347.000000	29.513422
2346.000000	29.137000
2345.000000	29.280081
2344.000000	29.000543
2343.000000	28.879481
2342.000000	28.758165
2341.000000	29.082737
2340.000000	29.275031
2339.000000	29.527807
2338.000000	29.361884
2337.000000	29.436284
2336.000000	29.705748
2335.000000	29.804151
2334.000000	29.915049
2333.000000	29.709126
2332.000000	29.608100
2331.000000	29.768028
2330.000000	29.529574
2329.000000	29.385201
2328.000000	29.483708
2327.000000	29.530793
2326.000000	29.435886
2325.000000	29.787586
2324.000000	29.765507
2323.000000	29.464010
2322.000000	29.394774
2321.000000	29.400326
2320.000000	29.469046
2319.000000	29.484071
2318.000000	29.312200
2317.000000	29.245103
2316.000000	29.122470
2315.000000	29.069114
2314.000000	29.142931
2313.000000	29.026954
2312.000000	28.984132
2311.000000	28.860668
2310.000000	28.736995
2309.000000	28.894958
2308.000000	28.815498
2307.000000	28.631563
2306.000000	28.628772
2305.000000	28.681058
2304.000000	28.657775
2303.000000	28.648672
2302.000000	28.488834
2301.000000	28.309646
2300.000000	28.201982
2299.000000	28.288359
2298.000000	28.216283
2297.000000	28.040986
2296.000000	28.164170
2295.000000	28.099094
2294.000000	28.107933
2293.000000	27.892437
2292.000000	27.953712
2291.000000	27.947892
2290.000000	28.108533
2289.000000	28.026637
2288.000000	27.944254
2287.000000	27.876433
2286.000000	27.829619
2285.000000	27.742866
2284.000000	27.730770
2283.000000	27.726219
2282.000000	27.749565
2281.000000	27.904856
2280.000000	27.979068
2279.000000	27.844187
2278.000000	27.834052
2277.000000	28.022807
2276.000000	27.931076
2275.000000	27.927882
2274.000000	27.970184
2273.000000	27.982538
2272.000000	28.072009
2271.000000	28.062511
2270.000000	28.092801
2269.000000	28.267910
2268.000000	28.309848
2267.000000	28.386401
2266.000000	28.504055
2265.000000	28.460676
2264.000000	28.591761
2263.000000	28.716836
2262.000000	28.693502
2261.000000	28.784867
2260.000000	28.861942
2259.000000	29.088131
2258.000000	29.401033
2257.000000	29.506693
2256.000000	29.480130
2255.000000	29.565375
2254.000000	29.828239
2253.000000	30.052255
2252.000000	30.149657
2251.000000	30.283417
2250.000000	30.372814
2249.000000	30.521003
2248.000000	30.674045
2247.000000	30.895888
2246.000000	31.075141
2245.000000	31.134076
2244.000000	31.242323
2243.000000	31.369184
2242.000000	31.427493
2241.000000	31.655941
2240.000000	31.795120
2239.000000	31.764033
2238.000000	32.005196
2237.000000	32.163328
2236.000000	32.214683
2235.000000	32.238101
2234.000000	32.286148
2233.000000	32.303234
2232.000000	32.321202
2231.000000	32.369080
2230.000000	32.436945
2229.000000	32.529294
2228.000000	32.508432
2227.000000	32.395018
2226.000000	32.459482
2225.000000	32.637893
2224.000000	32.565340
2223.000000	32.320655
2222.000000	32.339891
2221.000000	32.565714
2220.000000	32.640216
2219.000000	32.600895
2218.000000	32.494896
2217.000000	32.503195
2216.000000	32.341915
2215.000000	32.363291
2214.000000	32.338378
2213.000000	32.332176
2212.000000	32.242742
2211.000000	32.131594
2210.000000	32.024447
2209.000000	32.074129
2208.000000	32.185474
2207.000000	32.082787
2206.000000	32.044042
2205.000000	31.987445
2204.000000	31.965947
2203.000000	31.850699
2202.000000	31.830026
2201.000000	31.777840
2200.000000	31.709395
2199.000000	31.664051
2198.000000	31.746663
2197.000000	31.602554
2196.000000	31.489748
2195.000000	31.528658
2194.000000	31.447323
2193.000000	31.190625
2192.000000	31.262734
2191.000000	31.241861
2190.000000	31.212600
2189.000000	31.267516
2188.000000	31.208079
2187.000000	31.225944
2186.000000	31.145472
2185.000000	31.105191
2184.000000	31.012986
2183.000000	31.006895
2182.000000	30.967512
2181.000000	31.135467
2180.000000	30.989848
2179.000000	30.966072
2178.000000	30.948900
2177.000000	31.074044
2176.000000	31.101296
2175.000000	31.003299
2174.000000	31.018980
2173.000000	31.044978
2172.000000	31.137575
2171.000000	31.184780
2170.000000	31.309570
2169.000000	31.304229
2168.000000	31.451974
2167.000000	31.478764
2166.000000	31.458217
2165.000000	31.529059
2164.000000	31.594608
2163.000000	31.705047
2162.000000	31.894261
2161.000000	31.981491
2160.000000	31.968989
2159.000000	32.089684
2158.000000	32.157155
2157.000000	32.241341
2156.000000	32.528595
2155.000000	32.509501
2154.000000	32.651624
2153.000000	32.823583
2152.000000	32.837119
2151.000000	32.881260
2150.000000	32.885173
2149.000000	33.030320
2148.000000	33.202781
2147.000000	33.255417
2146.000000	33.469502
2145.000000	33.560605
2144.000000	33.683470
2143.000000	33.713836
2142.000000	33.784671
2141.000000	33.977073
2140.000000	34.047338
2139.000000	34.047371
2138.000000	34.253214
2137.000000	34.415045
2136.000000	34.188348
2135.000000	34.266143
2134.000000	34.593898
2133.000000	34.374701
2132.000000	34.593207
2131.000000	34.629164
2130.000000	34.787904
2129.000000	34.785861
2128.000000	34.803102
2127.000000	34.757712
2126.000000	34.929500
2125.000000	34.939868
2124.000000	35.208654
2123.000000	35.085017
2122.000000	35.300093
2121.000000	35.122034
2120.000000	35.083994
2119.000000	35.083857
2118.000000	35.267363
2117.000000	35.199330
2116.000000	35.206483
2115.000000	35.247167
2114.000000	35.183744
2113.000000	35.273279
2112.000000	35.099233
2111.000000	35.244514
2110.000000	35.405067
2109.000000	35.295021
2108.000000	35.322608
2107.000000	35.350411
2106.000000	35.354201
2105.000000	35.276345
2104.000000	35.432228
2103.000000	35.432999
2102.000000	35.455110
2101.000000	35.524785
2100.000000	35.574646
2099.000000	35.435161
2098.000000	35.307092
2097.000000	35.392716
2096.000000	35.429224
2095.000000	35.431699
2094.000000	35.460018
2093.000000	35.437709
2092.000000	35.561941
2091.000000	35.450540
2090.000000	35.326373
2089.000000	35.321392
2088.000000	35.323856
2087.000000	35.347182
2086.000000	35.337644
2085.000000	35.314318
2084.000000	35.216435
2083.000000	35.115270
2082.000000	35.148257
2081.000000	35.125100
2080.000000	35.077594
2079.000000	35.057427
2078.000000	34.949733
2077.000000	34.928929
2076.000000	34.885374
2075.000000	34.842142
2074.000000	34.783373
2073.000000	34.636407
2072.000000	34.542728
2071.000000	34.516250
2070.000000	34.424555
2069.000000	34.392164
2068.000000	34.313969
2067.000000	34.131423
2066.000000	34.005656
2065.000000	33.945708
2064.000000	33.901157
2063.000000	33.829833
2062.000000	33.708302
2061.000000	33.526997
2060.000000	33.466870
2059.000000	33.380330
2058.000000	33.303767
2057.000000	33.215980
2056.000000	33.114513
2055.000000	32.949566
2054.000000	32.871336
2053.000000	32.752538
2052.000000	32.659418
2051.000000	32.663411
2050.000000	32.636272
2049.000000	32.522819
2048.000000	32.467154
2047.000000	32.445600
2046.000000	32.329748
2045.000000	32.328135
2044.000000	32.354795
2043.000000	32.321195
2042.000000	32.347199
2041.000000	32.374273
2040.000000	32.354287
2039.000000	32.371753
2038.000000	32.410931
2037.000000	32.436040
2036.000000	32.479107
2035.000000	32.556144
2034.000000	32.598629
2033.000000	32.675443
2032.000000	32.805813
2031.000000	32.871827
2030.000000	32.906374
2029.000000	33.001208
2028.000000	33.105252
2027.000000	33.182709
2026.000000	33.254446
2025.000000	33.304424
2024.000000	33.336508
2023.000000	33.371738
2022.000000	33.367489
2021.000000	33.391671
2020.000000	33.453821
2019.000000	33.467910
2018.000000	33.498838
2017.000000	33.496979
2016.000000	33.504649
2015.000000	33.499286
2014.000000	33.456647
2013.000000	33.459995
2012.000000	33.454590
2011.000000	33.415197
2010.000000	33.383252
2009.000000	33.318219
2008.000000	33.267001
2007.000000	33.198222
2006.000000	33.129577
2005.000000	33.110640
2004.000000	33.044461
2003.000000	32.958641
2002.000000	32.890722
2001.000000	32.801808
2000.000000	32.745207
1999.000000	32.721210
1998.000000	32.650353
1997.000000	32.544634
1996.000000	32.488816
1995.000000	32.380167
1994.000000	32.319741
1993.000000	32.255098
1992.000000	32.178126
1991.000000	32.059472
1990.000000	31.995017
1989.000000	31.901636
1988.000000	31.845341
1987.000000	31.765389
1986.000000	31.692110
1985.000000	31.614529
1984.000000	31.514817
1983.000000	31.471333
1982.000000	31.410396
1981.000000	31.363242
1980.000000	31.217597
1979.000000	31.136632
1978.000000	31.064363
1977.000000	30.973157
1976.000000	30.917101
1975.000000	30.864759
1974.000000	30.768520
1973.000000	30.697470
1972.000000	30.614548
1971.000000	30.554503
1970.000000	30.447597
1969.000000	30.409321
1968.000000	30.301852
1967.000000	30.233486
1966.000000	30.226419
1965.000000	30.139098
1964.000000	30.023346
1963.000000	29.939596
1962.000000	29.846112
1961.000000	29.771453
1960.000000	29.729370
1959.000000	29.637915
1958.000000	29.620152
1957.000000	29.546901
1956.000000	29.513636
1955.000000	29.439463
1954.000000	29.389903
1953.000000	29.341972
1952.000000	29.357415
1951.000000	29.291137
1950.000000	29.239115
1949.000000	29.198167
1948.000000	29.180355
1947.000000	29.192772
1946.000000	29.142808
1945.000000	29.191936
1944.000000	29.084605
1943.000000	29.104928
1942.000000	29.110907
1941.000000	29.162856
1940.000000	29.158349
1939.000000	29.233088
1938.000000	29.273427
1937.000000	29.378639
1936.000000	29.440815
1935.000000	29.484875
1934.000000	29.542206
1933.000000	29.631019
1932.000000	29.702828
1931.000000	29.838825
1930.000000	30.024393
1929.000000	30.087355
1928.000000	30.230673
1927.000000	30.361246
1926.000000	30.502444
1925.000000	30.651598
1924.000000	30.827776
1923.000000	31.055595
1922.000000	31.250804
1921.000000	31.519645
1920.000000	31.686733
1919.000000	31.908438
1918.000000	32.168830
1917.000000	32.453091
1916.000000	32.593071
1915.000000	32.830975
1914.000000	33.105181
1913.000000	33.406154
1912.000000	33.666084
1911.000000	33.960719
1910.000000	34.297806
1909.000000	34.536845
1908.000000	34.797506
1907.000000	35.107254
1906.000000	35.415397
1905.000000	35.804344
1904.000000	36.120403
1903.000000	36.473709
1902.000000	36.772727
1901.000000	37.166736
1900.000000	37.527584
1899.000000	37.924399
1898.000000	38.209705
1897.000000	38.531278
1896.000000	38.890259
1895.000000	39.155300
1894.000000	39.496953
1893.000000	39.820634
1892.000000	40.097539
1891.000000	40.412455
1890.000000	40.672911
1889.000000	40.981421
1888.000000	41.227818
1887.000000	41.497529
1886.000000	41.776486
1885.000000	41.969021
1884.000000	42.245151
1883.000000	42.434279
1882.000000	42.638670
1881.000000	42.808268
1880.000000	43.007731
1879.000000	43.202909
1878.000000	43.387651
1877.000000	43.598913
1876.000000	43.767203
1875.000000	43.888479
1874.000000	44.030501
1873.000000	44.163780
1872.000000	44.293499
1871.000000	44.421356
1870.000000	44.535623
1869.000000	44.653916
1868.000000	44.716978
1867.000000	44.770645
1866.000000	44.838516
1865.000000	44.893588
1864.000000	44.949290
1863.000000	45.013676
1862.000000	45.041763
1861.000000	45.076555
1860.000000	45.118990
1859.000000	45.139417
1858.000000	45.126819
1857.000000	45.166388
1856.000000	45.192277
1855.000000	45.234514
1854.000000	45.264505
1853.000000	45.297577
1852.000000	45.277749
1851.000000	45.276468
1850.000000	45.277005
1849.000000	45.277843
1848.000000	45.296604
1847.000000	45.333462
1846.000000	45.326826
1845.000000	45.318219
1844.000000	45.330886
1843.000000	45.288296
1842.000000	45.304730
1841.000000	45.285715
1840.000000	45.261667
1839.000000	45.254384
1838.000000	45.232169
1837.000000	45.208693
1836.000000	45.208743
1835.000000	45.170322
1834.000000	45.144593
1833.000000	45.161889
1832.000000	45.126757
1831.000000	45.070899
1830.000000	45.071995
1829.000000	45.054173
1828.000000	45.033864
1827.000000	45.027631
1826.000000	45.004527
1825.000000	44.992261
1824.000000	44.996424
1823.000000	44.955853
1822.000000	44.933300
1821.000000	44.926060
1820.000000	44.908701
1819.000000	44.879826
1818.000000	44.863527
1817.000000	44.864130
1816.000000	44.855182
1815.000000	44.856265
1814.000000	44.851937
1813.000000	44.814687
1812.000000	44.789258
1811.000000	44.767267
1810.000000	44.754066
1809.000000	44.749431
1808.000000	44.738566
1807.000000	44.716122
1806.000000	44.699666
1805.000000	44.693090
1804.000000	44.676562
1803.000000	44.655865
1802.000000	44.636389
1801.000000	44.618659
1800.000000	44.610723
1799.000000	44.617879
1798.000000	44.622015
1797.000000	44.611165
1796.000000	44.604567
1795.000000	44.587937
1794.000000	44.596087
1793.000000	44.589038
1792.000000	44.581700
1791.000000	44.589971
1790.000000	44.565530
1789.000000	44.551344
1788.000000	44.559176
1787.000000	44.552539
1786.000000	44.535624
1785.000000	44.514935
1784.000000	44.507250
1783.000000	44.505102
1782.000000	44.494900
1781.000000	44.473769
1780.000000	44.445630
1779.000000	44.414923
1778.000000	44.408394
1777.000000	44.389390
1776.000000	44.361001
1775.000000	44.322832
1774.000000	44.294276
1773.000000	44.275630
1772.000000	44.239219
1771.000000	44.204439
1770.000000	44.208040
1769.000000	44.159911
1768.000000	44.148736
1767.000000	44.124985
1766.000000	44.104456
1765.000000	44.073456
1764.000000	44.068403
1763.000000	44.021456
1762.000000	43.994483
1761.000000	43.941336
1760.000000	43.930494
1759.000000	43.900647
1758.000000	43.870100
1757.000000	43.827660
1756.000000	43.793396
1755.000000	43.810689
1754.000000	43.770146
1753.000000	43.736305
1752.000000	43.737918
1751.000000	43.703120
1750.000000	43.692849
1749.000000	43.653714
1748.000000	43.613327
1747.000000	43.579817
1746.000000	43.579140
1745.000000	43.535485
1744.000000	43.486114
1743.000000	43.466227
1742.000000	43.442309
1741.000000	43.401519
1740.000000	43.391688
1739.000000	43.349878
1738.000000	43.354404
1737.000000	43.325895
1736.000000	43.316640
1735.000000	43.322498
1734.000000	43.317269
1733.000000	43.312275
1732.000000	43.320279
1731.000000	43.325605
1730.000000	43.335358
1729.000000	43.361738
1728.000000	43.409314
1727.000000	43.453317
1726.000000	43.475982
1725.000000	43.499026
1724.000000	43.531444
1723.000000	43.617906
1722.000000	43.671935
1721.000000	43.702564
1720.000000	43.781152
1719.000000	43.843969
1718.000000	43.923273
1717.000000	43.986610
1716.000000	44.035978
1715.000000	44.077928
1714.000000	44.136577
1713.000000	44.201272
1712.000000	44.245489
1711.000000	44.302488
1710.000000	44.332077
1709.000000	44.352114
1708.000000	44.382906
1707.000000	44.393420
1706.000000	44.460533
1705.000000	44.487913
1704.000000	44.506906
1703.000000	44.505762
1702.000000	44.530268
1701.000000	44.536440
1700.000000	44.563023
1699.000000	44.565986
1698.000000	44.587033
1697.000000	44.594431
1696.000000	44.646240
1695.000000	44.652353
1694.000000	44.669535
1693.000000	44.718886
1692.000000	44.741874
1691.000000	44.789676
1690.000000	44.827835
1689.000000	44.884209
1688.000000	44.943703
1687.000000	45.027209
1686.000000	45.058614
1685.000000	45.136203
1684.000000	45.238306
1683.000000	45.303281
1682.000000	45.398276
1681.000000	45.492911
1680.000000	45.591372
1679.000000	45.662806
1678.000000	45.739332
1677.000000	45.841237
1676.000000	45.924663
1675.000000	46.031187
1674.000000	46.101863
1673.000000	46.201041
1672.000000	46.266494
1671.000000	46.371087
1670.000000	46.456155
1669.000000	46.555992
1668.000000	46.599794
1667.000000	46.719362
1666.000000	46.740321
1665.000000	46.789667
1664.000000	46.861212
1663.000000	46.879920
1662.000000	46.910182
1661.000000	46.965233
1660.000000	47.002146
1659.000000	47.048416
1658.000000	47.068154
1657.000000	47.109735
1656.000000	47.122693
1655.000000	47.135582
1654.000000	47.176955
1653.000000	47.193704
1652.000000	47.200356
1651.000000	47.198955
1650.000000	47.201100
1649.000000	47.195094
1648.000000	47.196608
1647.000000	47.204661
1646.000000	47.220762
1645.000000	47.220708
1644.000000	47.215092
1643.000000	47.196592
1642.000000	47.179128
1641.000000	47.180632
1640.000000	47.168184
1639.000000	47.159360
1638.000000	47.163462
1637.000000	47.151582
1636.000000	47.132628
1635.000000	47.118756
1634.000000	47.103479
1633.000000	47.087188
1632.000000	47.058400
1631.000000	47.046332
1630.000000	47.029135
1629.000000	47.006576
1628.000000	46.991150
1627.000000	46.980078
1626.000000	46.965995
1625.000000	46.948801
1624.000000	46.932309
1623.000000	46.915529
1622.000000	46.909412
1621.000000	46.893340
1620.000000	46.864901
1619.000000	46.829972
1618.000000	46.806224
1617.000000	46.792452
1616.000000	46.756366
1615.000000	46.730710
1614.000000	46.725961
1613.000000	46.692105
1612.000000	46.659630
1611.000000	46.626829
1610.000000	46.601007
1609.000000	46.588883
1608.000000	46.568601
1607.000000	46.538326
1606.000000	46.497230
1605.000000	46.474653
1604.000000	46.451175
1603.000000	46.420760
1602.000000	46.393280
1601.000000	46.357830
1600.000000	46.327799
1599.000000	46.301529
1598.000000	46.272316
1597.000000	46.252138
1596.000000	46.228173
1595.000000	46.208983
1594.000000	46.195596
1593.000000	46.173496
1592.000000	46.138280
1591.000000	46.113060
1590.000000	46.100805
1589.000000	46.068084
1588.000000	46.048303
1587.000000	46.039791
1586.000000	46.024507
1585.000000	46.007875
1584.000000	45.987877
1583.000000	45.964743
1582.000000	45.955090
1581.000000	45.923040
1580.000000	45.890742
1579.000000	45.878852
1578.000000	45.878152
1577.000000	45.850797
1576.000000	45.839109
1575.000000	45.831244
1574.000000	45.799279
1573.000000	45.765072
1572.000000	45.754427
1571.000000	45.735522
1570.000000	45.717101
1569.000000	45.697527
1568.000000	45.685649
1567.000000	45.675384
1566.000000	45.650875
1565.000000	45.616451
1564.000000	45.616208
1563.000000	45.632209
1562.000000	45.613647
1561.000000	45.594735
1560.000000	45.583655
1559.000000	45.563357
1558.000000	45.554673
1557.000000	45.555167
1556.000000	45.557080
1555.000000	45.557420
1554.000000	45.535268
1553.000000	45.521910
1552.000000	45.502015
1551.000000	45.494049
1550.000000	45.469888
1549.000000	45.453125
1548.000000	45.440140
1547.000000	45.412003
1546.000000	45.377799
1545.000000	45.355618
1544.000000	45.312836
1543.000000	45.273986
1542.000000	45.255006
1541.000000	45.225968
1540.000000	45.185125
1539.000000	45.134583
1538.000000	45.091257
1537.000000	45.033728
1536.000000	44.989848
1535.000000	44.944720
1534.000000	44.900406
1533.000000	44.868733
1532.000000	44.817598
1531.000000	44.772686
1530.000000	44.736100
1529.000000	44.694918
1528.000000	44.673712
1527.000000	44.626120
1526.000000	44.597142
1525.000000	44.568253
1524.000000	44.538460
1523.000000	44.508695
1522.000000	44.473254
1521.000000	44.446079
1520.000000	44.431640
1519.000000	44.402870
1518.000000	44.389275
1517.000000	44.358438
1516.000000	44.344592
1515.000000	44.318734
1514.000000	44.321122
1513.000000	44.297927
1512.000000	44.311365
1511.000000	44.346793
1510.000000	44.408735
1509.000000	44.424967
1508.000000	44.403322
1507.000000	44.361790
1506.000000	44.333693
1505.000000	44.320184
1504.000000	44.319420
1503.000000	44.308866
1502.000000	44.295440
1501.000000	44.288037
1500.000000	44.290262
1499.000000	44.298587
1498.000000	44.295271
1497.000000	44.309014
1496.000000	44.316844
1495.000000	44.329509
1494.000000	44.322798
1493.000000	44.340330
1492.000000	44.365706
1491.000000	44.401300
1490.000000	44.410485
1489.000000	44.450860
1488.000000	44.453869
1487.000000	44.485356
1486.000000	44.511226
1485.000000	44.532035
1484.000000	44.564809
1483.000000	44.612146
1482.000000	44.619537
1481.000000	44.669880
1480.000000	44.690491
1479.000000	44.708781
1478.000000	44.745262
1477.000000	44.760546
1476.000000	44.814563
1475.000000	44.830793
1474.000000	44.853272
1473.000000	44.882953
1472.000000	44.910497
1471.000000	44.938333
1470.000000	44.960236
