PE UV       SUBTECH     SPECTRUM    ASCII       PEDS        4.00        
   -1
RTmsmeh72.Sample.asc
18/03/20
11:28:27.00
18/03/20
11:28:27.00
Administrator

200.000000
1
Lambda 750
750N8071901
PerkinElmer UV WinLab 6.0.4.0738 / 1.61.00 Lambda 900

0
0
3350/servo 860.8/2
0
0
UV/VIS
1
1
1
CommonBeamDepol,150mm sphere / downward view
0
0
0
0
Program
Program
3350/servo 860.8/2
3350/0.2 860.8/0.2
3350/0.2 860.8/0.2
0
1
 
 
 
0
 
860.8
319.2
860.8
Front
100
on
 
 
0
0
0
 
0
 
 
 
0
 
 
0
0
0
0
0
 
 
 
 
0
0


0
0
#HDR
-1
-1
#GR
nm
%R
1.0
0.0
2350.000000
-1.000000
2151
8
61.209585
9.621681
#DATA
2350.000000	40.328423
2349.000000	39.980657
2348.000000	39.885007
2347.000000	40.537636
2346.000000	40.018109
2345.000000	40.282638
2344.000000	39.981254
2343.000000	40.195040
2342.000000	39.961396
2341.000000	40.332133
2340.000000	40.451145
2339.000000	40.323855
2338.000000	40.498778
2337.000000	40.397826
2336.000000	40.469688
2335.000000	40.403839
2334.000000	40.612330
2333.000000	40.889330
2332.000000	40.681356
2331.000000	40.357734
2330.000000	40.638131
2329.000000	40.409489
2328.000000	40.431680
2327.000000	40.451080
2326.000000	40.467810
2325.000000	40.266123
2324.000000	40.227052
2323.000000	40.185518
2322.000000	40.117524
2321.000000	40.200039
2320.000000	40.211351
2319.000000	40.257796
2318.000000	40.246942
2317.000000	40.074070
2316.000000	39.849533
2315.000000	39.604638
2314.000000	39.750948
2313.000000	39.764275
2312.000000	39.762461
2311.000000	39.842721
2310.000000	39.666903
2309.000000	39.706392
2308.000000	39.625029
2307.000000	39.443869
2306.000000	39.402658
2305.000000	39.496852
2304.000000	39.472964
2303.000000	39.412647
2302.000000	39.351942
2301.000000	39.060751
2300.000000	39.029541
2299.000000	38.911071
2298.000000	38.712392
2297.000000	38.648177
2296.000000	38.905307
2295.000000	38.775556
2294.000000	38.539501
2293.000000	38.408717
2292.000000	38.335990
2291.000000	38.419947
2290.000000	38.403574
2289.000000	38.259795
2288.000000	38.487088
2287.000000	38.498812
2286.000000	38.503580
2285.000000	38.447273
2284.000000	38.424978
2283.000000	38.271480
2282.000000	38.332243
2281.000000	38.319290
2280.000000	38.160975
2279.000000	38.243879
2278.000000	38.300538
2277.000000	38.145047
2276.000000	38.167527
2275.000000	38.190641
2274.000000	38.266602
2273.000000	38.444931
2272.000000	38.500405
2271.000000	38.588827
2270.000000	38.605954
2269.000000	38.581205
2268.000000	38.611690
2267.000000	38.659312
2266.000000	38.838110
2265.000000	38.939857
2264.000000	39.082558
2263.000000	39.124652
2262.000000	39.128801
2261.000000	39.333057
2260.000000	39.499392
2259.000000	39.577020
2258.000000	39.815737
2257.000000	40.024311
2256.000000	40.084906
2255.000000	40.210128
2254.000000	40.385130
2253.000000	40.580795
2252.000000	40.772458
2251.000000	40.975191
2250.000000	41.038104
2249.000000	41.213172
2248.000000	41.347362
2247.000000	41.396263
2246.000000	41.589150
2245.000000	41.725387
2244.000000	41.959383
2243.000000	42.163784
2242.000000	42.196810
2241.000000	42.299285
2240.000000	42.410442
2239.000000	42.557206
2238.000000	42.743465
2237.000000	42.758894
2236.000000	42.810164
2235.000000	42.943421
2234.000000	43.116000
2233.000000	43.196314
2232.000000	43.179810
2231.000000	43.221183
2230.000000	43.179769
2229.000000	43.146795
2228.000000	43.231825
2227.000000	43.225776
2226.000000	43.209301
2225.000000	43.198742
2224.000000	43.220573
2223.000000	43.208613
2222.000000	43.154233
2221.000000	43.149589
2220.000000	43.239342
2219.000000	43.235497
2218.000000	43.133827
2217.000000	43.013454
2216.000000	43.049556
2215.000000	43.050572
2214.000000	43.089693
2213.000000	43.136466
2212.000000	42.972007
2211.000000	42.954338
2210.000000	42.939768
2209.000000	42.855522
2208.000000	42.760904
2207.000000	42.799999
2206.000000	42.784126
2205.000000	42.805297
2204.000000	42.859983
2203.000000	42.712596
2202.000000	42.582901
2201.000000	42.568339
2200.000000	42.523587
2199.000000	42.470466
2198.000000	42.495639
2197.000000	42.382876
2196.000000	42.279270
2195.000000	42.224549
2194.000000	42.087282
2193.000000	42.120688
2192.000000	42.107965
2191.000000	41.927897
2190.000000	41.940417
2189.000000	42.007560
2188.000000	41.840969
2187.000000	41.790743
2186.000000	41.753019
2185.000000	41.733005
2184.000000	41.784254
2183.000000	41.798176
2182.000000	41.696725
2181.000000	41.767745
2180.000000	41.813632
2179.000000	41.763471
2178.000000	41.673852
2177.000000	41.874877
2176.000000	41.864392
2175.000000	41.954288
2174.000000	41.828204
2173.000000	41.849558
2172.000000	41.907133
2171.000000	41.798307
2170.000000	41.789162
2169.000000	42.006873
2168.000000	42.320461
2167.000000	42.199063
2166.000000	42.209107
2165.000000	42.307700
2164.000000	42.418950
2163.000000	42.416885
2162.000000	42.623602
2161.000000	42.666001
2160.000000	42.871920
2159.000000	43.000115
2158.000000	42.946631
2157.000000	43.284886
2156.000000	43.195854
2155.000000	43.355503
2154.000000	43.631628
2153.000000	43.868622
2152.000000	43.786588
2151.000000	43.804534
2150.000000	44.061648
2149.000000	44.134557
2148.000000	44.039875
2147.000000	44.175500
2146.000000	44.396796
2145.000000	44.484912
2144.000000	44.665646
2143.000000	44.673546
2142.000000	45.041666
2141.000000	44.892976
2140.000000	45.101642
2139.000000	45.080956
2138.000000	45.475750
2137.000000	45.385831
2136.000000	45.360063
2135.000000	45.515017
2134.000000	45.636042
2133.000000	45.618032
2132.000000	45.682620
2131.000000	45.745542
2130.000000	45.973525
2129.000000	45.753151
2128.000000	46.008068
2127.000000	46.060930
2126.000000	45.982752
2125.000000	46.014956
2124.000000	46.117656
2123.000000	46.194939
2122.000000	46.196886
2121.000000	46.088843
2120.000000	46.165079
2119.000000	46.120101
2118.000000	46.238308
2117.000000	46.185312
2116.000000	46.347178
2115.000000	46.382339
2114.000000	46.453722
2113.000000	46.370281
2112.000000	46.363765
2111.000000	46.424800
2110.000000	46.385475
2109.000000	46.413384
2108.000000	46.487596
2107.000000	46.406410
2106.000000	46.474399
2105.000000	46.382216
2104.000000	46.449050
2103.000000	46.474418
2102.000000	46.548087
2101.000000	46.507258
2100.000000	46.588783
2099.000000	46.551607
2098.000000	46.433366
2097.000000	46.405088
2096.000000	46.451331
2095.000000	46.506636
2094.000000	46.476819
2093.000000	46.404583
2092.000000	46.540446
2091.000000	46.455686
2090.000000	46.421407
2089.000000	46.465795
2088.000000	46.420585
2087.000000	46.430623
2086.000000	46.421758
2085.000000	46.395328
2084.000000	46.314959
2083.000000	46.185723
2082.000000	46.227712
2081.000000	46.109249
2080.000000	46.042831
2079.000000	46.075429
2078.000000	45.937283
2077.000000	45.877878
2076.000000	45.848643
2075.000000	45.751647
2074.000000	45.723868
2073.000000	45.577462
2072.000000	45.534092
2071.000000	45.483858
2070.000000	45.385154
2069.000000	45.224367
2068.000000	45.195023
2067.000000	45.089589
2066.000000	44.951536
2065.000000	44.837514
2064.000000	44.794759
2063.000000	44.676309
2062.000000	44.598025
2061.000000	44.510946
2060.000000	44.353405
2059.000000	44.204695
2058.000000	44.119256
2057.000000	44.031092
2056.000000	43.896504
2055.000000	43.794960
2054.000000	43.630720
2053.000000	43.524960
2052.000000	43.458776
2051.000000	43.355391
2050.000000	43.285197
2049.000000	43.217351
2048.000000	43.143309
2047.000000	43.099685
2046.000000	43.019578
2045.000000	42.969767
2044.000000	42.976811
2043.000000	42.986879
2042.000000	42.986812
2041.000000	43.018888
2040.000000	43.029826
2039.000000	42.977353
2038.000000	42.984351
2037.000000	43.100361
2036.000000	43.186060
2035.000000	43.209860
2034.000000	43.292016
2033.000000	43.361319
2032.000000	43.415111
2031.000000	43.478839
2030.000000	43.586304
2029.000000	43.665732
2028.000000	43.697003
2027.000000	43.758643
2026.000000	43.844046
2025.000000	43.917088
2024.000000	43.951064
2023.000000	44.024464
2022.000000	44.046400
2021.000000	44.043986
2020.000000	44.108949
2019.000000	44.183846
2018.000000	44.196028
2017.000000	44.189285
2016.000000	44.135756
2015.000000	44.137153
2014.000000	44.114577
2013.000000	44.058564
2012.000000	44.066570
2011.000000	44.047071
2010.000000	44.022535
2009.000000	43.914028
2008.000000	43.851531
2007.000000	43.809731
2006.000000	43.739054
2005.000000	43.676184
2004.000000	43.620579
2003.000000	43.541070
2002.000000	43.475523
2001.000000	43.382300
2000.000000	43.290621
1999.000000	43.197154
1998.000000	43.102835
1997.000000	43.018517
1996.000000	42.964643
1995.000000	42.899776
1994.000000	42.810042
1993.000000	42.686087
1992.000000	42.597922
1991.000000	42.556384
1990.000000	42.472443
1989.000000	42.368697
1988.000000	42.258090
1987.000000	42.179751
1986.000000	42.098424
1985.000000	42.028921
1984.000000	41.924714
1983.000000	41.845120
1982.000000	41.775673
1981.000000	41.699176
1980.000000	41.573081
1979.000000	41.443189
1978.000000	41.392228
1977.000000	41.311747
1976.000000	41.234343
1975.000000	41.123101
1974.000000	41.025081
1973.000000	40.980160
1972.000000	40.912355
1971.000000	40.800553
1970.000000	40.717675
1969.000000	40.655808
1968.000000	40.557787
1967.000000	40.483230
1966.000000	40.469884
1965.000000	40.343509
1964.000000	40.241643
1963.000000	40.197194
1962.000000	40.104121
1961.000000	40.028935
1960.000000	39.988894
1959.000000	39.901301
1958.000000	39.792993
1957.000000	39.763968
1956.000000	39.680559
1955.000000	39.563591
1954.000000	39.564420
1953.000000	39.538877
1952.000000	39.486446
1951.000000	39.505592
1950.000000	39.444367
1949.000000	39.394204
1948.000000	39.322503
1947.000000	39.344441
1946.000000	39.296397
1945.000000	39.305259
1944.000000	39.275457
1943.000000	39.359076
1942.000000	39.345060
1941.000000	39.348043
1940.000000	39.417512
1939.000000	39.450270
1938.000000	39.531523
1937.000000	39.596672
1936.000000	39.711937
1935.000000	39.788840
1934.000000	39.874680
1933.000000	39.938138
1932.000000	40.053620
1931.000000	40.144366
1930.000000	40.355374
1929.000000	40.477885
1928.000000	40.623004
1927.000000	40.788173
1926.000000	40.835749
1925.000000	41.146062
1924.000000	41.271198
1923.000000	41.469827
1922.000000	41.711637
1921.000000	41.971383
1920.000000	42.169503
1919.000000	42.285590
1918.000000	42.634315
1917.000000	42.924650
1916.000000	43.079242
1915.000000	43.399692
1914.000000	43.682806
1913.000000	44.057323
1912.000000	44.252570
1911.000000	44.545038
1910.000000	44.824145
1909.000000	45.170581
1908.000000	45.393793
1907.000000	45.785403
1906.000000	46.095967
1905.000000	46.412824
1904.000000	46.767033
1903.000000	47.055050
1902.000000	47.357334
1901.000000	47.771174
1900.000000	48.112444
1899.000000	48.491305
1898.000000	48.823937
1897.000000	49.097580
1896.000000	49.439632
1895.000000	49.789779
1894.000000	50.079329
1893.000000	50.296974
1892.000000	50.656173
1891.000000	50.939958
1890.000000	51.240641
1889.000000	51.536262
1888.000000	51.790278
1887.000000	52.005406
1886.000000	52.266423
1885.000000	52.504132
1884.000000	52.774111
1883.000000	53.001288
1882.000000	53.157359
1881.000000	53.323306
1880.000000	53.541819
1879.000000	53.683461
1878.000000	53.838901
1877.000000	54.027399
1876.000000	54.144665
1875.000000	54.291555
1874.000000	54.413162
1873.000000	54.533840
1872.000000	54.644815
1871.000000	54.721169
1870.000000	54.838978
1869.000000	54.921478
1868.000000	54.951018
1867.000000	54.997278
1866.000000	55.069075
1865.000000	55.151227
1864.000000	55.171585
1863.000000	55.200020
1862.000000	55.237879
1861.000000	55.301449
1860.000000	55.300168
1859.000000	55.312802
1858.000000	55.360378
1857.000000	55.392956
1856.000000	55.424889
1855.000000	55.457088
1854.000000	55.470138
1853.000000	55.461147
1852.000000	55.454928
1851.000000	55.464356
1850.000000	55.471714
1849.000000	55.463894
1848.000000	55.446750
1847.000000	55.450997
1846.000000	55.449087
1845.000000	55.446594
1844.000000	55.430401
1843.000000	55.400922
1842.000000	55.399337
1841.000000	55.384040
1840.000000	55.402970
1839.000000	55.408870
1838.000000	55.389454
1837.000000	55.341527
1836.000000	55.299961
1835.000000	55.276468
1834.000000	55.256911
1833.000000	55.225209
1832.000000	55.200882
1831.000000	55.189075
1830.000000	55.179566
1829.000000	55.135519
1828.000000	55.115484
1827.000000	55.130536
1826.000000	55.086743
1825.000000	55.067249
1824.000000	55.051065
1823.000000	55.031827
1822.000000	55.010989
1821.000000	54.997013
1820.000000	54.976768
1819.000000	54.924707
1818.000000	54.909714
1817.000000	54.908547
1816.000000	54.890254
1815.000000	54.882718
1814.000000	54.876413
1813.000000	54.873291
1812.000000	54.862218
1811.000000	54.848505
1810.000000	54.834923
1809.000000	54.804825
1808.000000	54.780277
1807.000000	54.768979
1806.000000	54.760883
1805.000000	54.750817
1804.000000	54.742449
1803.000000	54.723385
1802.000000	54.703144
1801.000000	54.694685
1800.000000	54.677608
1799.000000	54.654836
1798.000000	54.666292
1797.000000	54.663553
1796.000000	54.636565
1795.000000	54.624868
1794.000000	54.623746
1793.000000	54.622520
1792.000000	54.619664
1791.000000	54.620829
1790.000000	54.615360
1789.000000	54.608865
1788.000000	54.599161
1787.000000	54.585079
1786.000000	54.573894
1785.000000	54.550363
1784.000000	54.553341
1783.000000	54.543291
1782.000000	54.521369
1781.000000	54.508527
1780.000000	54.484345
1779.000000	54.475443
1778.000000	54.446008
1777.000000	54.408832
1776.000000	54.396167
1775.000000	54.370776
1774.000000	54.350035
1773.000000	54.307954
1772.000000	54.270839
1771.000000	54.248817
1770.000000	54.221995
1769.000000	54.193083
1768.000000	54.148773
1767.000000	54.115501
1766.000000	54.105721
1765.000000	54.056896
1764.000000	54.059864
1763.000000	54.022447
1762.000000	54.002376
1761.000000	53.969820
1760.000000	53.912907
1759.000000	53.923826
1758.000000	53.901685
1757.000000	53.849581
1756.000000	53.850010
1755.000000	53.824710
1754.000000	53.786192
1753.000000	53.746521
1752.000000	53.740438
1751.000000	53.718993
1750.000000	53.681105
1749.000000	53.689223
1748.000000	53.618716
1747.000000	53.585987
1746.000000	53.571570
1745.000000	53.523891
1744.000000	53.502071
1743.000000	53.467898
1742.000000	53.424755
1741.000000	53.417895
1740.000000	53.380971
1739.000000	53.346504
1738.000000	53.329382
1737.000000	53.323107
1736.000000	53.280129
1735.000000	53.287594
1734.000000	53.303813
1733.000000	53.283359
1732.000000	53.269828
1731.000000	53.300409
1730.000000	53.340553
1729.000000	53.344406
1728.000000	53.377843
1727.000000	53.361510
1726.000000	53.394339
1725.000000	53.465290
1724.000000	53.510038
1723.000000	53.546690
1722.000000	53.615447
1721.000000	53.681351
1720.000000	53.726625
1719.000000	53.818574
1718.000000	53.858432
1717.000000	53.881075
1716.000000	53.951301
1715.000000	54.007285
1714.000000	54.037546
1713.000000	54.061219
1712.000000	54.128942
1711.000000	54.162681
1710.000000	54.208364
1709.000000	54.235726
1708.000000	54.260794
1707.000000	54.314245
1706.000000	54.342853
1705.000000	54.359794
1704.000000	54.381390
1703.000000	54.395814
1702.000000	54.391134
1701.000000	54.417161
1700.000000	54.440292
1699.000000	54.424501
1698.000000	54.474115
1697.000000	54.486327
1696.000000	54.504979
1695.000000	54.552755
1694.000000	54.552664
1693.000000	54.587056
1692.000000	54.623748
1691.000000	54.680468
1690.000000	54.718719
1689.000000	54.773527
1688.000000	54.815480
1687.000000	54.857039
1686.000000	54.922477
1685.000000	54.981980
1684.000000	55.065329
1683.000000	55.144152
1682.000000	55.236548
1681.000000	55.329745
1680.000000	55.425887
1679.000000	55.498299
1678.000000	55.601845
1677.000000	55.650456
1676.000000	55.764266
1675.000000	55.857105
1674.000000	55.923375
1673.000000	56.015724
1672.000000	56.109848
1671.000000	56.179611
1670.000000	56.271702
1669.000000	56.353975
1668.000000	56.403314
1667.000000	56.462644
1666.000000	56.514658
1665.000000	56.552169
1664.000000	56.602196
1663.000000	56.635934
1662.000000	56.682180
1661.000000	56.725894
1660.000000	56.742303
1659.000000	56.796351
1658.000000	56.811570
1657.000000	56.827023
1656.000000	56.850698
1655.000000	56.874538
1654.000000	56.914042
1653.000000	56.911839
1652.000000	56.909595
1651.000000	56.903114
1650.000000	56.909541
1649.000000	56.909499
1648.000000	56.895625
1647.000000	56.898431
1646.000000	56.905399
1645.000000	56.901602
1644.000000	56.879506
1643.000000	56.875431
1642.000000	56.875655
1641.000000	56.857198
1640.000000	56.844647
1639.000000	56.838959
1638.000000	56.828687
1637.000000	56.805381
1636.000000	56.784497
1635.000000	56.771621
1634.000000	56.762358
1633.000000	56.742208
1632.000000	56.737597
1631.000000	56.703463
1630.000000	56.689805
1629.000000	56.672548
1628.000000	56.647501
1627.000000	56.631931
1626.000000	56.613240
1625.000000	56.594400
1624.000000	56.571786
1623.000000	56.550352
1622.000000	56.539157
1621.000000	56.516175
1620.000000	56.504099
1619.000000	56.483898
1618.000000	56.441783
1617.000000	56.422497
1616.000000	56.401702
1615.000000	56.376294
1614.000000	56.345722
1613.000000	56.314099
1612.000000	56.296135
1611.000000	56.272144
1610.000000	56.230448
1609.000000	56.207560
1608.000000	56.182643
1607.000000	56.163682
1606.000000	56.125599
1605.000000	56.100710
1604.000000	56.078183
1603.000000	56.042892
1602.000000	56.016092
1601.000000	55.987976
1600.000000	55.959054
1599.000000	55.930303
1598.000000	55.914254
1597.000000	55.890889
1596.000000	55.867241
1595.000000	55.845366
1594.000000	55.814525
1593.000000	55.786477
1592.000000	55.756802
1591.000000	55.735655
1590.000000	55.725473
1589.000000	55.691251
1588.000000	55.653207
1587.000000	55.637860
1586.000000	55.616417
1585.000000	55.602874
1584.000000	55.586970
1583.000000	55.569270
1582.000000	55.552463
1581.000000	55.535344
1580.000000	55.511239
1579.000000	55.486662
1578.000000	55.473750
1577.000000	55.452803
1576.000000	55.420527
1575.000000	55.403205
1574.000000	55.374776
1573.000000	55.350202
1572.000000	55.336715
1571.000000	55.317007
1570.000000	55.296572
1569.000000	55.276249
1568.000000	55.253074
1567.000000	55.226922
1566.000000	55.223950
1565.000000	55.208900
1564.000000	55.190152
1563.000000	55.190851
1562.000000	55.172729
1561.000000	55.168779
1560.000000	55.147532
1559.000000	55.138150
1558.000000	55.128906
1557.000000	55.116326
1556.000000	55.082541
1555.000000	55.078897
1554.000000	55.075661
1553.000000	55.057444
1552.000000	55.042351
1551.000000	55.034016
1550.000000	55.017632
1549.000000	54.990416
1548.000000	54.979342
1547.000000	54.954888
1546.000000	54.930200
1545.000000	54.894439
1544.000000	54.843892
1543.000000	54.809099
1542.000000	54.775444
1541.000000	54.719535
1540.000000	54.696339
1539.000000	54.655300
1538.000000	54.601531
1537.000000	54.544901
1536.000000	54.508339
1535.000000	54.464387
1534.000000	54.419254
1533.000000	54.366140
1532.000000	54.308570
1531.000000	54.277525
1530.000000	54.245097
1529.000000	54.197428
1528.000000	54.170746
1527.000000	54.128940
1526.000000	54.089355
1525.000000	54.077839
1524.000000	54.018462
1523.000000	54.011145
1522.000000	53.968030
1521.000000	53.953443
1520.000000	53.922614
1519.000000	53.904274
1518.000000	53.877113
1517.000000	53.862182
1516.000000	53.838968
1515.000000	53.821517
1514.000000	53.836083
1513.000000	53.856029
1512.000000	53.892096
1511.000000	53.899292
1510.000000	53.901448
1509.000000	53.846162
1508.000000	53.825044
1507.000000	53.817410
1506.000000	53.785201
1505.000000	53.796361
1504.000000	53.774188
1503.000000	53.778051
1502.000000	53.782924
1501.000000	53.760203
1500.000000	53.755072
1499.000000	53.786359
1498.000000	53.783954
1497.000000	53.788809
1496.000000	53.784183
1495.000000	53.792597
1494.000000	53.791248
1493.000000	53.814653
1492.000000	53.815531
1491.000000	53.828782
1490.000000	53.864778
1489.000000	53.899665
1488.000000	53.928512
1487.000000	53.948551
1486.000000	53.943672
1485.000000	53.993231
1484.000000	54.012030
1483.000000	54.054202
1482.000000	54.067246
1481.000000	54.094213
1480.000000	54.134042
1479.000000	54.158308
1478.000000	54.199968
1477.000000	54.223550
1476.000000	54.245090
1475.000000	54.280995
1474.000000	54.291924
1473.000000	54.331421
1472.000000	54.350766
1471.000000	54.341698
1470.000000	54.395243
1469.000000	54.420959
