PE UV       SUBTECH     SPECTRUM    ASCII       PEDS        4.00        
   -1
RTmsfkat92.Sample.asc
18/03/20
14:29:52.00
18/03/20
14:29:52.00
Administrator

200.000000
1
Lambda 750
750N8071901
PerkinElmer UV WinLab 6.0.4.0738 / 1.61.00 Lambda 900

0
0
3350/servo 860.8/2
0
0
UV/VIS
1
1
1
CommonBeamDepol,150mm sphere / downward view
0
0
0
0
Program
Program
3350/servo 860.8/2
3350/0.2 860.8/0.2
3350/0.2 860.8/0.2
0
1
 
 
 
0
 
860.8
319.2
860.8
Front
100
on
 
 
0
0
0
 
0
 
 
 
0
 
 
0
0
0
0
0
 
 
 
 
0
0


0
0
#HDR
-1
-1
#GR
nm
%R
1.0
0.0
2350.000000
-1.000000
2151
8
59.490220
11.034221
#DATA
2350.000000	25.716871
2349.000000	25.859789
2348.000000	25.609628
2347.000000	26.677953
2346.000000	26.207186
2345.000000	25.813655
2344.000000	25.969980
2343.000000	25.696585
2342.000000	26.119703
2341.000000	26.347233
2340.000000	25.970953
2339.000000	26.000326
2338.000000	26.465039
2337.000000	26.486903
2336.000000	26.401977
2335.000000	26.513791
2334.000000	26.911028
2333.000000	26.909187
2332.000000	26.849859
2331.000000	26.821652
2330.000000	26.684141
2329.000000	26.544167
2328.000000	26.682433
2327.000000	26.604700
2326.000000	26.380537
2325.000000	26.559612
2324.000000	26.400513
2323.000000	26.562585
2322.000000	26.502564
2321.000000	26.332850
2320.000000	26.360196
2319.000000	26.330484
2318.000000	26.338039
2317.000000	26.328128
2316.000000	26.356703
2315.000000	26.106809
2314.000000	26.173858
2313.000000	26.065821
2312.000000	25.938406
2311.000000	26.020647
2310.000000	26.081176
2309.000000	25.870974
2308.000000	25.844966
2307.000000	25.726394
2306.000000	25.713588
2305.000000	25.403518
2304.000000	25.691905
2303.000000	25.533239
2302.000000	25.581277
2301.000000	25.356228
2300.000000	25.144179
2299.000000	25.116044
2298.000000	25.051908
2297.000000	24.929996
2296.000000	25.051226
2295.000000	24.901002
2294.000000	24.702515
2293.000000	24.661903
2292.000000	24.475788
2291.000000	24.454521
2290.000000	24.368948
2289.000000	24.597215
2288.000000	24.610760
2287.000000	24.639625
2286.000000	24.535414
2285.000000	24.343724
2284.000000	24.302680
2283.000000	24.383474
2282.000000	24.426519
2281.000000	24.415759
2280.000000	24.465493
2279.000000	24.498296
2278.000000	24.521158
2277.000000	24.363053
2276.000000	24.365684
2275.000000	24.510753
2274.000000	24.553538
2273.000000	24.615517
2272.000000	24.728664
2271.000000	24.762204
2270.000000	24.602311
2269.000000	24.588680
2268.000000	24.692824
2267.000000	24.840861
2266.000000	25.064444
2265.000000	25.098041
2264.000000	25.262619
2263.000000	25.387513
2262.000000	25.332294
2261.000000	25.466614
2260.000000	25.629637
2259.000000	25.884276
2258.000000	26.046013
2257.000000	26.113734
2256.000000	26.265654
2255.000000	26.350474
2254.000000	26.519781
2253.000000	26.799241
2252.000000	26.982251
2251.000000	27.013895
2250.000000	27.169152
2249.000000	27.513295
2248.000000	27.666253
2247.000000	27.792095
2246.000000	27.980264
2245.000000	28.100651
2244.000000	28.320181
2243.000000	28.539110
2242.000000	28.633220
2241.000000	28.761393
2240.000000	28.882635
2239.000000	28.966188
2238.000000	29.082782
2237.000000	29.244772
2236.000000	29.357142
2235.000000	29.444858
2234.000000	29.560459
2233.000000	29.550200
2232.000000	29.573676
2231.000000	29.736738
2230.000000	29.786938
2229.000000	29.726115
2228.000000	29.793345
2227.000000	29.735152
2226.000000	29.620106
2225.000000	29.729329
2224.000000	29.721662
2223.000000	29.590776
2222.000000	29.577986
2221.000000	29.613371
2220.000000	29.650061
2219.000000	29.676751
2218.000000	29.463943
2217.000000	29.474245
2216.000000	29.627551
2215.000000	29.610382
2214.000000	29.509322
2213.000000	29.505676
2212.000000	29.391786
2211.000000	29.295257
2210.000000	29.153425
2209.000000	29.016208
2208.000000	28.900735
2207.000000	28.967551
2206.000000	29.148974
2205.000000	29.171156
2204.000000	29.082803
2203.000000	28.917053
2202.000000	28.812027
2201.000000	28.788827
2200.000000	28.695035
2199.000000	28.662124
2198.000000	28.570807
2197.000000	28.434797
2196.000000	28.288037
2195.000000	28.346916
2194.000000	28.292360
2193.000000	28.186217
2192.000000	28.217563
2191.000000	28.182523
2190.000000	28.239678
2189.000000	28.074680
2188.000000	27.952884
2187.000000	27.895570
2186.000000	27.886645
2185.000000	27.902929
2184.000000	27.801411
2183.000000	27.884044
2182.000000	27.904194
2181.000000	27.729115
2180.000000	27.867531
2179.000000	27.792994
2178.000000	27.734921
2177.000000	27.850185
2176.000000	27.900865
2175.000000	27.781140
2174.000000	27.642161
2173.000000	27.852892
2172.000000	27.954402
2171.000000	27.855544
2170.000000	27.991960
2169.000000	28.182776
2168.000000	28.302351
2167.000000	28.172594
2166.000000	28.233666
2165.000000	28.276464
2164.000000	28.468204
2163.000000	28.396338
2162.000000	28.699115
2161.000000	28.648209
2160.000000	28.901022
2159.000000	28.904328
2158.000000	28.960600
2157.000000	29.267626
2156.000000	29.387177
2155.000000	29.451824
2154.000000	29.540896
2153.000000	29.833782
2152.000000	29.908243
2151.000000	29.963407
2150.000000	30.079055
2149.000000	30.277534
2148.000000	30.207258
2147.000000	30.419020
2146.000000	30.551580
2145.000000	30.732614
2144.000000	30.834504
2143.000000	30.981988
2142.000000	31.108888
2141.000000	31.237437
2140.000000	31.499974
2139.000000	31.449669
2138.000000	31.607098
2137.000000	31.872410
2136.000000	31.706916
2135.000000	31.696491
2134.000000	32.039023
2133.000000	31.946991
2132.000000	32.066736
2131.000000	32.387181
2130.000000	32.328141
2129.000000	32.254404
2128.000000	32.344391
2127.000000	32.365298
2126.000000	32.339375
2125.000000	32.503421
2124.000000	32.562401
2123.000000	32.662065
2122.000000	32.659563
2121.000000	32.644379
2120.000000	32.889720
2119.000000	32.855378
2118.000000	32.814397
2117.000000	32.845881
2116.000000	33.000279
2115.000000	33.000178
2114.000000	33.057526
2113.000000	33.003028
2112.000000	32.986669
2111.000000	32.954485
2110.000000	33.089692
2109.000000	33.053313
2108.000000	33.173119
2107.000000	33.241152
2106.000000	33.208549
2105.000000	33.175744
2104.000000	33.211507
2103.000000	33.156449
2102.000000	33.213689
2101.000000	33.237173
2100.000000	33.321692
2099.000000	33.305983
2098.000000	33.189683
2097.000000	33.286077
2096.000000	33.286024
2095.000000	33.267860
2094.000000	33.294672
2093.000000	33.336506
2092.000000	33.334582
2091.000000	33.187823
2090.000000	33.160401
2089.000000	33.240903
2088.000000	33.214401
2087.000000	33.220815
2086.000000	33.122530
2085.000000	33.155791
2084.000000	33.094596
2083.000000	33.036519
2082.000000	32.952463
2081.000000	32.832826
2080.000000	32.816829
2079.000000	32.786611
2078.000000	32.676792
2077.000000	32.592455
2076.000000	32.549884
2075.000000	32.439474
2074.000000	32.262686
2073.000000	32.297453
2072.000000	32.216506
2071.000000	32.151111
2070.000000	32.010558
2069.000000	31.851926
2068.000000	31.758676
2067.000000	31.551433
2066.000000	31.408861
2065.000000	31.274274
2064.000000	31.136226
2063.000000	31.083226
2062.000000	30.980563
2061.000000	30.755953
2060.000000	30.643075
2059.000000	30.490860
2058.000000	30.355616
2057.000000	30.232735
2056.000000	30.143184
2055.000000	29.979188
2054.000000	29.822986
2053.000000	29.697914
2052.000000	29.617309
2051.000000	29.506259
2050.000000	29.375989
2049.000000	29.288574
2048.000000	29.205079
2047.000000	29.138446
2046.000000	29.069882
2045.000000	29.038467
2044.000000	29.046612
2043.000000	29.012115
2042.000000	29.031195
2041.000000	29.066901
2040.000000	29.020549
2039.000000	29.028690
2038.000000	29.112465
2037.000000	29.204238
2036.000000	29.254972
2035.000000	29.345688
2034.000000	29.438161
2033.000000	29.509339
2032.000000	29.616258
2031.000000	29.668115
2030.000000	29.772118
2029.000000	29.936835
2028.000000	30.043128
2027.000000	30.145481
2026.000000	30.231234
2025.000000	30.305751
2024.000000	30.357938
2023.000000	30.453004
2022.000000	30.558738
2021.000000	30.592842
2020.000000	30.620637
2019.000000	30.686092
2018.000000	30.719510
2017.000000	30.704053
2016.000000	30.731278
2015.000000	30.753954
2014.000000	30.732368
2013.000000	30.679307
2012.000000	30.654246
2011.000000	30.664798
2010.000000	30.641614
2009.000000	30.539302
2008.000000	30.469329
2007.000000	30.432561
2006.000000	30.318995
2005.000000	30.259637
2004.000000	30.210731
2003.000000	30.138661
2002.000000	30.061783
2001.000000	29.961637
2000.000000	29.878059
1999.000000	29.782961
1998.000000	29.700604
1997.000000	29.611271
1996.000000	29.546662
1995.000000	29.473001
1994.000000	29.341289
1993.000000	29.257076
1992.000000	29.172840
1991.000000	29.063340
1990.000000	28.964233
1989.000000	28.870458
1988.000000	28.804435
1987.000000	28.725208
1986.000000	28.606247
1985.000000	28.523321
1984.000000	28.433058
1983.000000	28.351072
1982.000000	28.254754
1981.000000	28.197558
1980.000000	28.121283
1979.000000	27.980333
1978.000000	27.937931
1977.000000	27.855248
1976.000000	27.774089
1975.000000	27.698844
1974.000000	27.572691
1973.000000	27.519201
1972.000000	27.438704
1971.000000	27.355775
1970.000000	27.342239
1969.000000	27.274539
1968.000000	27.141864
1967.000000	27.084024
1966.000000	27.002470
1965.000000	26.940169
1964.000000	26.819054
1963.000000	26.746297
1962.000000	26.679614
1961.000000	26.574562
1960.000000	26.561459
1959.000000	26.485237
1958.000000	26.419756
1957.000000	26.384553
1956.000000	26.295137
1955.000000	26.215317
1954.000000	26.192816
1953.000000	26.135781
1952.000000	26.093146
1951.000000	26.114055
1950.000000	26.027275
1949.000000	26.017560
1948.000000	25.996832
1947.000000	25.972138
1946.000000	25.958776
1945.000000	25.985551
1944.000000	25.946534
1943.000000	26.012356
1942.000000	26.044157
1941.000000	26.018212
1940.000000	26.109039
1939.000000	26.123146
1938.000000	26.152799
1937.000000	26.240921
1936.000000	26.302459
1935.000000	26.330740
1934.000000	26.416095
1933.000000	26.576869
1932.000000	26.646749
1931.000000	26.722454
1930.000000	26.919222
1929.000000	27.068271
1928.000000	27.280104
1927.000000	27.370213
1926.000000	27.511471
1925.000000	27.759611
1924.000000	27.940543
1923.000000	28.168866
1922.000000	28.324887
1921.000000	28.664683
1920.000000	28.829616
1919.000000	29.059552
1918.000000	29.423544
1917.000000	29.763217
1916.000000	29.945790
1915.000000	30.271636
1914.000000	30.605750
1913.000000	30.976733
1912.000000	31.322731
1911.000000	31.653837
1910.000000	32.004804
1909.000000	32.412603
1908.000000	32.815540
1907.000000	33.208532
1906.000000	33.701071
1905.000000	34.193321
1904.000000	34.571109
1903.000000	34.967370
1902.000000	35.432333
1901.000000	35.946273
1900.000000	36.444009
1899.000000	37.008172
1898.000000	37.422530
1897.000000	37.904398
1896.000000	38.360214
1895.000000	38.894140
1894.000000	39.416215
1893.000000	39.833329
1892.000000	40.318943
1891.000000	40.791072
1890.000000	41.225553
1889.000000	41.726448
1888.000000	42.155460
1887.000000	42.573584
1886.000000	42.963954
1885.000000	43.335623
1884.000000	43.767218
1883.000000	44.125110
1882.000000	44.446867
1881.000000	44.758189
1880.000000	45.140885
1879.000000	45.434711
1878.000000	45.689652
1877.000000	45.944107
1876.000000	46.191134
1875.000000	46.486957
1874.000000	46.684843
1873.000000	46.832984
1872.000000	47.058716
1871.000000	47.266932
1870.000000	47.430459
1869.000000	47.561333
1868.000000	47.710556
1867.000000	47.792339
1866.000000	47.918614
1865.000000	47.988610
1864.000000	48.079157
1863.000000	48.176275
1862.000000	48.247686
1861.000000	48.318432
1860.000000	48.389702
1859.000000	48.422955
1858.000000	48.459174
1857.000000	48.508003
1856.000000	48.588572
1855.000000	48.592729
1854.000000	48.611269
1853.000000	48.607651
1852.000000	48.643861
1851.000000	48.646308
1850.000000	48.662988
1849.000000	48.669785
1848.000000	48.701904
1847.000000	48.706302
1846.000000	48.692469
1845.000000	48.676047
1844.000000	48.630978
1843.000000	48.582851
1842.000000	48.592209
1841.000000	48.551866
1840.000000	48.525578
1839.000000	48.518380
1838.000000	48.494585
1837.000000	48.427387
1836.000000	48.394543
1835.000000	48.338089
1834.000000	48.271039
1833.000000	48.254068
1832.000000	48.207700
1831.000000	48.148231
1830.000000	48.116835
1829.000000	48.044564
1828.000000	48.011609
1827.000000	47.994067
1826.000000	47.961861
1825.000000	47.922833
1824.000000	47.889428
1823.000000	47.862987
1822.000000	47.844033
1821.000000	47.815381
1820.000000	47.761105
1819.000000	47.707687
1818.000000	47.675458
1817.000000	47.651140
1816.000000	47.626389
1815.000000	47.609350
1814.000000	47.576020
1813.000000	47.550016
1812.000000	47.517622
1811.000000	47.490460
1810.000000	47.473026
1809.000000	47.464545
1808.000000	47.409788
1807.000000	47.358823
1806.000000	47.336561
1805.000000	47.314968
1804.000000	47.288424
1803.000000	47.242697
1802.000000	47.198895
1801.000000	47.185813
1800.000000	47.187293
1799.000000	47.157075
1798.000000	47.138466
1797.000000	47.128983
1796.000000	47.108393
1795.000000	47.090698
1794.000000	47.078324
1793.000000	47.062251
1792.000000	47.019050
1791.000000	47.009848
1790.000000	47.003217
1789.000000	46.997416
1788.000000	46.978173
1787.000000	46.936957
1786.000000	46.904767
1785.000000	46.863624
1784.000000	46.845629
1783.000000	46.838964
1782.000000	46.802343
1781.000000	46.759109
1780.000000	46.731928
1779.000000	46.695053
1778.000000	46.668545
1777.000000	46.614087
1776.000000	46.545121
1775.000000	46.492274
1774.000000	46.454813
1773.000000	46.382775
1772.000000	46.314162
1771.000000	46.261548
1770.000000	46.226397
1769.000000	46.176392
1768.000000	46.124168
1767.000000	46.068944
1766.000000	46.025901
1765.000000	45.961509
1764.000000	45.928746
1763.000000	45.875446
1762.000000	45.824196
1761.000000	45.762779
1760.000000	45.697678
1759.000000	45.678849
1758.000000	45.651871
1757.000000	45.590388
1756.000000	45.514711
1755.000000	45.468867
1754.000000	45.419664
1753.000000	45.362368
1752.000000	45.331457
1751.000000	45.277113
1750.000000	45.236674
1749.000000	45.182516
1748.000000	45.086710
1747.000000	45.042965
1746.000000	45.007226
1745.000000	44.929278
1744.000000	44.880627
1743.000000	44.841589
1742.000000	44.761724
1741.000000	44.693811
1740.000000	44.676251
1739.000000	44.612732
1738.000000	44.557785
1737.000000	44.508146
1736.000000	44.500725
1735.000000	44.499125
1734.000000	44.500084
1733.000000	44.486208
1732.000000	44.477997
1731.000000	44.489048
1730.000000	44.510943
1729.000000	44.525806
1728.000000	44.593183
1727.000000	44.617752
1726.000000	44.721731
1725.000000	44.759189
1724.000000	44.859088
1723.000000	44.931455
1722.000000	45.009123
1721.000000	45.130405
1720.000000	45.217163
1719.000000	45.333396
1718.000000	45.432974
1717.000000	45.485367
1716.000000	45.606413
1715.000000	45.701694
1714.000000	45.782104
1713.000000	45.856449
1712.000000	45.909079
1711.000000	46.009097
1710.000000	46.047970
1709.000000	46.098156
1708.000000	46.176743
1707.000000	46.204359
1706.000000	46.255551
1705.000000	46.282333
1704.000000	46.332279
1703.000000	46.322445
1702.000000	46.336494
1701.000000	46.353763
1700.000000	46.407041
1699.000000	46.406812
1698.000000	46.440022
1697.000000	46.464218
1696.000000	46.485479
1695.000000	46.537527
1694.000000	46.586303
1693.000000	46.626988
1692.000000	46.678518
1691.000000	46.752724
1690.000000	46.851934
1689.000000	46.937568
1688.000000	47.030131
1687.000000	47.159696
1686.000000	47.256732
1685.000000	47.397158
1684.000000	47.542657
1683.000000	47.707176
1682.000000	47.869852
1681.000000	48.012729
1680.000000	48.173683
1679.000000	48.344833
1678.000000	48.537222
1677.000000	48.674742
1676.000000	48.860259
1675.000000	49.038940
1674.000000	49.190318
1673.000000	49.365677
1672.000000	49.552449
1671.000000	49.682483
1670.000000	49.847728
1669.000000	49.995936
1668.000000	50.107687
1667.000000	50.260903
1666.000000	50.345053
1665.000000	50.438992
1664.000000	50.532425
1663.000000	50.594356
1662.000000	50.695369
1661.000000	50.746802
1660.000000	50.824048
1659.000000	50.900497
1658.000000	50.949522
1657.000000	50.976639
1656.000000	51.014124
1655.000000	51.047147
1654.000000	51.086547
1653.000000	51.095369
1652.000000	51.107685
1651.000000	51.103107
1650.000000	51.101798
1649.000000	51.096283
1648.000000	51.092279
1647.000000	51.098850
1646.000000	51.080354
1645.000000	51.067189
1644.000000	51.040185
1643.000000	51.033727
1642.000000	51.019780
1641.000000	50.984316
1640.000000	50.984670
1639.000000	50.951354
1638.000000	50.922425
1637.000000	50.886091
1636.000000	50.840203
1635.000000	50.806760
1634.000000	50.766419
1633.000000	50.723207
1632.000000	50.695770
1631.000000	50.645501
1630.000000	50.609752
1629.000000	50.584450
1628.000000	50.556481
1627.000000	50.503061
1626.000000	50.464037
1625.000000	50.423740
1624.000000	50.381933
1623.000000	50.337324
1622.000000	50.296336
1621.000000	50.238800
1620.000000	50.178123
1619.000000	50.125910
1618.000000	50.086606
1617.000000	50.050798
1616.000000	49.988977
1615.000000	49.923859
1614.000000	49.876164
1613.000000	49.822636
1612.000000	49.771603
1611.000000	49.708679
1610.000000	49.654660
1609.000000	49.597397
1608.000000	49.531741
1607.000000	49.475542
1606.000000	49.403645
1605.000000	49.359646
1604.000000	49.308720
1603.000000	49.239807
1602.000000	49.193689
1601.000000	49.134459
1600.000000	49.074479
1599.000000	49.016027
1598.000000	48.959206
1597.000000	48.920705
1596.000000	48.864320
1595.000000	48.799315
1594.000000	48.753272
1593.000000	48.713219
1592.000000	48.659616
1591.000000	48.602041
1590.000000	48.552304
1589.000000	48.494396
1588.000000	48.445557
1587.000000	48.415065
1586.000000	48.359341
1585.000000	48.314729
1584.000000	48.292400
1583.000000	48.253562
1582.000000	48.212425
1581.000000	48.172389
1580.000000	48.115049
1579.000000	48.071411
1578.000000	48.046072
1577.000000	47.994377
1576.000000	47.942772
1575.000000	47.901161
1574.000000	47.843397
1573.000000	47.800679
1572.000000	47.775175
1571.000000	47.733864
1570.000000	47.677170
1569.000000	47.649358
1568.000000	47.612064
1567.000000	47.564953
1566.000000	47.537587
1565.000000	47.507312
1564.000000	47.473388
1563.000000	47.466546
1562.000000	47.433618
1561.000000	47.415687
1560.000000	47.394420
1559.000000	47.358057
1558.000000	47.334354
1557.000000	47.319246
1556.000000	47.286895
1555.000000	47.263882
1554.000000	47.252108
1553.000000	47.203452
1552.000000	47.169237
1551.000000	47.152126
1550.000000	47.115165
1549.000000	47.059176
1548.000000	47.024803
1547.000000	46.976010
1546.000000	46.918213
1545.000000	46.852073
1544.000000	46.772634
1543.000000	46.711771
1542.000000	46.636332
1541.000000	46.546088
1540.000000	46.474966
1539.000000	46.402612
1538.000000	46.309566
1537.000000	46.214435
1536.000000	46.129704
1535.000000	46.043670
1534.000000	45.964380
1533.000000	45.874908
1532.000000	45.794076
1531.000000	45.702168
1530.000000	45.629903
1529.000000	45.559559
1528.000000	45.478290
1527.000000	45.419353
1526.000000	45.345868
1525.000000	45.312303
1524.000000	45.234021
1523.000000	45.176095
1522.000000	45.120817
1521.000000	45.087442
1520.000000	45.045023
1519.000000	45.005550
1518.000000	44.992754
1517.000000	44.951969
1516.000000	44.902835
1515.000000	44.880790
1514.000000	44.831239
1513.000000	44.798654
1512.000000	44.786148
1511.000000	44.773336
1510.000000	44.783221
1509.000000	44.807588
1508.000000	44.854339
1507.000000	44.868612
1506.000000	44.829768
1505.000000	44.811104
1504.000000	44.782706
1503.000000	44.769114
1502.000000	44.749232
1501.000000	44.734212
1500.000000	44.728661
1499.000000	44.741250
1498.000000	44.732431
1497.000000	44.745414
1496.000000	44.764647
1495.000000	44.800601
1494.000000	44.817356
1493.000000	44.815328
1492.000000	44.840589
1491.000000	44.861583
1490.000000	44.903852
1489.000000	44.958871
1488.000000	45.009166
1487.000000	45.041320
1486.000000	45.095047
1485.000000	45.123988
1484.000000	45.187930
1483.000000	45.246158
1482.000000	45.272235
1481.000000	45.336310
1480.000000	45.380209
1479.000000	45.444661
1478.000000	45.504691
1477.000000	45.555433
1476.000000	45.600907
1475.000000	45.659813
1474.000000	45.695895
1473.000000	45.772960
1472.000000	45.802965
1471.000000	45.851465
1470.000000	45.885272
