PE UV       SUBTECH     SPECTRUM    ASCII       PEDS        4.00        
   -1
RTms148362.Sample.asc
18/03/20
10:36:43.00
18/03/20
10:36:43.00
Administrator

200.000000
1
Lambda 750
750N8071901
PerkinElmer UV WinLab 6.0.4.0738 / 1.61.00 Lambda 900

0
0
3350/servo 860.8/2
0
0
UV/VIS
1
1
1
CommonBeamDepol,150mm sphere / downward view
0
0
0
0
Program
Program
3350/servo 860.8/2
3350/0.2 860.8/0.2
3350/0.2 860.8/0.2
0
1
 
 
 
0
 
860.8
319.2
860.8
Front
100
on
 
 
0
0
0
 
0
 
 
 
0
 
 
0
0
0
0
0
 
 
 
 
0
0


0
0
#HDR
-1
-1
#GR
nm
%R
1.0
0.0
2350.000000
-1.000000
2151
8
57.535741
9.546286
#DATA
2350.000000	29.608430
2349.000000	29.727702
2348.000000	29.258732
2347.000000	30.045727
2346.000000	29.668213
2345.000000	29.615053
2344.000000	29.548967
2343.000000	29.458430
2342.000000	29.678609
2341.000000	29.717001
2340.000000	29.604298
2339.000000	29.541912
2338.000000	29.869972
2337.000000	29.845764
2336.000000	29.960708
2335.000000	30.303736
2334.000000	30.200622
2333.000000	30.301190
2332.000000	30.591758
2331.000000	30.308511
2330.000000	30.375474
2329.000000	30.295824
2328.000000	30.144468
2327.000000	29.627492
2326.000000	30.042420
2325.000000	30.260536
2324.000000	29.988837
2323.000000	29.827392
2322.000000	29.918135
2321.000000	29.839406
2320.000000	29.776007
2319.000000	29.705639
2318.000000	29.678579
2317.000000	29.725339
2316.000000	29.619901
2315.000000	29.231888
2314.000000	29.378951
2313.000000	29.559765
2312.000000	29.265236
2311.000000	29.400102
2310.000000	29.349778
2309.000000	29.089249
2308.000000	28.699144
2307.000000	28.901060
2306.000000	28.939699
2305.000000	28.898766
2304.000000	28.913603
2303.000000	28.839481
2302.000000	28.875208
2301.000000	28.830006
2300.000000	28.540692
2299.000000	28.574993
2298.000000	28.563217
2297.000000	28.499778
2296.000000	28.636169
2295.000000	28.444149
2294.000000	28.243672
2293.000000	28.359082
2292.000000	28.332061
2291.000000	28.470124
2290.000000	28.447590
2289.000000	28.275501
2288.000000	28.290971
2287.000000	28.198165
2286.000000	28.169030
2285.000000	28.234966
2284.000000	28.089275
2283.000000	27.969926
2282.000000	28.216958
2281.000000	28.391430
2280.000000	28.386495
2279.000000	28.435609
2278.000000	28.336167
2277.000000	28.268063
2276.000000	28.228454
2275.000000	28.318933
2274.000000	28.682529
2273.000000	28.701794
2272.000000	28.650618
2271.000000	28.607773
2270.000000	28.597580
2269.000000	28.708715
2268.000000	28.724004
2267.000000	28.813631
2266.000000	29.132206
2265.000000	29.255130
2264.000000	29.210724
2263.000000	29.282453
2262.000000	29.482334
2261.000000	29.643316
2260.000000	29.714575
2259.000000	29.912252
2258.000000	30.114140
2257.000000	30.259410
2256.000000	30.419528
2255.000000	30.479087
2254.000000	30.608885
2253.000000	30.882630
2252.000000	31.072199
2251.000000	31.272864
2250.000000	31.479687
2249.000000	31.607967
2248.000000	31.692721
2247.000000	31.897647
2246.000000	32.242073
2245.000000	32.454778
2244.000000	32.587126
2243.000000	32.706621
2242.000000	32.853722
2241.000000	32.869671
2240.000000	32.888000
2239.000000	33.100522
2238.000000	33.213291
2237.000000	33.344858
2236.000000	33.477756
2235.000000	33.617164
2234.000000	33.646714
2233.000000	33.662199
2232.000000	33.799732
2231.000000	33.919835
2230.000000	33.862599
2229.000000	33.797661
2228.000000	33.965749
2227.000000	34.062711
2226.000000	33.927363
2225.000000	33.859288
2224.000000	33.994912
2223.000000	33.949639
2222.000000	34.013812
2221.000000	33.981685
2220.000000	33.853453
2219.000000	33.837844
2218.000000	33.787019
2217.000000	33.722913
2216.000000	33.862837
2215.000000	33.758449
2214.000000	33.742122
2213.000000	33.651322
2212.000000	33.615835
2211.000000	33.511544
2210.000000	33.470439
2209.000000	33.349642
2208.000000	33.360094
2207.000000	33.413659
2206.000000	33.368963
2205.000000	33.295895
2204.000000	33.307093
2203.000000	33.176669
2202.000000	33.117975
2201.000000	32.997003
2200.000000	33.017116
2199.000000	32.965538
2198.000000	32.908997
2197.000000	32.915214
2196.000000	32.755827
2195.000000	32.704685
2194.000000	32.585400
2193.000000	32.427552
2192.000000	32.497656
2191.000000	32.437806
2190.000000	32.455002
2189.000000	32.459024
2188.000000	32.341094
2187.000000	32.347436
2186.000000	32.234006
2185.000000	32.135580
2184.000000	32.234901
2183.000000	32.419674
2182.000000	32.162950
2181.000000	32.217965
2180.000000	32.147735
2179.000000	32.020258
2178.000000	32.150139
2177.000000	32.112097
2176.000000	32.043599
2175.000000	32.192749
2174.000000	32.152518
2173.000000	32.084668
2172.000000	32.254783
2171.000000	32.272272
2170.000000	32.404022
2169.000000	32.385412
2168.000000	32.664721
2167.000000	32.591137
2166.000000	32.621915
2165.000000	32.765449
2164.000000	32.788797
2163.000000	32.761519
2162.000000	33.054232
2161.000000	33.092453
2160.000000	33.065613
2159.000000	33.374301
2158.000000	33.382846
2157.000000	33.502907
2156.000000	33.638294
2155.000000	33.636778
2154.000000	33.961625
2153.000000	34.103226
2152.000000	34.245655
2151.000000	34.325796
2150.000000	34.358942
2149.000000	34.468082
2148.000000	34.593389
2147.000000	34.965398
2146.000000	34.935296
2145.000000	35.075253
2144.000000	34.958693
2143.000000	35.096036
2142.000000	35.306129
2141.000000	35.335920
2140.000000	35.667965
2139.000000	35.562983
2138.000000	35.788292
2137.000000	35.930332
2136.000000	35.771496
2135.000000	35.964540
2134.000000	36.055469
2133.000000	36.015611
2132.000000	36.143200
2131.000000	36.283315
2130.000000	36.434047
2129.000000	36.373861
2128.000000	36.520343
2127.000000	36.500913
2126.000000	36.519386
2125.000000	36.653623
2124.000000	36.689972
2123.000000	36.607236
2122.000000	36.694809
2121.000000	36.667932
2120.000000	36.713575
2119.000000	36.824680
2118.000000	36.911873
2117.000000	36.841750
2116.000000	36.830927
2115.000000	37.053211
2114.000000	36.995129
2113.000000	37.028042
2112.000000	37.050697
2111.000000	36.927748
2110.000000	36.929370
2109.000000	36.892190
2108.000000	37.038005
2107.000000	36.925390
2106.000000	37.118068
2105.000000	37.075125
2104.000000	37.129504
2103.000000	37.136754
2102.000000	37.119802
2101.000000	37.107598
2100.000000	37.248959
2099.000000	37.218300
2098.000000	37.092631
2097.000000	37.147729
2096.000000	37.081448
2095.000000	37.119556
2094.000000	37.159331
2093.000000	37.086300
2092.000000	37.132542
2091.000000	37.151917
2090.000000	37.005824
2089.000000	37.087162
2088.000000	37.059543
2087.000000	36.991086
2086.000000	37.033574
2085.000000	36.945733
2084.000000	36.870454
2083.000000	36.872463
2082.000000	36.839670
2081.000000	36.762684
2080.000000	36.714561
2079.000000	36.712904
2078.000000	36.612092
2077.000000	36.478855
2076.000000	36.425685
2075.000000	36.254371
2074.000000	36.158053
2073.000000	36.115392
2072.000000	36.077088
2071.000000	35.984981
2070.000000	35.905782
2069.000000	35.796374
2068.000000	35.684766
2067.000000	35.519372
2066.000000	35.428985
2065.000000	35.333453
2064.000000	35.251979
2063.000000	35.130905
2062.000000	35.023326
2061.000000	34.889404
2060.000000	34.762242
2059.000000	34.679699
2058.000000	34.539318
2057.000000	34.423971
2056.000000	34.350473
2055.000000	34.203856
2054.000000	34.040041
2053.000000	33.938302
2052.000000	33.818912
2051.000000	33.689455
2050.000000	33.643780
2049.000000	33.568560
2048.000000	33.501910
2047.000000	33.445202
2046.000000	33.388154
2045.000000	33.325668
2044.000000	33.244198
2043.000000	33.293171
2042.000000	33.353912
2041.000000	33.339854
2040.000000	33.336881
2039.000000	33.354998
2038.000000	33.388296
2037.000000	33.420543
2036.000000	33.516740
2035.000000	33.596061
2034.000000	33.647162
2033.000000	33.699175
2032.000000	33.792098
2031.000000	33.893710
2030.000000	33.962565
2029.000000	34.055960
2028.000000	34.189915
2027.000000	34.291877
2026.000000	34.365168
2025.000000	34.451759
2024.000000	34.508742
2023.000000	34.551263
2022.000000	34.594482
2021.000000	34.604671
2020.000000	34.662787
2019.000000	34.751836
2018.000000	34.757564
2017.000000	34.765749
2016.000000	34.753596
2015.000000	34.710239
2014.000000	34.721943
2013.000000	34.718056
2012.000000	34.696126
2011.000000	34.658970
2010.000000	34.616873
2009.000000	34.562455
2008.000000	34.531372
2007.000000	34.460228
2006.000000	34.379076
2005.000000	34.317851
2004.000000	34.219048
2003.000000	34.113052
2002.000000	34.061413
2001.000000	33.994550
2000.000000	33.931305
1999.000000	33.873121
1998.000000	33.762677
1997.000000	33.669717
1996.000000	33.595037
1995.000000	33.545397
1994.000000	33.450722
1993.000000	33.356409
1992.000000	33.259959
1991.000000	33.164880
1990.000000	33.100732
1989.000000	32.998193
1988.000000	32.880820
1987.000000	32.858356
1986.000000	32.746438
1985.000000	32.613333
1984.000000	32.514176
1983.000000	32.431257
1982.000000	32.349763
1981.000000	32.287349
1980.000000	32.226262
1979.000000	32.095132
1978.000000	32.002079
1977.000000	31.898502
1976.000000	31.806512
1975.000000	31.772024
1974.000000	31.679602
1973.000000	31.604881
1972.000000	31.519554
1971.000000	31.450056
1970.000000	31.328891
1969.000000	31.278009
1968.000000	31.191910
1967.000000	31.100471
1966.000000	31.034465
1965.000000	30.943369
1964.000000	30.848666
1963.000000	30.806930
1962.000000	30.686345
1961.000000	30.581410
1960.000000	30.539947
1959.000000	30.406355
1958.000000	30.368741
1957.000000	30.364162
1956.000000	30.215501
1955.000000	30.170102
1954.000000	30.163939
1953.000000	30.111779
1952.000000	30.044473
1951.000000	30.056187
1950.000000	29.966135
1949.000000	29.907041
1948.000000	29.921054
1947.000000	29.889049
1946.000000	29.876681
1945.000000	29.894318
1944.000000	29.868043
1943.000000	29.940819
1942.000000	29.922817
1941.000000	29.991079
1940.000000	29.997267
1939.000000	30.120887
1938.000000	30.122909
1937.000000	30.168109
1936.000000	30.310121
1935.000000	30.341460
1934.000000	30.434659
1933.000000	30.555547
1932.000000	30.674861
1931.000000	30.783095
1930.000000	30.883134
1929.000000	31.123035
1928.000000	31.272971
1927.000000	31.472383
1926.000000	31.641317
1925.000000	31.824947
1924.000000	31.998523
1923.000000	32.191570
1922.000000	32.441945
1921.000000	32.832394
1920.000000	32.864384
1919.000000	33.167586
1918.000000	33.478641
1917.000000	33.777250
1916.000000	33.911044
1915.000000	34.314051
1914.000000	34.644760
1913.000000	34.969376
1912.000000	35.268494
1911.000000	35.531098
1910.000000	35.873955
1909.000000	36.215390
1908.000000	36.675882
1907.000000	36.957233
1906.000000	37.294613
1905.000000	37.675721
1904.000000	38.024027
1903.000000	38.424690
1902.000000	38.809600
1901.000000	39.181209
1900.000000	39.591408
1899.000000	40.090179
1898.000000	40.438686
1897.000000	40.821863
1896.000000	41.145350
1895.000000	41.511924
1894.000000	41.903858
1893.000000	42.280396
1892.000000	42.640959
1891.000000	43.030862
1890.000000	43.352686
1889.000000	43.697470
1888.000000	44.008126
1887.000000	44.278240
1886.000000	44.599160
1885.000000	44.863640
1884.000000	45.147196
1883.000000	45.461011
1882.000000	45.645768
1881.000000	45.895133
1880.000000	46.140675
1879.000000	46.343316
1878.000000	46.514229
1877.000000	46.739913
1876.000000	46.916671
1875.000000	47.088715
1874.000000	47.205202
1873.000000	47.341081
1872.000000	47.485157
1871.000000	47.615597
1870.000000	47.700654
1869.000000	47.788692
1868.000000	47.879844
1867.000000	47.918329
1866.000000	47.972147
1865.000000	48.038502
1864.000000	48.074392
1863.000000	48.156509
1862.000000	48.196882
1861.000000	48.220644
1860.000000	48.271318
1859.000000	48.316460
1858.000000	48.361991
1857.000000	48.372893
1856.000000	48.427660
1855.000000	48.466533
1854.000000	48.486625
1853.000000	48.491947
1852.000000	48.483337
1851.000000	48.495819
1850.000000	48.510876
1849.000000	48.502970
1848.000000	48.512117
1847.000000	48.536736
1846.000000	48.547509
1845.000000	48.528969
1844.000000	48.515875
1843.000000	48.452056
1842.000000	48.434616
1841.000000	48.403433
1840.000000	48.380260
1839.000000	48.393200
1838.000000	48.378725
1837.000000	48.348158
1836.000000	48.319153
1835.000000	48.299325
1834.000000	48.263022
1833.000000	48.248182
1832.000000	48.209934
1831.000000	48.170258
1830.000000	48.161808
1829.000000	48.123541
1828.000000	48.092010
1827.000000	48.085636
1826.000000	48.065106
1825.000000	48.018881
1824.000000	48.019615
1823.000000	48.004960
1822.000000	47.967939
1821.000000	47.965214
1820.000000	47.963662
1819.000000	47.925640
1818.000000	47.911508
1817.000000	47.896206
1816.000000	47.866722
1815.000000	47.868180
1814.000000	47.852927
1813.000000	47.829887
1812.000000	47.810706
1811.000000	47.796652
1810.000000	47.813608
1809.000000	47.820341
1808.000000	47.785387
1807.000000	47.733702
1806.000000	47.729311
1805.000000	47.745086
1804.000000	47.723175
1803.000000	47.702188
1802.000000	47.681115
1801.000000	47.665572
1800.000000	47.661654
1799.000000	47.653849
1798.000000	47.639223
1797.000000	47.631288
1796.000000	47.624906
1795.000000	47.621270
1794.000000	47.615852
1793.000000	47.618113
1792.000000	47.615565
1791.000000	47.613584
1790.000000	47.610882
1789.000000	47.606445
1788.000000	47.597227
1787.000000	47.587456
1786.000000	47.571228
1785.000000	47.542249
1784.000000	47.541097
1783.000000	47.537720
1782.000000	47.513781
1781.000000	47.487206
1780.000000	47.461183
1779.000000	47.451451
1778.000000	47.412699
1777.000000	47.361800
1776.000000	47.326849
1775.000000	47.276707
1774.000000	47.234644
1773.000000	47.219541
1772.000000	47.169905
1771.000000	47.118155
1770.000000	47.090129
1769.000000	47.044604
1768.000000	46.999938
1767.000000	46.978868
1766.000000	46.955598
1765.000000	46.902585
1764.000000	46.885875
1763.000000	46.844649
1762.000000	46.793563
1761.000000	46.753556
1760.000000	46.715037
1759.000000	46.704348
1758.000000	46.673740
1757.000000	46.626436
1756.000000	46.603135
1755.000000	46.591353
1754.000000	46.557235
1753.000000	46.520619
1752.000000	46.493343
1751.000000	46.481948
1750.000000	46.430035
1749.000000	46.409630
1748.000000	46.358916
1747.000000	46.330229
1746.000000	46.305165
1745.000000	46.242946
1744.000000	46.200768
1743.000000	46.167939
1742.000000	46.107020
1741.000000	46.072967
1740.000000	46.008790
1739.000000	45.972055
1738.000000	45.969594
1737.000000	45.924261
1736.000000	45.884197
1735.000000	45.883188
1734.000000	45.873932
1733.000000	45.879873
1732.000000	45.874587
1731.000000	45.889906
1730.000000	45.871832
1729.000000	45.895892
1728.000000	45.967630
1727.000000	45.952171
1726.000000	46.012518
1725.000000	46.053545
1724.000000	46.116508
1723.000000	46.171628
1722.000000	46.255559
1721.000000	46.325360
1720.000000	46.368110
1719.000000	46.512198
1718.000000	46.519146
1717.000000	46.582660
1716.000000	46.682599
1715.000000	46.741215
1714.000000	46.815000
1713.000000	46.856227
1712.000000	46.919381
1711.000000	46.987523
1710.000000	47.020757
1709.000000	47.073477
1708.000000	47.128160
1707.000000	47.174670
1706.000000	47.217207
1705.000000	47.221177
1704.000000	47.285871
1703.000000	47.271176
1702.000000	47.305987
1701.000000	47.342933
1700.000000	47.353595
1699.000000	47.370898
1698.000000	47.409354
1697.000000	47.463348
1696.000000	47.471161
1695.000000	47.518019
1694.000000	47.548574
1693.000000	47.595499
1692.000000	47.602668
1691.000000	47.667518
1690.000000	47.735509
1689.000000	47.819549
1688.000000	47.867150
1687.000000	47.942503
1686.000000	48.000512
1685.000000	48.107809
1684.000000	48.203471
1683.000000	48.330380
1682.000000	48.438007
1681.000000	48.537064
1680.000000	48.630529
1679.000000	48.748624
1678.000000	48.842912
1677.000000	48.932011
1676.000000	49.075034
1675.000000	49.203344
1674.000000	49.257596
1673.000000	49.367100
1672.000000	49.510765
1671.000000	49.598517
1670.000000	49.701149
1669.000000	49.829921
1668.000000	49.884592
1667.000000	49.970232
1666.000000	50.037188
1665.000000	50.083714
1664.000000	50.138935
1663.000000	50.179632
1662.000000	50.267958
1661.000000	50.281238
1660.000000	50.321981
1659.000000	50.387001
1658.000000	50.415749
1657.000000	50.440288
1656.000000	50.466784
1655.000000	50.489874
1654.000000	50.512921
1653.000000	50.531610
1652.000000	50.544853
1651.000000	50.521054
1650.000000	50.544016
1649.000000	50.555405
1648.000000	50.515439
1647.000000	50.521818
1646.000000	50.512062
1645.000000	50.511777
1644.000000	50.497184
1643.000000	50.504520
1642.000000	50.494271
1641.000000	50.467500
1640.000000	50.452314
1639.000000	50.442563
1638.000000	50.430533
1637.000000	50.408891
1636.000000	50.389935
1635.000000	50.393425
1634.000000	50.369724
1633.000000	50.337171
1632.000000	50.334906
1631.000000	50.317418
1630.000000	50.288878
1629.000000	50.246793
1628.000000	50.246648
1627.000000	50.223899
1626.000000	50.196058
1625.000000	50.173447
1624.000000	50.158969
1623.000000	50.133569
1622.000000	50.114522
1621.000000	50.087354
1620.000000	50.080706
1619.000000	50.047489
1618.000000	50.014273
1617.000000	49.995123
1616.000000	49.980646
1615.000000	49.957485
1614.000000	49.917510
1613.000000	49.890493
1612.000000	49.845653
1611.000000	49.815436
1610.000000	49.793812
1609.000000	49.756671
1608.000000	49.733164
1607.000000	49.710598
1606.000000	49.663557
1605.000000	49.631450
1604.000000	49.603212
1603.000000	49.567715
1602.000000	49.554634
1601.000000	49.528219
1600.000000	49.489749
1599.000000	49.464612
1598.000000	49.434423
1597.000000	49.405471
1596.000000	49.375681
1595.000000	49.356079
1594.000000	49.332576
1593.000000	49.299602
1592.000000	49.270262
1591.000000	49.242010
1590.000000	49.216276
1589.000000	49.186993
1588.000000	49.162117
1587.000000	49.155903
1586.000000	49.129563
1585.000000	49.098290
1584.000000	49.092128
1583.000000	49.068292
1582.000000	49.028459
1581.000000	49.001589
1580.000000	48.978151
1579.000000	48.947701
1578.000000	48.936922
1577.000000	48.914275
1576.000000	48.886417
1575.000000	48.861721
1574.000000	48.820619
1573.000000	48.804798
1572.000000	48.787992
1571.000000	48.763755
1570.000000	48.739003
1569.000000	48.721285
1568.000000	48.700938
1567.000000	48.662146
1566.000000	48.647057
1565.000000	48.634480
1564.000000	48.607508
1563.000000	48.603821
1562.000000	48.578610
1561.000000	48.565489
1560.000000	48.549465
1559.000000	48.531769
1558.000000	48.531305
1557.000000	48.511290
1556.000000	48.490802
1555.000000	48.492695
1554.000000	48.479216
1553.000000	48.450616
1552.000000	48.425357
1551.000000	48.409996
1550.000000	48.398397
1549.000000	48.373181
1548.000000	48.352810
1547.000000	48.321901
1546.000000	48.278474
1545.000000	48.245667
1544.000000	48.188719
1543.000000	48.148566
1542.000000	48.110862
1541.000000	48.039636
1540.000000	48.002181
1539.000000	47.951501
1538.000000	47.898832
1537.000000	47.846297
1536.000000	47.800659
1535.000000	47.736484
1534.000000	47.690327
1533.000000	47.649165
1532.000000	47.594178
1531.000000	47.527306
1530.000000	47.478714
1529.000000	47.438363
1528.000000	47.400875
1527.000000	47.370693
1526.000000	47.310505
1525.000000	47.276565
1524.000000	47.243582
1523.000000	47.215663
1522.000000	47.175557
1521.000000	47.151088
1520.000000	47.113303
1519.000000	47.096231
1518.000000	47.076005
1517.000000	47.056906
1516.000000	47.017227
1515.000000	47.023736
1514.000000	46.991394
1513.000000	46.975069
1512.000000	46.966055
1511.000000	46.984268
1510.000000	47.001446
1509.000000	47.035903
1508.000000	47.039252
1507.000000	47.024787
1506.000000	46.991855
1505.000000	46.982383
1504.000000	46.972656
1503.000000	46.957559
1502.000000	46.940129
1501.000000	46.923636
1500.000000	46.916839
1499.000000	46.944250
1498.000000	46.940635
1497.000000	46.949463
1496.000000	46.956535
1495.000000	46.966014
1494.000000	46.978691
1493.000000	46.997161
1492.000000	47.019253
1491.000000	47.048675
1490.000000	47.057760
1489.000000	47.107342
1488.000000	47.112585
1487.000000	47.145061
1486.000000	47.165148
1485.000000	47.208826
1484.000000	47.242869
1483.000000	47.278971
1482.000000	47.300907
1481.000000	47.355928
1480.000000	47.374875
1479.000000	47.416310
1478.000000	47.462537
1477.000000	47.475759
1476.000000	47.524578
1475.000000	47.544123
1474.000000	47.574982
1473.000000	47.622074
1472.000000	47.655249
1471.000000	47.676920
1470.000000	47.709381
