PE UV       SUBTECH     SPECTRUM    ASCII       PEDS        4.00        
   -1
RTms1240112.Sample.asc
18/03/20
16:22:58.00
18/03/20
16:22:58.00
Administrator

200.000000
1
Lambda 750
750N8071901
PerkinElmer UV WinLab 6.0.4.0738 / 1.61.00 Lambda 900

0
0
3350/servo 860.8/2
0
0
UV/VIS
1
1
1
CommonBeamDepol,150mm sphere / downward view
0
0
0
0
Program
Program
3350/servo 860.8/2
3350/0.2 860.8/0.2
3350/0.2 860.8/0.2
0
1
 
 
 
0
 
860.8
319.2
860.8
Front
100
on
 
 
0
0
0
 
0
 
 
 
0
 
 
0
0
0
0
0
 
 
 
 
0
0


0
0
#HDR
-1
-1
#GR
nm
%R
1.0
0.0
2350.000000
-1.000000
2151
8
51.754541
11.574756
#DATA
2350.000000	30.237681
2349.000000	30.444588
2348.000000	30.325531
2347.000000	31.206534
2346.000000	30.781994
2345.000000	30.671296
2344.000000	30.825876
2343.000000	30.331339
2342.000000	30.511460
2341.000000	30.621455
2340.000000	30.663905
2339.000000	30.830433
2338.000000	31.066626
2337.000000	31.060115
2336.000000	30.911541
2335.000000	30.925499
2334.000000	31.142225
2333.000000	31.190926
2332.000000	31.325899
2331.000000	31.389618
2330.000000	31.004584
2329.000000	31.279643
2328.000000	31.132274
2327.000000	30.779948
2326.000000	31.070613
2325.000000	30.966102
2324.000000	30.941556
2323.000000	31.039217
2322.000000	30.789380
2321.000000	30.798373
2320.000000	30.811387
2319.000000	30.885187
2318.000000	31.104450
2317.000000	31.074979
2316.000000	30.969589
2315.000000	30.609020
2314.000000	30.557140
2313.000000	30.562168
2312.000000	30.408520
2311.000000	30.456879
2310.000000	30.391074
2309.000000	30.555152
2308.000000	30.509148
2307.000000	30.350353
2306.000000	30.063374
2305.000000	30.363763
2304.000000	30.302177
2303.000000	30.436563
2302.000000	30.531959
2301.000000	30.164337
2300.000000	29.992010
2299.000000	29.891760
2298.000000	29.919116
2297.000000	29.889524
2296.000000	30.066530
2295.000000	29.989079
2294.000000	29.893018
2293.000000	29.804506
2292.000000	29.705149
2291.000000	29.793828
2290.000000	29.771722
2289.000000	29.683264
2288.000000	29.890503
2287.000000	29.838049
2286.000000	29.756786
2285.000000	29.760940
2284.000000	29.741734
2283.000000	29.729735
2282.000000	29.689201
2281.000000	29.714556
2280.000000	29.703530
2279.000000	29.779204
2278.000000	29.762446
2277.000000	29.734732
2276.000000	29.753911
2275.000000	29.880070
2274.000000	29.972358
2273.000000	30.002738
2272.000000	29.947801
2271.000000	29.832215
2270.000000	29.836895
2269.000000	29.878303
2268.000000	30.033960
2267.000000	30.158597
2266.000000	30.268430
2265.000000	30.266481
2264.000000	30.325080
2263.000000	30.415944
2262.000000	30.476759
2261.000000	30.703044
2260.000000	30.870870
2259.000000	30.979793
2258.000000	31.064157
2257.000000	31.196624
2256.000000	31.264228
2255.000000	31.318645
2254.000000	31.386160
2253.000000	31.500376
2252.000000	31.694507
2251.000000	31.745869
2250.000000	31.898042
2249.000000	32.109819
2248.000000	32.139746
2247.000000	32.230689
2246.000000	32.351044
2245.000000	32.441005
2244.000000	32.536755
2243.000000	32.799001
2242.000000	32.946374
2241.000000	32.907386
2240.000000	32.911536
2239.000000	32.917321
2238.000000	32.966046
2237.000000	33.074547
2236.000000	33.295994
2235.000000	33.368001
2234.000000	33.410004
2233.000000	33.438369
2232.000000	33.416245
2231.000000	33.506746
2230.000000	33.533236
2229.000000	33.514059
2228.000000	33.541741
2227.000000	33.546766
2226.000000	33.502603
2225.000000	33.515065
2224.000000	33.601576
2223.000000	33.544995
2222.000000	33.581738
2221.000000	33.577572
2220.000000	33.546494
2219.000000	33.557710
2218.000000	33.467719
2217.000000	33.457498
2216.000000	33.452843
2215.000000	33.523693
2214.000000	33.483625
2213.000000	33.466468
2212.000000	33.411935
2211.000000	33.438221
2210.000000	33.299732
2209.000000	33.229913
2208.000000	33.237239
2207.000000	33.124811
2206.000000	33.143421
2205.000000	33.163591
2204.000000	33.235779
2203.000000	33.040982
2202.000000	32.918412
2201.000000	32.973818
2200.000000	32.992013
2199.000000	32.888278
2198.000000	33.002038
2197.000000	32.830320
2196.000000	32.719693
2195.000000	32.703166
2194.000000	32.701609
2193.000000	32.607912
2192.000000	32.601048
2191.000000	32.742876
2190.000000	32.600427
2189.000000	32.588408
2188.000000	32.545236
2187.000000	32.408243
2186.000000	32.402565
2185.000000	32.473367
2184.000000	32.510579
2183.000000	32.623456
2182.000000	32.525273
2181.000000	32.539912
2180.000000	32.515153
2179.000000	32.491425
2178.000000	32.418130
2177.000000	32.456022
2176.000000	32.555880
2175.000000	32.615732
2174.000000	32.583240
2173.000000	32.559434
2172.000000	32.619502
2171.000000	32.721172
2170.000000	32.745274
2169.000000	32.842947
2168.000000	32.915071
2167.000000	32.840746
2166.000000	33.026959
2165.000000	33.085023
2164.000000	33.176228
2163.000000	33.122213
2162.000000	33.297721
2161.000000	33.443620
2160.000000	33.539065
2159.000000	33.567044
2158.000000	33.546207
2157.000000	33.697273
2156.000000	33.840896
2155.000000	33.811869
2154.000000	33.872085
2153.000000	34.061204
2152.000000	34.063029
2151.000000	34.219832
2150.000000	34.364096
2149.000000	34.422013
2148.000000	34.433479
2147.000000	34.684616
2146.000000	34.736069
2145.000000	34.846375
2144.000000	34.917526
2143.000000	34.750167
2142.000000	34.888561
2141.000000	34.923827
2140.000000	35.231269
2139.000000	35.282580
2138.000000	35.262727
2137.000000	35.317975
2136.000000	35.344835
2135.000000	35.344668
2134.000000	35.576309
2133.000000	35.541277
2132.000000	35.673572
2131.000000	35.664480
2130.000000	35.505712
2129.000000	35.618886
2128.000000	35.747209
2127.000000	35.686395
2126.000000	35.764967
2125.000000	35.834650
2124.000000	35.928559
2123.000000	35.799372
2122.000000	36.102862
2121.000000	35.918420
2120.000000	35.854678
2119.000000	35.876198
2118.000000	36.037523
2117.000000	36.067002
2116.000000	36.016259
2115.000000	35.936742
2114.000000	35.929194
2113.000000	36.023683
2112.000000	36.059180
2111.000000	36.086251
2110.000000	36.112591
2109.000000	36.153559
2108.000000	36.210603
2107.000000	36.163608
2106.000000	36.218868
2105.000000	36.044016
2104.000000	36.119076
2103.000000	36.114448
2102.000000	36.141050
2101.000000	36.150782
2100.000000	36.417691
2099.000000	36.247050
2098.000000	36.234774
2097.000000	36.260081
2096.000000	36.163070
2095.000000	36.154659
2094.000000	36.243492
2093.000000	36.132599
2092.000000	36.187964
2091.000000	36.052242
2090.000000	36.064084
2089.000000	36.120891
2088.000000	36.121404
2087.000000	36.075830
2086.000000	36.067198
2085.000000	36.043274
2084.000000	36.032848
2083.000000	35.978779
2082.000000	35.943097
2081.000000	35.876543
2080.000000	35.886999
2079.000000	35.791000
2078.000000	35.725792
2077.000000	35.716996
2076.000000	35.721077
2075.000000	35.597408
2074.000000	35.536344
2073.000000	35.560229
2072.000000	35.540460
2071.000000	35.407030
2070.000000	35.406730
2069.000000	35.224336
2068.000000	35.204618
2067.000000	35.144834
2066.000000	35.028825
2065.000000	34.878236
2064.000000	34.829980
2063.000000	34.815273
2062.000000	34.741306
2061.000000	34.620402
2060.000000	34.558011
2059.000000	34.458477
2058.000000	34.401958
2057.000000	34.378862
2056.000000	34.309340
2055.000000	34.164156
2054.000000	34.103535
2053.000000	34.046784
2052.000000	34.027639
2051.000000	33.939071
2050.000000	33.813308
2049.000000	33.755620
2048.000000	33.726454
2047.000000	33.679884
2046.000000	33.646551
2045.000000	33.615202
2044.000000	33.674784
2043.000000	33.687563
2042.000000	33.622143
2041.000000	33.622528
2040.000000	33.646146
2039.000000	33.683922
2038.000000	33.701137
2037.000000	33.712292
2036.000000	33.772170
2035.000000	33.803073
2034.000000	33.868336
2033.000000	33.926203
2032.000000	33.961968
2031.000000	34.036822
2030.000000	34.107374
2029.000000	34.138517
2028.000000	34.171454
2027.000000	34.246830
2026.000000	34.335644
2025.000000	34.351624
2024.000000	34.363883
2023.000000	34.413457
2022.000000	34.438699
2021.000000	34.463460
2020.000000	34.516543
2019.000000	34.551818
2018.000000	34.523840
2017.000000	34.512235
2016.000000	34.512182
2015.000000	34.525552
2014.000000	34.475939
2013.000000	34.449253
2012.000000	34.448514
2011.000000	34.433259
2010.000000	34.418588
2009.000000	34.359317
2008.000000	34.271762
2007.000000	34.244059
2006.000000	34.203121
2005.000000	34.164962
2004.000000	34.076333
2003.000000	33.994733
2002.000000	33.974864
2001.000000	33.921115
2000.000000	33.887526
1999.000000	33.837462
1998.000000	33.770092
1997.000000	33.708925
1996.000000	33.653859
1995.000000	33.585331
1994.000000	33.520241
1993.000000	33.450846
1992.000000	33.380183
1991.000000	33.337806
1990.000000	33.259855
1989.000000	33.186608
1988.000000	33.143750
1987.000000	33.100675
1986.000000	33.011619
1985.000000	32.964318
1984.000000	32.885861
1983.000000	32.815102
1982.000000	32.747969
1981.000000	32.705621
1980.000000	32.674723
1979.000000	32.580004
1978.000000	32.522443
1977.000000	32.441420
1976.000000	32.400003
1975.000000	32.312505
1974.000000	32.209335
1973.000000	32.128227
1972.000000	32.103419
1971.000000	32.049784
1970.000000	32.006890
1969.000000	31.940915
1968.000000	31.894277
1967.000000	31.856237
1966.000000	31.784921
1965.000000	31.751512
1964.000000	31.657903
1963.000000	31.614317
1962.000000	31.569341
1961.000000	31.516657
1960.000000	31.459030
1959.000000	31.385618
1958.000000	31.334773
1957.000000	31.305139
1956.000000	31.234785
1955.000000	31.202456
1954.000000	31.170640
1953.000000	31.118460
1952.000000	31.097510
1951.000000	31.075216
1950.000000	31.036935
1949.000000	31.035478
1948.000000	31.003269
1947.000000	30.988899
1946.000000	30.948027
1945.000000	31.021562
1944.000000	31.022157
1943.000000	30.997076
1942.000000	31.079956
1941.000000	31.039469
1940.000000	31.060113
1939.000000	31.159426
1938.000000	31.168108
1937.000000	31.251916
1936.000000	31.327269
1935.000000	31.386600
1934.000000	31.370598
1933.000000	31.475859
1932.000000	31.497233
1931.000000	31.645780
1930.000000	31.816912
1929.000000	31.858289
1928.000000	31.934403
1927.000000	32.114448
1926.000000	32.173918
1925.000000	32.317439
1924.000000	32.444981
1923.000000	32.611949
1922.000000	32.848347
1921.000000	33.029049
1920.000000	33.177795
1919.000000	33.264091
1918.000000	33.534489
1917.000000	33.782225
1916.000000	33.789009
1915.000000	34.052431
1914.000000	34.355534
1913.000000	34.578780
1912.000000	34.761141
1911.000000	35.011104
1910.000000	35.136244
1909.000000	35.414151
1908.000000	35.621880
1907.000000	35.940851
1906.000000	36.163892
1905.000000	36.469662
1904.000000	36.731327
1903.000000	36.992286
1902.000000	37.270891
1901.000000	37.563538
1900.000000	37.781275
1899.000000	38.071406
1898.000000	38.360395
1897.000000	38.589707
1896.000000	38.841936
1895.000000	39.050600
1894.000000	39.352223
1893.000000	39.569860
1892.000000	39.794512
1891.000000	40.047557
1890.000000	40.263419
1889.000000	40.528965
1888.000000	40.708801
1887.000000	40.931432
1886.000000	41.152053
1885.000000	41.290657
1884.000000	41.480412
1883.000000	41.646079
1882.000000	41.799954
1881.000000	41.974754
1880.000000	42.161701
1879.000000	42.308757
1878.000000	42.440719
1877.000000	42.553414
1876.000000	42.634928
1875.000000	42.841120
1874.000000	42.923600
1873.000000	43.023621
1872.000000	43.132847
1871.000000	43.242890
1870.000000	43.301187
1869.000000	43.370233
1868.000000	43.428378
1867.000000	43.450806
1866.000000	43.475303
1865.000000	43.557062
1864.000000	43.566439
1863.000000	43.593219
1862.000000	43.639983
1861.000000	43.649258
1860.000000	43.672625
1859.000000	43.718191
1858.000000	43.732311
1857.000000	43.758647
1856.000000	43.828281
1855.000000	43.817796
1854.000000	43.815872
1853.000000	43.812181
1852.000000	43.792546
1851.000000	43.824370
1850.000000	43.861732
1849.000000	43.876956
1848.000000	43.837290
1847.000000	43.866583
1846.000000	43.856038
1845.000000	43.851693
1844.000000	43.852712
1843.000000	43.832254
1842.000000	43.823650
1841.000000	43.815700
1840.000000	43.851883
1839.000000	43.852831
1838.000000	43.830269
1837.000000	43.791415
1836.000000	43.759849
1835.000000	43.745789
1834.000000	43.742686
1833.000000	43.719945
1832.000000	43.700482
1831.000000	43.678933
1830.000000	43.662314
1829.000000	43.640950
1828.000000	43.627851
1827.000000	43.607501
1826.000000	43.605495
1825.000000	43.612749
1824.000000	43.598519
1823.000000	43.581242
1822.000000	43.559723
1821.000000	43.564486
1820.000000	43.566833
1819.000000	43.517225
1818.000000	43.519905
1817.000000	43.520568
1816.000000	43.497936
1815.000000	43.485644
1814.000000	43.462753
1813.000000	43.452263
1812.000000	43.459659
1811.000000	43.444628
1810.000000	43.423850
1809.000000	43.420056
1808.000000	43.409934
1807.000000	43.388240
1806.000000	43.378054
1805.000000	43.392662
1804.000000	43.385222
1803.000000	43.356086
1802.000000	43.354657
1801.000000	43.365127
1800.000000	43.350213
1799.000000	43.321773
1798.000000	43.326307
1797.000000	43.345532
1796.000000	43.348120
1795.000000	43.336323
1794.000000	43.341560
1793.000000	43.345116
1792.000000	43.329401
1791.000000	43.321627
1790.000000	43.318576
1789.000000	43.317097
1788.000000	43.309525
1787.000000	43.298942
1786.000000	43.291255
1785.000000	43.284221
1784.000000	43.295671
1783.000000	43.291164
1782.000000	43.263664
1781.000000	43.258873
1780.000000	43.255381
1779.000000	43.237870
1778.000000	43.196741
1777.000000	43.179712
1776.000000	43.170174
1775.000000	43.150323
1774.000000	43.108195
1773.000000	43.093982
1772.000000	43.070734
1771.000000	43.055272
1770.000000	43.035480
1769.000000	43.001121
1768.000000	42.983110
1767.000000	42.949438
1766.000000	42.944068
1765.000000	42.926578
1764.000000	42.904822
1763.000000	42.873764
1762.000000	42.860965
1761.000000	42.833168
1760.000000	42.825464
1759.000000	42.781641
1758.000000	42.792246
1757.000000	42.780669
1756.000000	42.748651
1755.000000	42.737251
1754.000000	42.698991
1753.000000	42.692594
1752.000000	42.688690
1751.000000	42.665789
1750.000000	42.645161
1749.000000	42.645200
1748.000000	42.592726
1747.000000	42.571031
1746.000000	42.564716
1745.000000	42.527277
1744.000000	42.508014
1743.000000	42.482763
1742.000000	42.437171
1741.000000	42.426942
1740.000000	42.408373
1739.000000	42.377662
1738.000000	42.401742
1737.000000	42.358002
1736.000000	42.336573
1735.000000	42.329861
1734.000000	42.358683
1733.000000	42.372321
1732.000000	42.331257
1731.000000	42.365952
1730.000000	42.399044
1729.000000	42.390123
1728.000000	42.418782
1727.000000	42.440986
1726.000000	42.488318
1725.000000	42.539407
1724.000000	42.577899
1723.000000	42.613450
1722.000000	42.652768
1721.000000	42.712332
1720.000000	42.736067
1719.000000	42.826522
1718.000000	42.835881
1717.000000	42.899508
1716.000000	42.950357
1715.000000	43.006750
1714.000000	43.019208
1713.000000	43.092117
1712.000000	43.132120
1711.000000	43.171194
1710.000000	43.172500
1709.000000	43.215084
1708.000000	43.233742
1707.000000	43.273906
1706.000000	43.302671
1705.000000	43.329281
1704.000000	43.357844
1703.000000	43.381194
1702.000000	43.402395
1701.000000	43.406278
1700.000000	43.422109
1699.000000	43.409226
1698.000000	43.444301
1697.000000	43.465304
1696.000000	43.497234
1695.000000	43.516352
1694.000000	43.544552
1693.000000	43.581456
1692.000000	43.577351
1691.000000	43.643155
1690.000000	43.667730
1689.000000	43.730511
1688.000000	43.777596
1687.000000	43.830863
1686.000000	43.887414
1685.000000	43.956109
1684.000000	44.043013
1683.000000	44.110056
1682.000000	44.164495
1681.000000	44.261885
1680.000000	44.336643
1679.000000	44.406955
1678.000000	44.493410
1677.000000	44.516077
1676.000000	44.616495
1675.000000	44.701687
1674.000000	44.752664
1673.000000	44.820181
1672.000000	44.900648
1671.000000	44.946718
1670.000000	45.024742
1669.000000	45.095453
1668.000000	45.148090
1667.000000	45.192487
1666.000000	45.235603
1665.000000	45.266890
1664.000000	45.321969
1663.000000	45.331947
1662.000000	45.386606
1661.000000	45.410033
1660.000000	45.452145
1659.000000	45.497717
1658.000000	45.510691
1657.000000	45.523108
1656.000000	45.550266
1655.000000	45.565638
1654.000000	45.584370
1653.000000	45.603034
1652.000000	45.624011
1651.000000	45.623685
1650.000000	45.616329
1649.000000	45.624620
1648.000000	45.615088
1647.000000	45.629336
1646.000000	45.614937
1645.000000	45.615580
1644.000000	45.618300
1643.000000	45.607954
1642.000000	45.610685
1641.000000	45.590361
1640.000000	45.597323
1639.000000	45.585337
1638.000000	45.590139
1637.000000	45.586408
1636.000000	45.567198
1635.000000	45.550226
1634.000000	45.538068
1633.000000	45.522499
1632.000000	45.514652
1631.000000	45.493984
1630.000000	45.493642
1629.000000	45.487994
1628.000000	45.469829
1627.000000	45.458027
1626.000000	45.450648
1625.000000	45.437092
1624.000000	45.430315
1623.000000	45.425856
1622.000000	45.410722
1621.000000	45.394432
1620.000000	45.373225
1619.000000	45.344163
1618.000000	45.342344
1617.000000	45.329019
1616.000000	45.311609
1615.000000	45.291088
1614.000000	45.267401
1613.000000	45.255766
1612.000000	45.229256
1611.000000	45.203864
1610.000000	45.191644
1609.000000	45.178264
1608.000000	45.154282
1607.000000	45.139896
1606.000000	45.116270
1605.000000	45.092140
1604.000000	45.076219
1603.000000	45.055723
1602.000000	45.043683
1601.000000	45.026698
1600.000000	45.003850
1599.000000	44.983021
1598.000000	44.964054
1597.000000	44.959584
1596.000000	44.935557
1595.000000	44.916186
1594.000000	44.899980
1593.000000	44.887563
1592.000000	44.867455
1591.000000	44.845406
1590.000000	44.841600
1589.000000	44.827765
1588.000000	44.798667
1587.000000	44.797318
1586.000000	44.789012
1585.000000	44.766608
1584.000000	44.763927
1583.000000	44.755302
1582.000000	44.738847
1581.000000	44.718576
1580.000000	44.694024
1579.000000	44.682442
1578.000000	44.690300
1577.000000	44.668787
1576.000000	44.645092
1575.000000	44.644742
1574.000000	44.611107
1573.000000	44.590792
1572.000000	44.598276
1571.000000	44.587307
1570.000000	44.573632
1569.000000	44.554440
1568.000000	44.550297
1567.000000	44.541555
1566.000000	44.538517
1565.000000	44.527359
1564.000000	44.515885
1563.000000	44.516478
1562.000000	44.500856
1561.000000	44.494669
1560.000000	44.500867
1559.000000	44.478467
1558.000000	44.472720
1557.000000	44.474649
1556.000000	44.449724
1555.000000	44.455818
1554.000000	44.459781
1553.000000	44.440462
1552.000000	44.436152
1551.000000	44.424272
1550.000000	44.410610
1549.000000	44.393702
1548.000000	44.384526
1547.000000	44.367800
1546.000000	44.348694
1545.000000	44.328938
1544.000000	44.292201
1543.000000	44.260995
1542.000000	44.231652
1541.000000	44.200839
1540.000000	44.181198
1539.000000	44.136905
1538.000000	44.096757
1537.000000	44.068093
1536.000000	44.054946
1535.000000	44.007278
1534.000000	43.979090
1533.000000	43.947635
1532.000000	43.905745
1531.000000	43.874694
1530.000000	43.840698
1529.000000	43.815107
1528.000000	43.787549
1527.000000	43.772062
1526.000000	43.737644
1525.000000	43.727019
1524.000000	43.686376
1523.000000	43.664013
1522.000000	43.640409
1521.000000	43.622723
1520.000000	43.603350
1519.000000	43.598019
1518.000000	43.581814
1517.000000	43.557140
1516.000000	43.527967
1515.000000	43.530173
1514.000000	43.520297
1513.000000	43.510112
1512.000000	43.505319
1511.000000	43.527720
1510.000000	43.576790
1509.000000	43.593048
1508.000000	43.609793
1507.000000	43.594856
1506.000000	43.569642
1505.000000	43.558330
1504.000000	43.542740
1503.000000	43.537002
1502.000000	43.539505
1501.000000	43.501798
1500.000000	43.497469
1499.000000	43.524110
1498.000000	43.541578
1497.000000	43.544110
1496.000000	43.537836
1495.000000	43.557547
1494.000000	43.571397
1493.000000	43.563024
1492.000000	43.593084
1491.000000	43.608915
1490.000000	43.625257
1489.000000	43.653092
1488.000000	43.679333
1487.000000	43.693703
1486.000000	43.704250
1485.000000	43.731626
1484.000000	43.763335
1483.000000	43.791639
1482.000000	43.797565
1481.000000	43.849010
1480.000000	43.870175
1479.000000	43.887910
1478.000000	43.912748
1477.000000	43.930135
1476.000000	43.965244
1475.000000	43.998769
1474.000000	44.010492
1473.000000	44.040920
1472.000000	44.066232
1471.000000	44.067626
1470.000000	44.109692
