PE UV       SUBTECH     SPECTRUM    ASCII       PEDS        4.00        
   -1
RTmsfkat102.Sample.asc
18/03/20
15:30:35.00
18/03/20
15:30:35.00
Administrator

200.000000
1
Lambda 750
750N8071901
PerkinElmer UV WinLab 6.0.4.0738 / 1.61.00 Lambda 900

0
0
3350/servo 860.8/2
0
0
UV/VIS
1
1
1
CommonBeamDepol,150mm sphere / downward view
0
0
0
0
Program
Program
3350/servo 860.8/2
3350/0.2 860.8/0.2
3350/0.2 860.8/0.2
0
1
 
 
 
0
 
860.8
319.2
860.8
Front
100
on
 
 
0
0
0
 
0
 
 
 
0
 
 
0
0
0
0
0
 
 
 
 
0
0


0
0
#HDR
-1
-1
#GR
nm
%R
1.0
0.0
2350.000000
-1.000000
2151
8
48.482683
9.419039
#DATA
2350.000000	18.463012
2349.000000	18.811671
2348.000000	18.671655
2347.000000	19.007456
2346.000000	18.684081
2345.000000	18.796780
2344.000000	18.274316
2343.000000	18.433078
2342.000000	18.337593
2341.000000	18.826762
2340.000000	18.650469
2339.000000	19.244568
2338.000000	19.077653
2337.000000	19.309424
2336.000000	19.264006
2335.000000	19.335442
2334.000000	19.322713
2333.000000	19.323931
2332.000000	19.309954
2331.000000	19.284330
2330.000000	19.211777
2329.000000	19.287061
2328.000000	19.461585
2327.000000	19.113534
2326.000000	19.215148
2325.000000	19.386732
2324.000000	19.216876
2323.000000	18.914069
2322.000000	18.948425
2321.000000	19.018991
2320.000000	19.208468
2319.000000	19.220296
2318.000000	19.028767
2317.000000	18.960140
2316.000000	19.179976
2315.000000	18.930874
2314.000000	18.804628
2313.000000	18.764674
2312.000000	18.772169
2311.000000	18.754443
2310.000000	18.580459
2309.000000	18.759896
2308.000000	18.693308
2307.000000	18.676681
2306.000000	18.612743
2305.000000	18.456862
2304.000000	18.463074
2303.000000	18.453587
2302.000000	18.392795
2301.000000	18.367940
2300.000000	18.184565
2299.000000	18.256358
2298.000000	18.178426
2297.000000	17.865631
2296.000000	18.067956
2295.000000	18.037802
2294.000000	17.941462
2293.000000	17.764705
2292.000000	17.648220
2291.000000	17.641008
2290.000000	17.729467
2289.000000	17.759554
2288.000000	17.757635
2287.000000	17.916981
2286.000000	17.676950
2285.000000	17.649729
2284.000000	17.594095
2283.000000	17.499165
2282.000000	17.530324
2281.000000	17.629701
2280.000000	17.649730
2279.000000	17.814728
2278.000000	17.505925
2277.000000	17.527134
2276.000000	17.773400
2275.000000	17.813457
2274.000000	17.866769
2273.000000	17.867523
2272.000000	17.861646
2271.000000	17.900363
2270.000000	17.802688
2269.000000	17.837149
2268.000000	17.909521
2267.000000	17.942531
2266.000000	18.154753
2265.000000	18.135442
2264.000000	18.246436
2263.000000	18.299874
2262.000000	18.329393
2261.000000	18.362310
2260.000000	18.619096
2259.000000	18.754285
2258.000000	18.793751
2257.000000	18.954099
2256.000000	19.083223
2255.000000	19.159205
2254.000000	19.336782
2253.000000	19.498847
2252.000000	19.589321
2251.000000	19.717353
2250.000000	19.875203
2249.000000	20.054609
2248.000000	20.154146
2247.000000	20.269957
2246.000000	20.473537
2245.000000	20.617062
2244.000000	20.756012
2243.000000	20.900226
2242.000000	20.974988
2241.000000	21.020632
2240.000000	21.124923
2239.000000	21.315355
2238.000000	21.351011
2237.000000	21.291490
2236.000000	21.455920
2235.000000	21.580022
2234.000000	21.670419
2233.000000	21.643035
2232.000000	21.617413
2231.000000	21.732440
2230.000000	21.855261
2229.000000	21.901480
2228.000000	21.895038
2227.000000	21.881646
2226.000000	21.818145
2225.000000	21.828548
2224.000000	21.866493
2223.000000	21.878224
2222.000000	21.790722
2221.000000	21.782476
2220.000000	21.932463
2219.000000	21.938379
2218.000000	21.673989
2217.000000	21.587871
2216.000000	21.700092
2215.000000	21.654523
2214.000000	21.698535
2213.000000	21.695472
2212.000000	21.619809
2211.000000	21.575153
2210.000000	21.610401
2209.000000	21.440473
2208.000000	21.405996
2207.000000	21.423022
2206.000000	21.402255
2205.000000	21.251626
2204.000000	21.236489
2203.000000	21.168575
2202.000000	21.053969
2201.000000	21.008180
2200.000000	21.083339
2199.000000	20.935091
2198.000000	20.945310
2197.000000	20.950585
2196.000000	20.798637
2195.000000	20.852960
2194.000000	20.858142
2193.000000	20.732436
2192.000000	20.668819
2191.000000	20.669210
2190.000000	20.573657
2189.000000	20.502660
2188.000000	20.486036
2187.000000	20.642127
2186.000000	20.434433
2185.000000	20.329600
2184.000000	20.362051
2183.000000	20.327832
2182.000000	20.401529
2181.000000	20.360747
2180.000000	20.331222
2179.000000	20.209650
2178.000000	20.154062
2177.000000	20.231398
2176.000000	20.213932
2175.000000	20.236470
2174.000000	20.317465
2173.000000	20.358575
2172.000000	20.463568
2171.000000	20.412298
2170.000000	20.400764
2169.000000	20.401552
2168.000000	20.672780
2167.000000	20.598193
2166.000000	20.583458
2165.000000	20.788558
2164.000000	20.875344
2163.000000	20.819634
2162.000000	20.995083
2161.000000	21.230863
2160.000000	21.213780
2159.000000	21.210893
2158.000000	21.239064
2157.000000	21.482288
2156.000000	21.663211
2155.000000	21.593885
2154.000000	21.831594
2153.000000	22.079063
2152.000000	22.016390
2151.000000	22.067268
2150.000000	22.140368
2149.000000	22.225691
2148.000000	22.312585
2147.000000	22.424021
2146.000000	22.425835
2145.000000	22.569173
2144.000000	22.770365
2143.000000	22.819800
2142.000000	22.976935
2141.000000	22.949978
2140.000000	23.113340
2139.000000	23.218706
2138.000000	23.358809
2137.000000	23.518305
2136.000000	23.545967
2135.000000	23.594466
2134.000000	23.765341
2133.000000	23.649217
2132.000000	23.860048
2131.000000	23.864149
2130.000000	23.977866
2129.000000	23.986563
2128.000000	24.034593
2127.000000	23.998165
2126.000000	23.991452
2125.000000	24.015794
2124.000000	24.199887
2123.000000	24.182626
2122.000000	24.271682
2121.000000	24.221000
2120.000000	24.323893
2119.000000	24.320356
2118.000000	24.258249
2117.000000	24.354117
2116.000000	24.557959
2115.000000	24.589483
2114.000000	24.634346
2113.000000	24.471390
2112.000000	24.478186
2111.000000	24.605599
2110.000000	24.487579
2109.000000	24.566141
2108.000000	24.617264
2107.000000	24.720803
2106.000000	24.759210
2105.000000	24.591461
2104.000000	24.703982
2103.000000	24.664073
2102.000000	24.706339
2101.000000	24.795946
2100.000000	24.879743
2099.000000	24.975896
2098.000000	24.884852
2097.000000	24.798073
2096.000000	24.753145
2095.000000	24.786377
2094.000000	24.823998
2093.000000	24.870458
2092.000000	24.876016
2091.000000	24.788288
2090.000000	24.708600
2089.000000	24.781177
2088.000000	24.763669
2087.000000	24.669423
2086.000000	24.754257
2085.000000	24.666767
2084.000000	24.608584
2083.000000	24.558524
2082.000000	24.557687
2081.000000	24.492908
2080.000000	24.508404
2079.000000	24.468721
2078.000000	24.355549
2077.000000	24.284360
2076.000000	24.183686
2075.000000	24.076731
2074.000000	24.083953
2073.000000	24.061378
2072.000000	23.952842
2071.000000	23.882644
2070.000000	23.870702
2069.000000	23.648470
2068.000000	23.543066
2067.000000	23.420844
2066.000000	23.297549
2065.000000	23.214248
2064.000000	23.135168
2063.000000	23.093484
2062.000000	23.067675
2061.000000	22.871269
2060.000000	22.727397
2059.000000	22.618194
2058.000000	22.526003
2057.000000	22.455643
2056.000000	22.340532
2055.000000	22.236446
2054.000000	22.121844
2053.000000	22.011855
2052.000000	21.932593
2051.000000	21.841911
2050.000000	21.814609
2049.000000	21.716088
2048.000000	21.598253
2047.000000	21.578164
2046.000000	21.556503
2045.000000	21.545313
2044.000000	21.535404
2043.000000	21.520394
2042.000000	21.519712
2041.000000	21.541928
2040.000000	21.555206
2039.000000	21.572733
2038.000000	21.612394
2037.000000	21.658128
2036.000000	21.677988
2035.000000	21.759707
2034.000000	21.851311
2033.000000	21.893188
2032.000000	22.008858
2031.000000	22.099328
2030.000000	22.176420
2029.000000	22.311574
2028.000000	22.382077
2027.000000	22.455046
2026.000000	22.561263
2025.000000	22.619109
2024.000000	22.700792
2023.000000	22.734851
2022.000000	22.781868
2021.000000	22.848766
2020.000000	22.861199
2019.000000	22.917377
2018.000000	22.974250
2017.000000	22.981534
2016.000000	22.958613
2015.000000	22.955202
2014.000000	22.978713
2013.000000	22.994558
2012.000000	22.968959
2011.000000	22.933033
2010.000000	22.944743
2009.000000	22.873066
2008.000000	22.816727
2007.000000	22.804993
2006.000000	22.726903
2005.000000	22.675121
2004.000000	22.624172
2003.000000	22.593078
2002.000000	22.544737
2001.000000	22.447435
2000.000000	22.352577
1999.000000	22.277510
1998.000000	22.238046
1997.000000	22.192607
1996.000000	22.130687
1995.000000	22.037560
1994.000000	21.973215
1993.000000	21.944332
1992.000000	21.856231
1991.000000	21.749800
1990.000000	21.695290
1989.000000	21.618475
1988.000000	21.545038
1987.000000	21.462150
1986.000000	21.382721
1985.000000	21.324572
1984.000000	21.252631
1983.000000	21.199516
1982.000000	21.130755
1981.000000	21.096291
1980.000000	20.986574
1979.000000	20.906394
1978.000000	20.843649
1977.000000	20.803119
1976.000000	20.734253
1975.000000	20.678494
1974.000000	20.573292
1973.000000	20.513319
1972.000000	20.437207
1971.000000	20.319387
1970.000000	20.278866
1969.000000	20.284992
1968.000000	20.224818
1967.000000	20.176898
1966.000000	20.126107
1965.000000	20.003294
1964.000000	19.964890
1963.000000	19.931658
1962.000000	19.818601
1961.000000	19.731575
1960.000000	19.707240
1959.000000	19.632431
1958.000000	19.585275
1957.000000	19.550502
1956.000000	19.469428
1955.000000	19.459096
1954.000000	19.433147
1953.000000	19.405669
1952.000000	19.353465
1951.000000	19.342449
1950.000000	19.309536
1949.000000	19.243279
1948.000000	19.234666
1947.000000	19.208080
1946.000000	19.186285
1945.000000	19.207149
1944.000000	19.217182
1943.000000	19.274758
1942.000000	19.224309
1941.000000	19.245643
1940.000000	19.299028
1939.000000	19.334807
1938.000000	19.396507
1937.000000	19.433293
1936.000000	19.557049
1935.000000	19.542859
1934.000000	19.622009
1933.000000	19.765283
1932.000000	19.775104
1931.000000	19.955836
1930.000000	20.040946
1929.000000	20.089851
1928.000000	20.219746
1927.000000	20.396169
1926.000000	20.476258
1925.000000	20.648214
1924.000000	20.828047
1923.000000	21.015116
1922.000000	21.176540
1921.000000	21.409139
1920.000000	21.612852
1919.000000	21.776068
1918.000000	22.038870
1917.000000	22.277966
1916.000000	22.405426
1915.000000	22.802798
1914.000000	22.993941
1913.000000	23.285916
1912.000000	23.519096
1911.000000	23.820925
1910.000000	24.126309
1909.000000	24.394526
1908.000000	24.763159
1907.000000	25.065396
1906.000000	25.301661
1905.000000	25.752937
1904.000000	26.104449
1903.000000	26.463695
1902.000000	26.827674
1901.000000	27.224184
1900.000000	27.690753
1899.000000	28.005885
1898.000000	28.397618
1897.000000	28.773137
1896.000000	29.217130
1895.000000	29.620059
1894.000000	29.991285
1893.000000	30.401022
1892.000000	30.756328
1891.000000	31.154724
1890.000000	31.521362
1889.000000	31.891952
1888.000000	32.244489
1887.000000	32.585415
1886.000000	32.921419
1885.000000	33.329241
1884.000000	33.620017
1883.000000	33.943368
1882.000000	34.203061
1881.000000	34.482685
1880.000000	34.750108
1879.000000	35.043062
1878.000000	35.244605
1877.000000	35.511322
1876.000000	35.712214
1875.000000	35.958934
1874.000000	36.138660
1873.000000	36.301443
1872.000000	36.500714
1871.000000	36.653828
1870.000000	36.770980
1869.000000	36.931690
1868.000000	37.070444
1867.000000	37.095259
1866.000000	37.203872
1865.000000	37.290571
1864.000000	37.328136
1863.000000	37.407364
1862.000000	37.488605
1861.000000	37.571490
1860.000000	37.630506
1859.000000	37.659819
1858.000000	37.696522
1857.000000	37.759722
1856.000000	37.798552
1855.000000	37.819660
1854.000000	37.845738
1853.000000	37.851155
1852.000000	37.857820
1851.000000	37.894856
1850.000000	37.890636
1849.000000	37.872610
1848.000000	37.876229
1847.000000	37.893249
1846.000000	37.911460
1845.000000	37.912185
1844.000000	37.883759
1843.000000	37.847317
1842.000000	37.853875
1841.000000	37.837421
1840.000000	37.806138
1839.000000	37.813648
1838.000000	37.763766
1837.000000	37.688537
1836.000000	37.662613
1835.000000	37.662873
1834.000000	37.601022
1833.000000	37.542095
1832.000000	37.532673
1831.000000	37.520682
1830.000000	37.510609
1829.000000	37.434677
1828.000000	37.391226
1827.000000	37.378598
1826.000000	37.353877
1825.000000	37.340279
1824.000000	37.305239
1823.000000	37.259976
1822.000000	37.224766
1821.000000	37.186163
1820.000000	37.162007
1819.000000	37.131291
1818.000000	37.110096
1817.000000	37.092648
1816.000000	37.071630
1815.000000	37.053805
1814.000000	37.013812
1813.000000	36.986282
1812.000000	36.974196
1811.000000	36.948147
1810.000000	36.930229
1809.000000	36.922301
1808.000000	36.888330
1807.000000	36.835386
1806.000000	36.811112
1805.000000	36.806779
1804.000000	36.786563
1803.000000	36.741506
1802.000000	36.714702
1801.000000	36.703003
1800.000000	36.687817
1799.000000	36.663322
1798.000000	36.667917
1797.000000	36.658068
1796.000000	36.618103
1795.000000	36.604722
1794.000000	36.616768
1793.000000	36.604199
1792.000000	36.583944
1791.000000	36.568041
1790.000000	36.550249
1789.000000	36.541894
1788.000000	36.537777
1787.000000	36.520932
1786.000000	36.489961
1785.000000	36.467370
1784.000000	36.469448
1783.000000	36.445100
1782.000000	36.402026
1781.000000	36.388785
1780.000000	36.374083
1779.000000	36.350555
1778.000000	36.314866
1777.000000	36.275470
1776.000000	36.222891
1775.000000	36.170263
1774.000000	36.114741
1773.000000	36.074011
1772.000000	36.024905
1771.000000	35.980436
1770.000000	35.941242
1769.000000	35.889965
1768.000000	35.848613
1767.000000	35.795520
1766.000000	35.753970
1765.000000	35.691531
1764.000000	35.683037
1763.000000	35.630775
1762.000000	35.585628
1761.000000	35.542552
1760.000000	35.480266
1759.000000	35.436061
1758.000000	35.415588
1757.000000	35.357150
1756.000000	35.325134
1755.000000	35.289912
1754.000000	35.244574
1753.000000	35.196501
1752.000000	35.148632
1751.000000	35.115028
1750.000000	35.068906
1749.000000	35.046268
1748.000000	34.958676
1747.000000	34.908961
1746.000000	34.865055
1745.000000	34.794749
1744.000000	34.767986
1743.000000	34.718851
1742.000000	34.690458
1741.000000	34.637650
1740.000000	34.585504
1739.000000	34.553393
1738.000000	34.527193
1737.000000	34.479765
1736.000000	34.430149
1735.000000	34.423471
1734.000000	34.418794
1733.000000	34.409193
1732.000000	34.435070
1731.000000	34.441248
1730.000000	34.444292
1729.000000	34.458283
1728.000000	34.524588
1727.000000	34.563564
1726.000000	34.605653
1725.000000	34.645684
1724.000000	34.722152
1723.000000	34.772815
1722.000000	34.865339
1721.000000	34.968258
1720.000000	35.055128
1719.000000	35.161817
1718.000000	35.226069
1717.000000	35.298237
1716.000000	35.363689
1715.000000	35.471725
1714.000000	35.542199
1713.000000	35.577210
1712.000000	35.680810
1711.000000	35.704114
1710.000000	35.763827
1709.000000	35.827808
1708.000000	35.870650
1707.000000	35.936080
1706.000000	35.959155
1705.000000	36.000374
1704.000000	36.031959
1703.000000	36.035233
1702.000000	36.055050
1701.000000	36.052306
1700.000000	36.084414
1699.000000	36.077774
1698.000000	36.156012
1697.000000	36.187816
1696.000000	36.189734
1695.000000	36.226758
1694.000000	36.274096
1693.000000	36.325861
1692.000000	36.348205
1691.000000	36.438971
1690.000000	36.502052
1689.000000	36.582956
1688.000000	36.692965
1687.000000	36.762936
1686.000000	36.847160
1685.000000	36.968612
1684.000000	37.120166
1683.000000	37.233161
1682.000000	37.388725
1681.000000	37.534556
1680.000000	37.693161
1679.000000	37.830609
1678.000000	37.989440
1677.000000	38.096356
1676.000000	38.264317
1675.000000	38.421777
1674.000000	38.567593
1673.000000	38.738652
1672.000000	38.895622
1671.000000	39.032780
1670.000000	39.163400
1669.000000	39.304242
1668.000000	39.393946
1667.000000	39.529723
1666.000000	39.625745
1665.000000	39.696434
1664.000000	39.778476
1663.000000	39.853795
1662.000000	39.953693
1661.000000	40.019017
1660.000000	40.059724
1659.000000	40.130396
1658.000000	40.188715
1657.000000	40.226042
1656.000000	40.249859
1655.000000	40.299684
1654.000000	40.324608
1653.000000	40.337626
1652.000000	40.363804
1651.000000	40.350369
1650.000000	40.360882
1649.000000	40.360714
1648.000000	40.351914
1647.000000	40.349592
1646.000000	40.350972
1645.000000	40.352834
1644.000000	40.358249
1643.000000	40.317504
1642.000000	40.315062
1641.000000	40.290668
1640.000000	40.264319
1639.000000	40.243293
1638.000000	40.231541
1637.000000	40.201708
1636.000000	40.179721
1635.000000	40.152596
1634.000000	40.127471
1633.000000	40.098500
1632.000000	40.071929
1631.000000	40.017430
1630.000000	39.973570
1629.000000	39.962862
1628.000000	39.930922
1627.000000	39.892155
1626.000000	39.854572
1625.000000	39.832536
1624.000000	39.805844
1623.000000	39.766808
1622.000000	39.740768
1621.000000	39.678356
1620.000000	39.633677
1619.000000	39.594141
1618.000000	39.569075
1617.000000	39.529509
1616.000000	39.485499
1615.000000	39.439147
1614.000000	39.395488
1613.000000	39.350437
1612.000000	39.294178
1611.000000	39.245287
1610.000000	39.201918
1609.000000	39.165276
1608.000000	39.126641
1607.000000	39.068347
1606.000000	39.000980
1605.000000	38.959385
1604.000000	38.913721
1603.000000	38.851873
1602.000000	38.809582
1601.000000	38.772152
1600.000000	38.717191
1599.000000	38.656193
1598.000000	38.611916
1597.000000	38.572399
1596.000000	38.535115
1595.000000	38.492724
1594.000000	38.438957
1593.000000	38.407697
1592.000000	38.373093
1591.000000	38.318752
1590.000000	38.281007
1589.000000	38.227321
1588.000000	38.184579
1587.000000	38.174264
1586.000000	38.143278
1585.000000	38.101005
1584.000000	38.063261
1583.000000	38.025549
1582.000000	37.973607
1581.000000	37.940449
1580.000000	37.910476
1579.000000	37.883072
1578.000000	37.872199
1577.000000	37.821865
1576.000000	37.773038
1575.000000	37.739594
1574.000000	37.692852
1573.000000	37.655297
1572.000000	37.628824
1571.000000	37.599711
1570.000000	37.564111
1569.000000	37.537351
1568.000000	37.506487
1567.000000	37.460017
1566.000000	37.436999
1565.000000	37.428708
1564.000000	37.407559
1563.000000	37.377009
1562.000000	37.342365
1561.000000	37.338008
1560.000000	37.325837
1559.000000	37.296553
1558.000000	37.270704
1557.000000	37.247342
1556.000000	37.234507
1555.000000	37.229264
1554.000000	37.206820
1553.000000	37.182384
1552.000000	37.168506
1551.000000	37.142277
1550.000000	37.108433
1549.000000	37.062912
1548.000000	37.038703
1547.000000	36.991089
1546.000000	36.943265
1545.000000	36.897348
1544.000000	36.838615
1543.000000	36.781641
1542.000000	36.719477
1541.000000	36.662639
1540.000000	36.596097
1539.000000	36.512181
1538.000000	36.443362
1537.000000	36.365399
1536.000000	36.305116
1535.000000	36.245086
1534.000000	36.161914
1533.000000	36.096391
1532.000000	36.013215
1531.000000	35.939938
1530.000000	35.884016
1529.000000	35.810716
1528.000000	35.759346
1527.000000	35.709875
1526.000000	35.639761
1525.000000	35.595414
1524.000000	35.530417
1523.000000	35.500559
1522.000000	35.451200
1521.000000	35.400838
1520.000000	35.366683
1519.000000	35.345277
1518.000000	35.315331
1517.000000	35.281180
1516.000000	35.259874
1515.000000	35.244743
1514.000000	35.195555
1513.000000	35.180647
1512.000000	35.168660
1511.000000	35.145478
1510.000000	35.130350
1509.000000	35.106907
1508.000000	35.094392
1507.000000	35.101791
1506.000000	35.098295
1505.000000	35.121656
1504.000000	35.140771
1503.000000	35.144730
1502.000000	35.120886
1501.000000	35.101053
1500.000000	35.094729
1499.000000	35.101334
1498.000000	35.092034
1497.000000	35.090194
1496.000000	35.110833
1495.000000	35.116021
1494.000000	35.119127
1493.000000	35.146280
1492.000000	35.164509
1491.000000	35.188438
1490.000000	35.240054
1489.000000	35.267899
1488.000000	35.298461
1487.000000	35.319161
1486.000000	35.349618
1485.000000	35.411062
1484.000000	35.460917
1483.000000	35.518936
1482.000000	35.550465
1481.000000	35.611241
1480.000000	35.659141
1479.000000	35.703873
1478.000000	35.748660
1477.000000	35.783039
1476.000000	35.846318
1475.000000	35.898136
1474.000000	35.951664
1473.000000	35.998883
1472.000000	36.040242
1471.000000	36.077403
1470.000000	36.131309
