PE UV       SUBTECH     SPECTRUM    ASCII       PEDS        4.00        
   -1
RTmsmeh82.Sample.asc
18/03/20
12:21:22.00
18/03/20
12:21:22.00
Administrator

200.000000
1
Lambda 750
750N8071901
PerkinElmer UV WinLab 6.0.4.0738 / 1.61.00 Lambda 900

0
0
3350/servo 860.8/2
0
0
UV/VIS
1
1
1
CommonBeamDepol,150mm sphere / downward view
0
0
0
0
Program
Program
3350/servo 860.8/2
3350/0.2 860.8/0.2
3350/0.2 860.8/0.2
0
1
 
 
 
0
 
860.8
319.2
860.8
Front
100
on
 
 
0
0
0
 
0
 
 
 
0
 
 
0
0
0
0
0
 
 
 
 
0
0


0
0
#HDR
-1
-1
#GR
nm
%R
1.0
0.0
2350.000000
-1.000000
2151
8
53.239823
8.622509
#DATA
2350.000000	34.993021
2349.000000	34.912986
2348.000000	34.877490
2347.000000	35.248348
2346.000000	34.904167
2345.000000	34.922734
2344.000000	35.099243
2343.000000	34.943204
2342.000000	34.997048
2341.000000	34.964986
2340.000000	34.781804
2339.000000	35.074591
2338.000000	35.525000
2337.000000	35.479163
2336.000000	35.133461
2335.000000	35.452006
2334.000000	35.501293
2333.000000	35.885403
2332.000000	35.769227
2331.000000	35.127192
2330.000000	35.200236
2329.000000	35.356100
2328.000000	35.360318
2327.000000	35.116086
2326.000000	35.287481
2325.000000	35.129629
2324.000000	35.201190
2323.000000	35.164026
2322.000000	35.158578
2321.000000	35.143860
2320.000000	35.276760
2319.000000	35.146117
2318.000000	35.062039
2317.000000	35.059946
2316.000000	34.835204
2315.000000	34.815184
2314.000000	34.736475
2313.000000	34.604465
2312.000000	34.636694
2311.000000	34.535104
2310.000000	34.541046
2309.000000	34.686730
2308.000000	34.393112
2307.000000	34.329653
2306.000000	34.282725
2305.000000	34.588262
2304.000000	34.446719
2303.000000	34.222639
2302.000000	34.285558
2301.000000	34.036722
2300.000000	33.976595
2299.000000	33.905041
2298.000000	33.799663
2297.000000	33.834181
2296.000000	33.831894
2295.000000	33.587188
2294.000000	33.630050
2293.000000	33.431936
2292.000000	33.399191
2291.000000	33.653255
2290.000000	33.594564
2289.000000	33.334951
2288.000000	33.501892
2287.000000	33.550775
2286.000000	33.176851
2285.000000	33.148523
2284.000000	33.064801
2283.000000	33.168548
2282.000000	33.318574
2281.000000	33.407838
2280.000000	33.392526
2279.000000	33.429002
2278.000000	33.250990
2277.000000	33.141098
2276.000000	33.330936
2275.000000	33.487287
2274.000000	33.417742
2273.000000	33.366595
2272.000000	33.398135
2271.000000	33.493283
2270.000000	33.434247
2269.000000	33.496015
2268.000000	33.631932
2267.000000	33.736826
2266.000000	33.819727
2265.000000	33.903491
2264.000000	34.040579
2263.000000	34.038072
2262.000000	34.159811
2261.000000	34.401201
2260.000000	34.541050
2259.000000	34.683125
2258.000000	34.815443
2257.000000	34.996312
2256.000000	35.102875
2255.000000	35.088490
2254.000000	35.236548
2253.000000	35.397590
2252.000000	35.547158
2251.000000	35.604128
2250.000000	35.760731
2249.000000	36.012111
2248.000000	36.112669
2247.000000	36.163594
2246.000000	36.357339
2245.000000	36.473496
2244.000000	36.576674
2243.000000	36.798181
2242.000000	36.848070
2241.000000	36.946926
2240.000000	37.115034
2239.000000	37.229584
2238.000000	37.357784
2237.000000	37.429634
2236.000000	37.465267
2235.000000	37.443500
2234.000000	37.596705
2233.000000	37.753203
2232.000000	37.807043
2231.000000	37.877786
2230.000000	37.875692
2229.000000	37.902542
2228.000000	38.019714
2227.000000	37.964654
2226.000000	37.845004
2225.000000	37.961956
2224.000000	38.015101
2223.000000	37.972059
2222.000000	37.883130
2221.000000	37.778645
2220.000000	37.785695
2219.000000	37.899773
2218.000000	37.896857
2217.000000	37.821449
2216.000000	37.749522
2215.000000	37.747274
2214.000000	37.841971
2213.000000	37.767071
2212.000000	37.709724
2211.000000	37.597085
2210.000000	37.557683
2209.000000	37.493960
2208.000000	37.566850
2207.000000	37.582785
2206.000000	37.489466
2205.000000	37.459898
2204.000000	37.404580
2203.000000	37.256213
2202.000000	37.239244
2201.000000	37.241425
2200.000000	37.166815
2199.000000	37.157512
2198.000000	37.117801
2197.000000	36.953232
2196.000000	36.917437
2195.000000	36.973027
2194.000000	36.854652
2193.000000	36.725092
2192.000000	36.685495
2191.000000	36.615099
2190.000000	36.681878
2189.000000	36.636984
2188.000000	36.629003
2187.000000	36.588552
2186.000000	36.612408
2185.000000	36.553599
2184.000000	36.606018
2183.000000	36.573961
2182.000000	36.495546
2181.000000	36.505939
2180.000000	36.480009
2179.000000	36.433078
2178.000000	36.510263
2177.000000	36.526516
2176.000000	36.446418
2175.000000	36.427930
2174.000000	36.504486
2173.000000	36.557717
2172.000000	36.692174
2171.000000	36.614603
2170.000000	36.780969
2169.000000	36.886238
2168.000000	36.912182
2167.000000	36.910624
2166.000000	36.896989
2165.000000	37.058123
2164.000000	37.074664
2163.000000	37.150423
2162.000000	37.383069
2161.000000	37.390109
2160.000000	37.431525
2159.000000	37.629295
2158.000000	37.663008
2157.000000	37.850409
2156.000000	38.003256
2155.000000	38.000048
2154.000000	38.214869
2153.000000	38.275697
2152.000000	38.375418
2151.000000	38.494725
2150.000000	38.593454
2149.000000	38.592253
2148.000000	38.580552
2147.000000	38.792235
2146.000000	38.956285
2145.000000	39.086181
2144.000000	39.148263
2143.000000	39.078166
2142.000000	39.131236
2141.000000	39.232887
2140.000000	39.629010
2139.000000	39.687082
2138.000000	39.902945
2137.000000	39.941832
2136.000000	39.753832
2135.000000	39.818197
2134.000000	40.029024
2133.000000	40.050935
2132.000000	40.145427
2131.000000	40.183079
2130.000000	40.296760
2129.000000	40.102981
2128.000000	40.306850
2127.000000	40.338634
2126.000000	40.327584
2125.000000	40.309412
2124.000000	40.479372
2123.000000	40.295194
2122.000000	40.520955
2121.000000	40.667755
2120.000000	40.596852
2119.000000	40.661769
2118.000000	40.437911
2117.000000	40.697031
2116.000000	40.672690
2115.000000	40.722198
2114.000000	40.788107
2113.000000	40.631582
2112.000000	40.660473
2111.000000	40.720648
2110.000000	40.807172
2109.000000	40.879622
2108.000000	40.882737
2107.000000	40.908011
2106.000000	40.864851
2105.000000	40.856972
2104.000000	40.880731
2103.000000	40.855068
2102.000000	40.861864
2101.000000	40.857031
2100.000000	40.920732
2099.000000	40.904092
2098.000000	40.878232
2097.000000	40.853243
2096.000000	40.799338
2095.000000	40.918732
2094.000000	40.926122
2093.000000	40.855232
2092.000000	40.813935
2091.000000	40.808325
2090.000000	40.819599
2089.000000	40.945160
2088.000000	40.927655
2087.000000	40.858366
2086.000000	40.849184
2085.000000	40.786700
2084.000000	40.740774
2083.000000	40.685424
2082.000000	40.674024
2081.000000	40.630416
2080.000000	40.587890
2079.000000	40.608412
2078.000000	40.453032
2077.000000	40.421719
2076.000000	40.423089
2075.000000	40.256654
2074.000000	40.240185
2073.000000	40.164363
2072.000000	40.085192
2071.000000	40.032355
2070.000000	39.922808
2069.000000	39.756510
2068.000000	39.712782
2067.000000	39.613271
2066.000000	39.446174
2065.000000	39.303209
2064.000000	39.298749
2063.000000	39.192268
2062.000000	39.134415
2061.000000	39.062688
2060.000000	38.900657
2059.000000	38.753422
2058.000000	38.715422
2057.000000	38.670150
2056.000000	38.555330
2055.000000	38.418801
2054.000000	38.266312
2053.000000	38.123792
2052.000000	38.038144
2051.000000	37.975881
2050.000000	37.902857
2049.000000	37.820173
2048.000000	37.774828
2047.000000	37.761788
2046.000000	37.725173
2045.000000	37.682264
2044.000000	37.710609
2043.000000	37.726937
2042.000000	37.689401
2041.000000	37.686085
2040.000000	37.694266
2039.000000	37.690026
2038.000000	37.687045
2037.000000	37.718177
2036.000000	37.834605
2035.000000	37.895220
2034.000000	37.915589
2033.000000	37.970027
2032.000000	38.059110
2031.000000	38.148313
2030.000000	38.257968
2029.000000	38.353689
2028.000000	38.421598
2027.000000	38.469421
2026.000000	38.534105
2025.000000	38.626783
2024.000000	38.675472
2023.000000	38.723396
2022.000000	38.733946
2021.000000	38.744319
2020.000000	38.797798
2019.000000	38.847938
2018.000000	38.843722
2017.000000	38.854947
2016.000000	38.855709
2015.000000	38.854560
2014.000000	38.865436
2013.000000	38.832634
2012.000000	38.786431
2011.000000	38.776304
2010.000000	38.739627
2009.000000	38.639644
2008.000000	38.658316
2007.000000	38.608170
2006.000000	38.476339
2005.000000	38.436814
2004.000000	38.378511
2003.000000	38.291681
2002.000000	38.234649
2001.000000	38.155643
2000.000000	38.084703
1999.000000	38.033277
1998.000000	37.967165
1997.000000	37.872604
1996.000000	37.811344
1995.000000	37.733529
1994.000000	37.655998
1993.000000	37.586877
1992.000000	37.465574
1991.000000	37.411389
1990.000000	37.363512
1989.000000	37.284348
1988.000000	37.173891
1987.000000	37.103258
1986.000000	37.032337
1985.000000	36.957636
1984.000000	36.818488
1983.000000	36.788855
1982.000000	36.719968
1981.000000	36.658259
1980.000000	36.554506
1979.000000	36.446879
1978.000000	36.415307
1977.000000	36.337428
1976.000000	36.237612
1975.000000	36.186373
1974.000000	36.082289
1973.000000	36.022610
1972.000000	35.951232
1971.000000	35.847556
1970.000000	35.815500
1969.000000	35.756465
1968.000000	35.650569
1967.000000	35.613001
1966.000000	35.527638
1965.000000	35.407828
1964.000000	35.328691
1963.000000	35.272528
1962.000000	35.189279
1961.000000	35.106564
1960.000000	35.084408
1959.000000	35.035690
1958.000000	34.950840
1957.000000	34.883026
1956.000000	34.820467
1955.000000	34.716646
1954.000000	34.718377
1953.000000	34.692822
1952.000000	34.637742
1951.000000	34.669878
1950.000000	34.550096
1949.000000	34.503192
1948.000000	34.483123
1947.000000	34.462658
1946.000000	34.454564
1945.000000	34.523315
1944.000000	34.474337
1943.000000	34.419551
1942.000000	34.461292
1941.000000	34.494338
1940.000000	34.581734
1939.000000	34.563397
1938.000000	34.613335
1937.000000	34.697153
1936.000000	34.794164
1935.000000	34.867086
1934.000000	34.881789
1933.000000	34.979357
1932.000000	35.080202
1931.000000	35.145234
1930.000000	35.330641
1929.000000	35.459737
1928.000000	35.571215
1927.000000	35.690045
1926.000000	35.813668
1925.000000	35.976323
1924.000000	36.089365
1923.000000	36.352778
1922.000000	36.547646
1921.000000	36.761947
1920.000000	36.964797
1919.000000	37.072562
1918.000000	37.382845
1917.000000	37.560998
1916.000000	37.772929
1915.000000	38.089976
1914.000000	38.362070
1913.000000	38.619537
1912.000000	38.831941
1911.000000	39.163542
1910.000000	39.372575
1909.000000	39.649141
1908.000000	40.022323
1907.000000	40.242778
1906.000000	40.470274
1905.000000	40.801428
1904.000000	41.153897
1903.000000	41.384207
1902.000000	41.751860
1901.000000	42.027381
1900.000000	42.356818
1899.000000	42.687458
1898.000000	43.023223
1897.000000	43.301348
1896.000000	43.583818
1895.000000	43.847857
1894.000000	44.109228
1893.000000	44.380943
1892.000000	44.667913
1891.000000	44.957095
1890.000000	45.246087
1889.000000	45.489531
1888.000000	45.741802
1887.000000	45.943527
1886.000000	46.172458
1885.000000	46.368118
1884.000000	46.586533
1883.000000	46.821769
1882.000000	46.942245
1881.000000	47.107232
1880.000000	47.314738
1879.000000	47.494033
1878.000000	47.610724
1877.000000	47.796019
1876.000000	47.884020
1875.000000	47.970259
1874.000000	48.071013
1873.000000	48.233573
1872.000000	48.319078
1871.000000	48.391073
1870.000000	48.484676
1869.000000	48.503917
1868.000000	48.570276
1867.000000	48.596931
1866.000000	48.673546
1865.000000	48.706667
1864.000000	48.717242
1863.000000	48.748891
1862.000000	48.799223
1861.000000	48.851802
1860.000000	48.886668
1859.000000	48.886362
1858.000000	48.950871
1857.000000	48.935954
1856.000000	48.969241
1855.000000	48.952852
1854.000000	48.970089
1853.000000	49.011752
1852.000000	48.989854
1851.000000	49.010869
1850.000000	49.022276
1849.000000	49.023394
1848.000000	48.990032
1847.000000	49.002636
1846.000000	49.018603
1845.000000	49.029743
1844.000000	49.003569
1843.000000	48.979799
1842.000000	48.979093
1841.000000	48.956306
1840.000000	48.948956
1839.000000	48.936019
1838.000000	48.904152
1837.000000	48.859952
1836.000000	48.847896
1835.000000	48.818285
1834.000000	48.820109
1833.000000	48.810063
1832.000000	48.761738
1831.000000	48.724682
1830.000000	48.726656
1829.000000	48.707948
1828.000000	48.672477
1827.000000	48.656367
1826.000000	48.627519
1825.000000	48.594763
1824.000000	48.598046
1823.000000	48.596414
1822.000000	48.576907
1821.000000	48.559468
1820.000000	48.533747
1819.000000	48.504139
1818.000000	48.508742
1817.000000	48.509279
1816.000000	48.476245
1815.000000	48.469069
1814.000000	48.456839
1813.000000	48.441659
1812.000000	48.414965
1811.000000	48.393588
1810.000000	48.410007
1809.000000	48.416961
1808.000000	48.378620
1807.000000	48.360363
1806.000000	48.372778
1805.000000	48.361689
1804.000000	48.343217
1803.000000	48.316131
1802.000000	48.308621
1801.000000	48.322673
1800.000000	48.313454
1799.000000	48.304250
1798.000000	48.292597
1797.000000	48.278692
1796.000000	48.285290
1795.000000	48.280164
1794.000000	48.279677
1793.000000	48.268144
1792.000000	48.268935
1791.000000	48.250782
1790.000000	48.223633
1789.000000	48.237038
1788.000000	48.254729
1787.000000	48.242838
1786.000000	48.237078
1785.000000	48.208468
1784.000000	48.208087
1783.000000	48.224575
1782.000000	48.198470
1781.000000	48.178588
1780.000000	48.152506
1779.000000	48.149884
1778.000000	48.149836
1777.000000	48.112564
1776.000000	48.082239
1775.000000	48.037850
1774.000000	48.019152
1773.000000	48.004442
1772.000000	47.936384
1771.000000	47.921071
1770.000000	47.906367
1769.000000	47.886881
1768.000000	47.848455
1767.000000	47.813956
1766.000000	47.796293
1765.000000	47.747367
1764.000000	47.763073
1763.000000	47.738492
1762.000000	47.734245
1761.000000	47.691747
1760.000000	47.644244
1759.000000	47.619304
1758.000000	47.601213
1757.000000	47.559957
1756.000000	47.544918
1755.000000	47.518978
1754.000000	47.506262
1753.000000	47.484439
1752.000000	47.473615
1751.000000	47.441708
1750.000000	47.414029
1749.000000	47.401613
1748.000000	47.357526
1747.000000	47.335536
1746.000000	47.295553
1745.000000	47.273217
1744.000000	47.256393
1743.000000	47.229405
1742.000000	47.166602
1741.000000	47.131002
1740.000000	47.109782
1739.000000	47.125584
1738.000000	47.086963
1737.000000	47.043145
1736.000000	47.044545
1735.000000	47.035879
1734.000000	47.057950
1733.000000	47.026819
1732.000000	47.017095
1731.000000	47.022123
1730.000000	47.038613
1729.000000	47.064516
1728.000000	47.100442
1727.000000	47.087667
1726.000000	47.158957
1725.000000	47.171213
1724.000000	47.215416
1723.000000	47.259523
1722.000000	47.301032
1721.000000	47.380006
1720.000000	47.431132
1719.000000	47.509395
1718.000000	47.525919
1717.000000	47.552408
1716.000000	47.594211
1715.000000	47.680881
1714.000000	47.685133
1713.000000	47.739013
1712.000000	47.761334
1711.000000	47.817955
1710.000000	47.832548
1709.000000	47.874591
1708.000000	47.928819
1707.000000	47.945104
1706.000000	47.956011
1705.000000	47.972985
1704.000000	48.016925
1703.000000	48.008243
1702.000000	48.061065
1701.000000	48.029690
1700.000000	48.063789
1699.000000	48.054492
1698.000000	48.063877
1697.000000	48.111817
1696.000000	48.108770
1695.000000	48.134677
1694.000000	48.148608
1693.000000	48.199013
1692.000000	48.200743
1691.000000	48.247424
1690.000000	48.283626
1689.000000	48.313662
1688.000000	48.378916
1687.000000	48.415277
1686.000000	48.478548
1685.000000	48.540990
1684.000000	48.642998
1683.000000	48.698346
1682.000000	48.777131
1681.000000	48.847051
1680.000000	48.933670
1679.000000	49.005517
1678.000000	49.078253
1677.000000	49.123336
1676.000000	49.236141
1675.000000	49.328097
1674.000000	49.381076
1673.000000	49.461921
1672.000000	49.551433
1671.000000	49.621897
1670.000000	49.686308
1669.000000	49.772009
1668.000000	49.825974
1667.000000	49.886515
1666.000000	49.916886
1665.000000	49.953165
1664.000000	50.006655
1663.000000	50.020873
1662.000000	50.065173
1661.000000	50.112912
1660.000000	50.142809
1659.000000	50.186846
1658.000000	50.236402
1657.000000	50.246941
1656.000000	50.248884
1655.000000	50.262536
1654.000000	50.283613
1653.000000	50.287009
1652.000000	50.281365
1651.000000	50.273301
1650.000000	50.304139
1649.000000	50.305691
1648.000000	50.272778
1647.000000	50.286637
1646.000000	50.285314
1645.000000	50.266327
1644.000000	50.263119
1643.000000	50.259270
1642.000000	50.265802
1641.000000	50.236213
1640.000000	50.221332
1639.000000	50.213816
1638.000000	50.221666
1637.000000	50.198833
1636.000000	50.186892
1635.000000	50.172993
1634.000000	50.154869
1633.000000	50.123531
1632.000000	50.118916
1631.000000	50.089487
1630.000000	50.086440
1629.000000	50.072479
1628.000000	50.047745
1627.000000	50.019098
1626.000000	49.996952
1625.000000	49.998933
1624.000000	49.978770
1623.000000	49.962520
1622.000000	49.953328
1621.000000	49.921382
1620.000000	49.909136
1619.000000	49.886991
1618.000000	49.856097
1617.000000	49.847301
1616.000000	49.829268
1615.000000	49.800327
1614.000000	49.788188
1613.000000	49.761178
1612.000000	49.733003
1611.000000	49.711015
1610.000000	49.675685
1609.000000	49.662915
1608.000000	49.642965
1607.000000	49.607189
1606.000000	49.576717
1605.000000	49.562788
1604.000000	49.533424
1603.000000	49.504023
1602.000000	49.490532
1601.000000	49.466047
1600.000000	49.441497
1599.000000	49.421643
1598.000000	49.394398
1597.000000	49.361891
1596.000000	49.342971
1595.000000	49.331192
1594.000000	49.303322
1593.000000	49.279693
1592.000000	49.261019
1591.000000	49.232768
1590.000000	49.213026
1589.000000	49.194204
1588.000000	49.170547
1587.000000	49.161084
1586.000000	49.137385
1585.000000	49.118913
1584.000000	49.113666
1583.000000	49.090032
1582.000000	49.072135
1581.000000	49.059888
1580.000000	49.032590
1579.000000	49.023569
1578.000000	49.013919
1577.000000	48.979996
1576.000000	48.959451
1575.000000	48.955888
1574.000000	48.917204
1573.000000	48.884420
1572.000000	48.873722
1571.000000	48.866653
1570.000000	48.846253
1569.000000	48.834023
1568.000000	48.817534
1567.000000	48.794256
1566.000000	48.775826
1565.000000	48.770260
1564.000000	48.758805
1563.000000	48.753000
1562.000000	48.732068
1561.000000	48.704924
1560.000000	48.696829
1559.000000	48.685731
1558.000000	48.669005
1557.000000	48.670209
1556.000000	48.649184
1555.000000	48.649280
1554.000000	48.631158
1553.000000	48.600279
1552.000000	48.600306
1551.000000	48.590228
1550.000000	48.562482
1549.000000	48.538472
1548.000000	48.528571
1547.000000	48.505090
1546.000000	48.470607
1545.000000	48.440966
1544.000000	48.396167
1543.000000	48.364846
1542.000000	48.329285
1541.000000	48.274262
1540.000000	48.254618
1539.000000	48.217960
1538.000000	48.174608
1537.000000	48.114907
1536.000000	48.090337
1535.000000	48.048182
1534.000000	48.012120
1533.000000	47.977739
1532.000000	47.920592
1531.000000	47.881164
1530.000000	47.848232
1529.000000	47.805167
1528.000000	47.763416
1527.000000	47.739431
1526.000000	47.698802
1525.000000	47.676568
1524.000000	47.651669
1523.000000	47.628797
1522.000000	47.600214
1521.000000	47.590382
1520.000000	47.563737
1519.000000	47.545097
1518.000000	47.539818
1517.000000	47.497411
1516.000000	47.461267
1515.000000	47.483186
1514.000000	47.452717
1513.000000	47.448662
1512.000000	47.455963
1511.000000	47.484952
1510.000000	47.518821
1509.000000	47.524664
1508.000000	47.499939
1507.000000	47.473105
1506.000000	47.445983
1505.000000	47.446561
1504.000000	47.440894
1503.000000	47.424603
1502.000000	47.433305
1501.000000	47.401227
1500.000000	47.407772
1499.000000	47.407115
1498.000000	47.432295
1497.000000	47.415643
1496.000000	47.434300
1495.000000	47.449034
1494.000000	47.443031
1493.000000	47.455324
1492.000000	47.471478
1491.000000	47.485829
1490.000000	47.515475
1489.000000	47.548492
1488.000000	47.544725
1487.000000	47.574462
1486.000000	47.589688
1485.000000	47.614521
1484.000000	47.643092
1483.000000	47.662808
1482.000000	47.688487
1481.000000	47.719706
1480.000000	47.741344
1479.000000	47.753344
1478.000000	47.787626
1477.000000	47.797488
1476.000000	47.841315
1475.000000	47.850137
1474.000000	47.870584
1473.000000	47.918769
1472.000000	47.933467
1471.000000	47.936669
1470.000000	47.956190
1469.000000	47.989227
