PE UV       SUBTECH     SPECTRUM    ASCII       PEDS        4.00        
   -1
RTms148352.Sample.asc
18/03/20
09:34:22.00
18/03/20
09:34:22.00
Administrator

200.000000
1
Lambda 750
750N8071901
PerkinElmer UV WinLab 6.0.4.0738 / 1.61.00 Lambda 900

0
0
3350/servo 860.8/2
0
0
UV/VIS
1
1
1
CommonBeamDepol,150mm sphere / downward view
0
0
0
0
Program
Program
3350/servo 860.8/2
3350/0.2 860.8/0.2
3350/0.2 860.8/0.2
0
1
 
 
 
0
 
860.8
319.2
860.8
Front
100
on
 
 
0
0
0
 
0
 
 
 
0
 
 
0
0
0
0
0
 
 
 
 
0
0


0
0
#HDR
-1
-1
#GR
nm
%R
1.0
0.0
2350.000000
-1.000000
2151
8
65.483681
6.717172
#DATA
2350.000000	36.231625
2349.000000	36.146563
2348.000000	35.927058
2347.000000	36.270064
2346.000000	36.364253
2345.000000	36.214846
2344.000000	35.894135
2343.000000	35.887007
2342.000000	36.350115
2341.000000	36.121545
2340.000000	36.211501
2339.000000	36.518576
2338.000000	36.648069
2337.000000	36.672113
2336.000000	36.946623
2335.000000	36.756409
2334.000000	36.881502
2333.000000	36.964377
2332.000000	36.835853
2331.000000	36.773015
2330.000000	36.675980
2329.000000	36.987088
2328.000000	36.674489
2327.000000	36.492209
2326.000000	36.473443
2325.000000	36.582742
2324.000000	36.644401
2323.000000	36.562910
2322.000000	36.308991
2321.000000	36.447334
2320.000000	36.313051
2319.000000	36.316352
2318.000000	36.360468
2317.000000	36.314111
2316.000000	36.101423
2315.000000	36.059772
2314.000000	35.579718
2313.000000	35.373498
2312.000000	35.459555
2311.000000	35.643300
2310.000000	35.377186
2309.000000	35.520001
2308.000000	35.431207
2307.000000	35.484933
2306.000000	35.293081
2305.000000	35.232369
2304.000000	35.221616
2303.000000	35.222132
2302.000000	35.265838
2301.000000	35.115311
2300.000000	35.087237
2299.000000	35.093621
2298.000000	35.010584
2297.000000	35.092381
2296.000000	35.094939
2295.000000	35.053629
2294.000000	34.850273
2293.000000	34.756081
2292.000000	34.888231
2291.000000	34.774364
2290.000000	34.688091
2289.000000	34.678192
2288.000000	34.772618
2287.000000	34.704381
2286.000000	34.624401
2285.000000	34.743509
2284.000000	34.745952
2283.000000	34.503974
2282.000000	34.720947
2281.000000	34.845057
2280.000000	34.692634
2279.000000	34.780208
2278.000000	34.927443
2277.000000	34.843978
2276.000000	34.713673
2275.000000	34.796131
2274.000000	34.850592
2273.000000	34.883129
2272.000000	35.022603
2271.000000	35.161705
2270.000000	35.207459
2269.000000	35.215515
2268.000000	35.380262
2267.000000	35.482717
2266.000000	35.568817
2265.000000	35.700997
2264.000000	35.769909
2263.000000	35.985947
2262.000000	36.227135
2261.000000	36.354084
2260.000000	36.408372
2259.000000	36.544882
2258.000000	36.740022
2257.000000	36.928877
2256.000000	37.139470
2255.000000	37.264524
2254.000000	37.374965
2253.000000	37.609895
2252.000000	37.815732
2251.000000	37.986389
2250.000000	38.143266
2249.000000	38.461710
2248.000000	38.686611
2247.000000	38.792788
2246.000000	38.994411
2245.000000	39.201522
2244.000000	39.429784
2243.000000	39.628779
2242.000000	39.793146
2241.000000	39.947483
2240.000000	40.072111
2239.000000	40.075328
2238.000000	40.120643
2237.000000	40.283816
2236.000000	40.419279
2235.000000	40.648349
2234.000000	40.811711
2233.000000	40.804976
2232.000000	40.786893
2231.000000	40.876965
2230.000000	40.867944
2229.000000	40.935937
2228.000000	41.013608
2227.000000	41.020832
2226.000000	40.943608
2225.000000	40.937506
2224.000000	40.946970
2223.000000	40.886649
2222.000000	41.018175
2221.000000	40.998272
2220.000000	40.871618
2219.000000	40.876796
2218.000000	40.912211
2217.000000	40.839178
2216.000000	40.821183
2215.000000	40.733217
2214.000000	40.707748
2213.000000	40.769639
2212.000000	40.679279
2211.000000	40.665925
2210.000000	40.620482
2209.000000	40.440079
2208.000000	40.424842
2207.000000	40.382926
2206.000000	40.356101
2205.000000	40.197177
2204.000000	40.145774
2203.000000	40.114164
2202.000000	40.044368
2201.000000	39.997570
2200.000000	39.890903
2199.000000	39.857069
2198.000000	39.925122
2197.000000	39.748743
2196.000000	39.642990
2195.000000	39.691253
2194.000000	39.526642
2193.000000	39.426536
2192.000000	39.432629
2191.000000	39.355058
2190.000000	39.415175
2189.000000	39.416751
2188.000000	39.263629
2187.000000	39.116648
2186.000000	39.148992
2185.000000	39.062949
2184.000000	39.085097
2183.000000	39.137983
2182.000000	39.001964
2181.000000	38.891665
2180.000000	38.892489
2179.000000	38.875627
2178.000000	38.878505
2177.000000	38.985530
2176.000000	38.981426
2175.000000	38.904287
2174.000000	39.010936
2173.000000	38.999444
2172.000000	39.128922
2171.000000	39.106520
2170.000000	39.232798
2169.000000	39.250051
2168.000000	39.588252
2167.000000	39.418629
2166.000000	39.507869
2165.000000	39.561266
2164.000000	39.704814
2163.000000	39.800664
2162.000000	39.977157
2161.000000	40.075689
2160.000000	40.202431
2159.000000	40.321224
2158.000000	40.280215
2157.000000	40.519662
2156.000000	40.517698
2155.000000	40.799795
2154.000000	40.987379
2153.000000	41.258327
2152.000000	41.082920
2151.000000	41.385021
2150.000000	41.481711
2149.000000	41.552480
2148.000000	41.723096
2147.000000	41.918331
2146.000000	41.848518
2145.000000	42.210960
2144.000000	42.235527
2143.000000	42.204996
2142.000000	42.305461
2141.000000	42.528423
2140.000000	42.753388
2139.000000	42.705394
2138.000000	43.089756
2137.000000	43.039339
2136.000000	43.168633
2135.000000	43.348193
2134.000000	43.362960
2133.000000	43.334548
2132.000000	43.489308
2131.000000	43.507368
2130.000000	43.655413
2129.000000	43.615617
2128.000000	43.758033
2127.000000	43.687162
2126.000000	43.911503
2125.000000	43.846344
2124.000000	44.143939
2123.000000	43.967108
2122.000000	44.080218
2121.000000	44.072370
2120.000000	44.051237
2119.000000	44.067730
2118.000000	44.020720
2117.000000	44.087685
2116.000000	44.313286
2115.000000	44.210531
2114.000000	44.224122
2113.000000	44.195301
2112.000000	44.295799
2111.000000	44.220115
2110.000000	44.351264
2109.000000	44.422399
2108.000000	44.516416
2107.000000	44.440782
2106.000000	44.489379
2105.000000	44.456650
2104.000000	44.509760
2103.000000	44.396563
2102.000000	44.521748
2101.000000	44.454036
2100.000000	44.499174
2099.000000	44.514410
2098.000000	44.510672
2097.000000	44.401202
2096.000000	44.444647
2095.000000	44.460062
2094.000000	44.541605
2093.000000	44.452118
2092.000000	44.485708
2091.000000	44.476068
2090.000000	44.291015
2089.000000	44.341275
2088.000000	44.355689
2087.000000	44.331746
2086.000000	44.286300
2085.000000	44.300357
2084.000000	44.233955
2083.000000	44.194754
2082.000000	44.090113
2081.000000	44.054168
2080.000000	44.027035
2079.000000	43.939376
2078.000000	43.859123
2077.000000	43.822711
2076.000000	43.782508
2075.000000	43.606628
2074.000000	43.535899
2073.000000	43.439991
2072.000000	43.400439
2071.000000	43.333829
2070.000000	43.159210
2069.000000	42.989757
2068.000000	42.912723
2067.000000	42.733816
2066.000000	42.575479
2065.000000	42.516768
2064.000000	42.403771
2063.000000	42.313727
2062.000000	42.212916
2061.000000	42.066411
2060.000000	41.867175
2059.000000	41.769937
2058.000000	41.675446
2057.000000	41.525028
2056.000000	41.351746
2055.000000	41.162632
2054.000000	40.981478
2053.000000	40.901964
2052.000000	40.821008
2051.000000	40.685289
2050.000000	40.626251
2049.000000	40.577029
2048.000000	40.491544
2047.000000	40.388178
2046.000000	40.285433
2045.000000	40.231952
2044.000000	40.168933
2043.000000	40.140206
2042.000000	40.163899
2041.000000	40.152212
2040.000000	40.170922
2039.000000	40.208974
2038.000000	40.271507
2037.000000	40.300307
2036.000000	40.365880
2035.000000	40.445282
2034.000000	40.519582
2033.000000	40.615279
2032.000000	40.722862
2031.000000	40.757487
2030.000000	40.844661
2029.000000	40.990440
2028.000000	41.104944
2027.000000	41.171965
2026.000000	41.249139
2025.000000	41.354975
2024.000000	41.391378
2023.000000	41.464905
2022.000000	41.526876
2021.000000	41.490018
2020.000000	41.579066
2019.000000	41.674383
2018.000000	41.653888
2017.000000	41.659427
2016.000000	41.651464
2015.000000	41.654906
2014.000000	41.609658
2013.000000	41.566551
2012.000000	41.566397
2011.000000	41.535306
2010.000000	41.494597
2009.000000	41.414005
2008.000000	41.321248
2007.000000	41.249126
2006.000000	41.186887
2005.000000	41.112524
2004.000000	41.048251
2003.000000	40.961621
2002.000000	40.871644
2001.000000	40.760287
2000.000000	40.669176
1999.000000	40.575493
1998.000000	40.467856
1997.000000	40.389135
1996.000000	40.304535
1995.000000	40.185421
1994.000000	40.100335
1993.000000	40.010633
1992.000000	39.931036
1991.000000	39.800337
1990.000000	39.702881
1989.000000	39.573184
1988.000000	39.468204
1987.000000	39.419879
1986.000000	39.303860
1985.000000	39.237106
1984.000000	39.106228
1983.000000	39.024631
1982.000000	38.904968
1981.000000	38.823837
1980.000000	38.748620
1979.000000	38.612638
1978.000000	38.537753
1977.000000	38.398460
1976.000000	38.316507
1975.000000	38.236742
1974.000000	38.131474
1973.000000	38.067280
1972.000000	37.992623
1971.000000	37.828755
1970.000000	37.799878
1969.000000	37.695458
1968.000000	37.590667
1967.000000	37.544458
1966.000000	37.449651
1965.000000	37.325452
1964.000000	37.255366
1963.000000	37.181314
1962.000000	37.071288
1961.000000	37.002270
1960.000000	36.946473
1959.000000	36.838360
1958.000000	36.754452
1957.000000	36.663329
1956.000000	36.569161
1955.000000	36.533781
1954.000000	36.512515
1953.000000	36.478274
1952.000000	36.408823
1951.000000	36.385678
1950.000000	36.291389
1949.000000	36.269411
1948.000000	36.218935
1947.000000	36.229471
1946.000000	36.210169
1945.000000	36.209302
1944.000000	36.196057
1943.000000	36.205946
1942.000000	36.226147
1941.000000	36.302653
1940.000000	36.349046
1939.000000	36.406665
1938.000000	36.410846
1937.000000	36.548509
1936.000000	36.624340
1935.000000	36.704584
1934.000000	36.794492
1933.000000	36.960880
1932.000000	37.045226
1931.000000	37.139224
1930.000000	37.340778
1929.000000	37.511485
1928.000000	37.671490
1927.000000	37.900656
1926.000000	38.037509
1925.000000	38.319665
1924.000000	38.495593
1923.000000	38.729351
1922.000000	38.936985
1921.000000	39.334193
1920.000000	39.571209
1919.000000	39.820282
1918.000000	40.101238
1917.000000	40.481282
1916.000000	40.653163
1915.000000	41.005743
1914.000000	41.362405
1913.000000	41.795867
1912.000000	42.061483
1911.000000	42.362810
1910.000000	42.840842
1909.000000	43.207901
1908.000000	43.586613
1907.000000	44.015545
1906.000000	44.397957
1905.000000	44.810192
1904.000000	45.211286
1903.000000	45.744254
1902.000000	46.174585
1901.000000	46.601226
1900.000000	47.073702
1899.000000	47.543385
1898.000000	47.997454
1897.000000	48.433804
1896.000000	48.846719
1895.000000	49.300906
1894.000000	49.745659
1893.000000	50.180317
1892.000000	50.620534
1891.000000	51.024873
1890.000000	51.410812
1889.000000	51.820042
1888.000000	52.141358
1887.000000	52.512034
1886.000000	52.882265
1885.000000	53.199857
1884.000000	53.535635
1883.000000	53.836390
1882.000000	54.143460
1881.000000	54.406801
1880.000000	54.698435
1879.000000	55.005290
1878.000000	55.202043
1877.000000	55.482625
1876.000000	55.631631
1875.000000	55.901212
1874.000000	56.076038
1873.000000	56.220772
1872.000000	56.396000
1871.000000	56.510713
1870.000000	56.695366
1869.000000	56.835130
1868.000000	56.898743
1867.000000	56.961626
1866.000000	57.047451
1865.000000	57.150448
1864.000000	57.161265
1863.000000	57.208687
1862.000000	57.325587
1861.000000	57.362199
1860.000000	57.424476
1859.000000	57.471008
1858.000000	57.486330
1857.000000	57.534538
1856.000000	57.587560
1855.000000	57.599671
1854.000000	57.616977
1853.000000	57.630821
1852.000000	57.635540
1851.000000	57.596454
1850.000000	57.618619
1849.000000	57.617793
1848.000000	57.622814
1847.000000	57.617421
1846.000000	57.613343
1845.000000	57.621012
1844.000000	57.582684
1843.000000	57.556505
1842.000000	57.554934
1841.000000	57.523340
1840.000000	57.495525
1839.000000	57.473227
1838.000000	57.434550
1837.000000	57.400370
1836.000000	57.383783
1835.000000	57.348960
1834.000000	57.284307
1833.000000	57.248123
1832.000000	57.209447
1831.000000	57.158591
1830.000000	57.157345
1829.000000	57.137346
1828.000000	57.105296
1827.000000	57.072665
1826.000000	57.046763
1825.000000	57.007705
1824.000000	56.982451
1823.000000	56.944608
1822.000000	56.898222
1821.000000	56.874855
1820.000000	56.831679
1819.000000	56.793962
1818.000000	56.786838
1817.000000	56.749087
1816.000000	56.728273
1815.000000	56.707945
1814.000000	56.685811
1813.000000	56.668974
1812.000000	56.642981
1811.000000	56.606082
1810.000000	56.568629
1809.000000	56.548329
1808.000000	56.509050
1807.000000	56.476872
1806.000000	56.474626
1805.000000	56.467728
1804.000000	56.449013
1803.000000	56.400086
1802.000000	56.355889
1801.000000	56.348014
1800.000000	56.322565
1799.000000	56.284651
1798.000000	56.274307
1797.000000	56.251303
1796.000000	56.227689
1795.000000	56.220347
1794.000000	56.219957
1793.000000	56.193394
1792.000000	56.174978
1791.000000	56.179192
1790.000000	56.147898
1789.000000	56.128897
1788.000000	56.116178
1787.000000	56.093586
1786.000000	56.064964
1785.000000	56.021292
1784.000000	56.001640
1783.000000	55.974678
1782.000000	55.925327
1781.000000	55.904614
1780.000000	55.860279
1779.000000	55.827361
1778.000000	55.780950
1777.000000	55.721804
1776.000000	55.672437
1775.000000	55.604429
1774.000000	55.570833
1773.000000	55.539001
1772.000000	55.452430
1771.000000	55.397772
1770.000000	55.342111
1769.000000	55.275881
1768.000000	55.212572
1767.000000	55.195838
1766.000000	55.174771
1765.000000	55.089588
1764.000000	55.049331
1763.000000	54.998159
1762.000000	54.959130
1761.000000	54.928456
1760.000000	54.874142
1759.000000	54.839189
1758.000000	54.817155
1757.000000	54.764997
1756.000000	54.736675
1755.000000	54.706366
1754.000000	54.672066
1753.000000	54.606617
1752.000000	54.573668
1751.000000	54.522657
1750.000000	54.495186
1749.000000	54.473534
1748.000000	54.395684
1747.000000	54.331299
1746.000000	54.286749
1745.000000	54.241888
1744.000000	54.165548
1743.000000	54.146992
1742.000000	54.044887
1741.000000	53.982349
1740.000000	53.937111
1739.000000	53.878581
1738.000000	53.844551
1737.000000	53.810325
1736.000000	53.765005
1735.000000	53.769043
1734.000000	53.771015
1733.000000	53.718015
1732.000000	53.717091
1731.000000	53.713539
1730.000000	53.739648
1729.000000	53.740927
1728.000000	53.826636
1727.000000	53.839860
1726.000000	53.905957
1725.000000	53.968515
1724.000000	54.053087
1723.000000	54.120118
1722.000000	54.218233
1721.000000	54.311007
1720.000000	54.386211
1719.000000	54.500456
1718.000000	54.572414
1717.000000	54.648479
1716.000000	54.749266
1715.000000	54.835708
1714.000000	54.925776
1713.000000	55.000925
1712.000000	55.079773
1711.000000	55.156456
1710.000000	55.222010
1709.000000	55.286869
1708.000000	55.344570
1707.000000	55.409810
1706.000000	55.467276
1705.000000	55.500212
1704.000000	55.520821
1703.000000	55.531201
1702.000000	55.595477
1701.000000	55.614310
1700.000000	55.635200
1699.000000	55.653730
1698.000000	55.734267
1697.000000	55.770153
1696.000000	55.794120
1695.000000	55.824091
1694.000000	55.865276
1693.000000	55.932153
1692.000000	55.966165
1691.000000	56.042289
1690.000000	56.114222
1689.000000	56.209301
1688.000000	56.273225
1687.000000	56.392971
1686.000000	56.482800
1685.000000	56.617027
1684.000000	56.759905
1683.000000	56.859869
1682.000000	57.001701
1681.000000	57.137224
1680.000000	57.263335
1679.000000	57.412443
1678.000000	57.533680
1677.000000	57.627623
1676.000000	57.796650
1675.000000	57.953391
1674.000000	58.075889
1673.000000	58.214486
1672.000000	58.352074
1671.000000	58.474658
1670.000000	58.588000
1669.000000	58.690069
1668.000000	58.796608
1667.000000	58.898861
1666.000000	58.980325
1665.000000	59.041248
1664.000000	59.129549
1663.000000	59.163889
1662.000000	59.259959
1661.000000	59.306560
1660.000000	59.343341
1659.000000	59.414326
1658.000000	59.452083
1657.000000	59.479620
1656.000000	59.498820
1655.000000	59.533520
1654.000000	59.571965
1653.000000	59.566281
1652.000000	59.572102
1651.000000	59.568062
1650.000000	59.582222
1649.000000	59.577620
1648.000000	59.559107
1647.000000	59.566698
1646.000000	59.546321
1645.000000	59.545064
1644.000000	59.536402
1643.000000	59.522382
1642.000000	59.490603
1641.000000	59.479365
1640.000000	59.468538
1639.000000	59.443652
1638.000000	59.445915
1637.000000	59.417589
1636.000000	59.365440
1635.000000	59.356969
1634.000000	59.315835
1633.000000	59.294206
1632.000000	59.284165
1631.000000	59.241792
1630.000000	59.202050
1629.000000	59.159269
1628.000000	59.123629
1627.000000	59.098574
1626.000000	59.071784
1625.000000	59.048971
1624.000000	59.012094
1623.000000	58.970536
1622.000000	58.949055
1621.000000	58.900218
1620.000000	58.866068
1619.000000	58.818241
1618.000000	58.779069
1617.000000	58.742850
1616.000000	58.707011
1615.000000	58.661136
1614.000000	58.615614
1613.000000	58.554107
1612.000000	58.510019
1611.000000	58.476658
1610.000000	58.448548
1609.000000	58.408340
1608.000000	58.355426
1607.000000	58.300726
1606.000000	58.236074
1605.000000	58.198151
1604.000000	58.147045
1603.000000	58.087038
1602.000000	58.052542
1601.000000	58.004929
1600.000000	57.957697
1599.000000	57.914096
1598.000000	57.875462
1597.000000	57.828428
1596.000000	57.776261
1595.000000	57.737714
1594.000000	57.694140
1593.000000	57.650753
1592.000000	57.609867
1591.000000	57.561514
1590.000000	57.527653
1589.000000	57.483838
1588.000000	57.446588
1587.000000	57.427635
1586.000000	57.381163
1585.000000	57.349708
1584.000000	57.314024
1583.000000	57.284267
1582.000000	57.245474
1581.000000	57.206235
1580.000000	57.173457
1579.000000	57.131380
1578.000000	57.113544
1577.000000	57.084261
1576.000000	57.042703
1575.000000	57.007796
1574.000000	56.961570
1573.000000	56.926100
1572.000000	56.883112
1571.000000	56.843814
1570.000000	56.802943
1569.000000	56.773636
1568.000000	56.754097
1567.000000	56.720140
1566.000000	56.702261
1565.000000	56.681968
1564.000000	56.653165
1563.000000	56.644254
1562.000000	56.616411
1561.000000	56.583436
1560.000000	56.575774
1559.000000	56.558954
1558.000000	56.538397
1557.000000	56.530044
1556.000000	56.499655
1555.000000	56.479831
1554.000000	56.482743
1553.000000	56.448280
1552.000000	56.423261
1551.000000	56.399111
1550.000000	56.370519
1549.000000	56.336402
1548.000000	56.317300
1547.000000	56.276205
1546.000000	56.217345
1545.000000	56.166975
1544.000000	56.103705
1543.000000	56.057943
1542.000000	55.998448
1541.000000	55.923226
1540.000000	55.869573
1539.000000	55.807651
1538.000000	55.742001
1537.000000	55.652537
1536.000000	55.588667
1535.000000	55.528120
1534.000000	55.470439
1533.000000	55.392984
1532.000000	55.316444
1531.000000	55.240913
1530.000000	55.174326
1529.000000	55.116368
1528.000000	55.052320
1527.000000	54.996202
1526.000000	54.934389
1525.000000	54.905169
1524.000000	54.853325
1523.000000	54.800141
1522.000000	54.756417
1521.000000	54.718196
1520.000000	54.676045
1519.000000	54.643684
1518.000000	54.627218
1517.000000	54.584780
1516.000000	54.545187
1515.000000	54.522830
1514.000000	54.484597
1513.000000	54.453022
1512.000000	54.435017
1511.000000	54.417851
1510.000000	54.422785
1509.000000	54.453330
1508.000000	54.506021
1507.000000	54.516295
1506.000000	54.482337
1505.000000	54.464697
1504.000000	54.446581
1503.000000	54.425189
1502.000000	54.407646
1501.000000	54.390018
1500.000000	54.387374
1499.000000	54.389190
1498.000000	54.386847
1497.000000	54.390172
1496.000000	54.399772
1495.000000	54.407368
1494.000000	54.404782
1493.000000	54.440399
1492.000000	54.447509
1491.000000	54.464560
1490.000000	54.493716
1489.000000	54.534478
1488.000000	54.563265
1487.000000	54.591231
1486.000000	54.616376
1485.000000	54.663060
1484.000000	54.715188
1483.000000	54.731502
1482.000000	54.769803
1481.000000	54.814664
1480.000000	54.843936
1479.000000	54.905773
1478.000000	54.956648
1477.000000	54.989853
1476.000000	55.032669
1475.000000	55.092124
1474.000000	55.107775
1473.000000	55.159872
1472.000000	55.213243
1471.000000	55.225700
1470.000000	55.266332
