PE UV       SUBTECH     SPECTRUM    ASCII       PEDS        4.00        
   -1
TDmsfkat102.Sample.asc
18/03/20
15:08:56.00
18/03/20
15:08:56.00
Administrator

200.000000
1
Lambda 750
750N8071901
PerkinElmer UV WinLab 6.0.4.0738 / 1.61.00 Lambda 900

0
0
3350/servo 860.8/2
0
0
UV/VIS
1
1
1
CommonBeamDepol,150mm sphere / downward view
0
0
0
0
Program
Program
3350/servo 860.8/2
3350/0.2 860.8/0.2
3350/0.2 860.8/0.2
0
1
 
 
 
0
 
860.8
319.2
860.8
Front
100
on
 
 
0
0
0
 
0
 
 
 
0
 
 
0
0
0
0
0
 
 
 
 
0
0


0
0
#HDR
-1
-1
#GR
nm
%T
1.0
0.0
2350.000000
-1.000000
2151
8
15.203226
-0.019268
#DATA
2350.000000	8.327627
2349.000000	8.401731
2348.000000	8.622462
2347.000000	9.198779
2346.000000	8.678568
2345.000000	8.535224
2344.000000	8.382249
2343.000000	7.913809
2342.000000	8.386653
2341.000000	8.669126
2340.000000	8.109199
2339.000000	9.093180
2338.000000	8.991654
2337.000000	8.934550
2336.000000	8.994982
2335.000000	9.379567
2334.000000	9.052423
2333.000000	9.213296
2332.000000	9.416323
2331.000000	9.291316
2330.000000	9.031336
2329.000000	9.177244
2328.000000	8.978817
2327.000000	9.147657
2326.000000	8.741362
2325.000000	8.889033
2324.000000	9.074388
2323.000000	8.983967
2322.000000	8.675976
2321.000000	8.841095
2320.000000	9.089988
2319.000000	8.979325
2318.000000	8.962979
2317.000000	8.883242
2316.000000	8.967566
2315.000000	8.788305
2314.000000	8.561097
2313.000000	8.486062
2312.000000	8.302626
2311.000000	8.525816
2310.000000	8.446788
2309.000000	8.428713
2308.000000	8.294829
2307.000000	8.433254
2306.000000	8.220065
2305.000000	8.269273
2304.000000	8.184711
2303.000000	8.514187
2302.000000	8.227678
2301.000000	8.123821
2300.000000	8.169012
2299.000000	7.986504
2298.000000	7.954532
2297.000000	8.026942
2296.000000	8.246010
2295.000000	8.164855
2294.000000	8.060071
2293.000000	7.938595
2292.000000	7.752749
2291.000000	7.818377
2290.000000	7.891669
2289.000000	7.921598
2288.000000	7.800316
2287.000000	7.995057
2286.000000	7.913660
2285.000000	7.744381
2284.000000	7.810225
2283.000000	7.727406
2282.000000	7.840758
2281.000000	7.725086
2280.000000	7.675576
2279.000000	7.732239
2278.000000	7.623322
2277.000000	7.782683
2276.000000	7.844051
2275.000000	7.692393
2274.000000	7.703520
2273.000000	7.850993
2272.000000	7.765052
2271.000000	7.749498
2270.000000	7.761104
2269.000000	7.887908
2268.000000	7.863080
2267.000000	7.854430
2266.000000	7.877747
2265.000000	8.003469
2264.000000	8.107927
2263.000000	8.155789
2262.000000	8.272336
2261.000000	8.449254
2260.000000	8.489256
2259.000000	8.425017
2258.000000	8.517295
2257.000000	8.579204
2256.000000	8.645710
2255.000000	8.714889
2254.000000	8.710482
2253.000000	8.597437
2252.000000	8.690910
2251.000000	8.814619
2250.000000	8.892170
2249.000000	9.061244
2248.000000	9.158127
2247.000000	9.155347
2246.000000	9.145643
2245.000000	9.203163
2244.000000	9.322697
2243.000000	9.424004
2242.000000	9.539136
2241.000000	9.628428
2240.000000	9.650879
2239.000000	9.650327
2238.000000	9.673556
2237.000000	9.715778
2236.000000	9.705967
2235.000000	9.729398
2234.000000	9.788382
2233.000000	9.729345
2232.000000	9.775622
2231.000000	9.866696
2230.000000	9.772782
2229.000000	9.679750
2228.000000	9.848441
2227.000000	9.809541
2226.000000	9.734044
2225.000000	9.705387
2224.000000	9.673261
2223.000000	9.655004
2222.000000	9.643004
2221.000000	9.684828
2220.000000	9.667488
2219.000000	9.640942
2218.000000	9.672091
2217.000000	9.725437
2216.000000	9.712001
2215.000000	9.668584
2214.000000	9.689428
2213.000000	9.666046
2212.000000	9.622974
2211.000000	9.604936
2210.000000	9.539841
2209.000000	9.567872
2208.000000	9.509575
2207.000000	9.428633
2206.000000	9.350461
2205.000000	9.433713
2204.000000	9.445259
2203.000000	9.371156
2202.000000	9.285005
2201.000000	9.290993
2200.000000	9.291577
2199.000000	9.248068
2198.000000	9.351762
2197.000000	9.159594
2196.000000	9.130218
2195.000000	9.059063
2194.000000	9.044234
2193.000000	9.020205
2192.000000	9.002108
2191.000000	8.953788
2190.000000	9.045895
2189.000000	8.995034
2188.000000	8.941494
2187.000000	8.842420
2186.000000	8.878750
2185.000000	8.900220
2184.000000	8.806225
2183.000000	8.831339
2182.000000	8.810648
2181.000000	8.922777
2180.000000	8.898202
2179.000000	8.786528
2178.000000	8.682541
2177.000000	8.693007
2176.000000	8.738391
2175.000000	8.808161
2174.000000	8.740502
2173.000000	8.744026
2172.000000	8.902791
2171.000000	8.960241
2170.000000	8.956608
2169.000000	8.946317
2168.000000	8.995826
2167.000000	8.942605
2166.000000	9.043633
2165.000000	9.015656
2164.000000	8.920099
2163.000000	9.036543
2162.000000	9.148494
2161.000000	9.108928
2160.000000	9.338613
2159.000000	9.345140
2158.000000	9.137635
2157.000000	9.264174
2156.000000	9.251491
2155.000000	9.458558
2154.000000	9.592765
2153.000000	9.539933
2152.000000	9.648995
2151.000000	9.588738
2150.000000	9.609533
2149.000000	9.589896
2148.000000	9.432067
2147.000000	9.679385
2146.000000	9.539213
2145.000000	9.894260
2144.000000	9.981092
2143.000000	9.811112
2142.000000	10.067073
2141.000000	9.977503
2140.000000	9.985400
2139.000000	10.072227
2138.000000	10.281786
2137.000000	10.210248
2136.000000	10.250961
2135.000000	10.064682
2134.000000	10.258139
2133.000000	10.139112
2132.000000	10.289150
2131.000000	10.385893
2130.000000	10.374798
2129.000000	10.145250
2128.000000	10.226932
2127.000000	10.379678
2126.000000	10.328310
2125.000000	10.328044
2124.000000	10.505872
2123.000000	10.376495
2122.000000	10.526268
2121.000000	10.412484
2120.000000	10.539703
2119.000000	10.340616
2118.000000	10.409415
2117.000000	10.471495
2116.000000	10.568863
2115.000000	10.595638
2114.000000	10.595274
2113.000000	10.589880
2112.000000	10.479398
2111.000000	10.504262
2110.000000	10.503850
2109.000000	10.479169
2108.000000	10.436801
2107.000000	10.542802
2106.000000	10.554994
2105.000000	10.486687
2104.000000	10.683729
2103.000000	10.634996
2102.000000	10.603333
2101.000000	10.539935
2100.000000	10.590674
2099.000000	10.518840
2098.000000	10.552863
2097.000000	10.540866
2096.000000	10.497814
2095.000000	10.459143
2094.000000	10.556790
2093.000000	10.530915
2092.000000	10.547738
2091.000000	10.532895
2090.000000	10.409496
2089.000000	10.493367
2088.000000	10.459567
2087.000000	10.445429
2086.000000	10.420949
2085.000000	10.424947
2084.000000	10.411503
2083.000000	10.309605
2082.000000	10.358224
2081.000000	10.303127
2080.000000	10.344370
2079.000000	10.335263
2078.000000	10.185876
2077.000000	10.237078
2076.000000	10.204315
2075.000000	10.145234
2074.000000	10.065510
2073.000000	10.097381
2072.000000	10.040409
2071.000000	9.969923
2070.000000	9.927901
2069.000000	9.892950
2068.000000	9.809552
2067.000000	9.775662
2066.000000	9.676825
2065.000000	9.595105
2064.000000	9.548656
2063.000000	9.491683
2062.000000	9.455383
2061.000000	9.348080
2060.000000	9.315714
2059.000000	9.291523
2058.000000	9.250416
2057.000000	9.230938
2056.000000	9.173202
2055.000000	9.157649
2054.000000	9.021155
2053.000000	8.942658
2052.000000	8.907900
2051.000000	8.893990
2050.000000	8.876058
2049.000000	8.781891
2048.000000	8.739171
2047.000000	8.706332
2046.000000	8.663803
2045.000000	8.678646
2044.000000	8.660755
2043.000000	8.642672
2042.000000	8.694802
2041.000000	8.778004
2040.000000	8.791504
2039.000000	8.728359
2038.000000	8.749610
2037.000000	8.779829
2036.000000	8.745694
2035.000000	8.747415
2034.000000	8.792304
2033.000000	8.870130
2032.000000	8.954995
2031.000000	8.946451
2030.000000	8.939241
2029.000000	9.012400
2028.000000	9.116885
2027.000000	9.199423
2026.000000	9.210418
2025.000000	9.172736
2024.000000	9.169241
2023.000000	9.202663
2022.000000	9.211697
2021.000000	9.223239
2020.000000	9.232023
2019.000000	9.218082
2018.000000	9.287249
2017.000000	9.312916
2016.000000	9.282569
2015.000000	9.287004
2014.000000	9.324712
2013.000000	9.304776
2012.000000	9.254507
2011.000000	9.235596
2010.000000	9.257557
2009.000000	9.212931
2008.000000	9.152875
2007.000000	9.149486
2006.000000	9.134547
2005.000000	9.088416
2004.000000	9.014219
2003.000000	8.989782
2002.000000	9.002292
2001.000000	8.974871
2000.000000	8.971808
1999.000000	8.938901
1998.000000	8.889855
1997.000000	8.846408
1996.000000	8.834516
1995.000000	8.835245
1994.000000	8.752047
1993.000000	8.680307
1992.000000	8.664280
1991.000000	8.622535
1990.000000	8.533492
1989.000000	8.480288
1988.000000	8.490097
1987.000000	8.476686
1986.000000	8.443173
1985.000000	8.409810
1984.000000	8.342743
1983.000000	8.290893
1982.000000	8.296151
1981.000000	8.261630
1980.000000	8.204366
1979.000000	8.179994
1978.000000	8.154539
1977.000000	8.124846
1976.000000	8.079691
1975.000000	8.073448
1974.000000	8.012909
1973.000000	7.978029
1972.000000	7.917372
1971.000000	7.922558
1970.000000	7.883012
1969.000000	7.850441
1968.000000	7.773913
1967.000000	7.772500
1966.000000	7.774408
1965.000000	7.775416
1964.000000	7.748786
1963.000000	7.718233
1962.000000	7.697439
1961.000000	7.651758
1960.000000	7.603764
1959.000000	7.511511
1958.000000	7.511903
1957.000000	7.529644
1956.000000	7.474142
1955.000000	7.466638
1954.000000	7.482587
1953.000000	7.452162
1952.000000	7.468088
1951.000000	7.406873
1950.000000	7.319568
1949.000000	7.296740
1948.000000	7.335384
1947.000000	7.321047
1946.000000	7.311872
1945.000000	7.312755
1944.000000	7.315759
1943.000000	7.266336
1942.000000	7.345100
1941.000000	7.378660
1940.000000	7.412084
1939.000000	7.409533
1938.000000	7.434925
1937.000000	7.449383
1936.000000	7.495781
1935.000000	7.513439
1934.000000	7.526608
1933.000000	7.572218
1932.000000	7.654325
1931.000000	7.602412
1930.000000	7.661553
1929.000000	7.774388
1928.000000	7.923378
1927.000000	7.946132
1926.000000	7.992882
1925.000000	8.029923
1924.000000	8.185435
1923.000000	8.175193
1922.000000	8.316552
1921.000000	8.451812
1920.000000	8.484509
1919.000000	8.613962
1918.000000	8.662991
1917.000000	8.807051
1916.000000	8.747520
1915.000000	8.929664
1914.000000	9.125930
1913.000000	9.258274
1912.000000	9.328942
1911.000000	9.364157
1910.000000	9.509844
1909.000000	9.641575
1908.000000	9.795679
1907.000000	9.903754
1906.000000	10.103308
1905.000000	10.190970
1904.000000	10.362713
1903.000000	10.528186
1902.000000	10.734337
1901.000000	10.822089
1900.000000	10.941823
1899.000000	11.132108
1898.000000	11.315814
1897.000000	11.458184
1896.000000	11.653850
1895.000000	11.777541
1894.000000	11.966306
1893.000000	12.048929
1892.000000	12.178170
1891.000000	12.373440
1890.000000	12.491293
1889.000000	12.648530
1888.000000	12.750378
1887.000000	12.883548
1886.000000	13.098499
1885.000000	13.201216
1884.000000	13.321353
1883.000000	13.473251
1882.000000	13.563403
1881.000000	13.640596
1880.000000	13.752185
1879.000000	13.882547
1878.000000	13.932136
1877.000000	13.998195
1876.000000	14.084096
1875.000000	14.221117
1874.000000	14.270925
1873.000000	14.312613
1872.000000	14.394953
1871.000000	14.440210
1870.000000	14.524233
1869.000000	14.551216
1868.000000	14.617267
1867.000000	14.583610
1866.000000	14.583490
1865.000000	14.601870
1864.000000	14.619065
1863.000000	14.638859
1862.000000	14.657969
1861.000000	14.696198
1860.000000	14.727424
1859.000000	14.710870
1858.000000	14.755065
1857.000000	14.752297
1856.000000	14.723229
1855.000000	14.740716
1854.000000	14.731929
1853.000000	14.740823
1852.000000	14.733533
1851.000000	14.749959
1850.000000	14.724622
1849.000000	14.761403
1848.000000	14.778663
1847.000000	14.748253
1846.000000	14.755795
1845.000000	14.763768
1844.000000	14.739942
1843.000000	14.697914
1842.000000	14.666093
1841.000000	14.662011
1840.000000	14.685204
1839.000000	14.690717
1838.000000	14.664671
1837.000000	14.618138
1836.000000	14.600145
1835.000000	14.580001
1834.000000	14.552478
1833.000000	14.507918
1832.000000	14.496042
1831.000000	14.463349
1830.000000	14.470724
1829.000000	14.462085
1828.000000	14.409767
1827.000000	14.399936
1826.000000	14.408334
1825.000000	14.380413
1824.000000	14.361659
1823.000000	14.342962
1822.000000	14.317155
1821.000000	14.310747
1820.000000	14.282609
1819.000000	14.242899
1818.000000	14.235103
1817.000000	14.246278
1816.000000	14.242279
1815.000000	14.207829
1814.000000	14.186187
1813.000000	14.157335
1812.000000	14.143876
1811.000000	14.152791
1810.000000	14.137253
1809.000000	14.122876
1808.000000	14.110033
1807.000000	14.081227
1806.000000	14.068330
1805.000000	14.066065
1804.000000	14.044752
1803.000000	14.024092
1802.000000	14.016710
1801.000000	14.010535
1800.000000	13.998759
1799.000000	13.975540
1798.000000	13.964765
1797.000000	13.968237
1796.000000	13.976446
1795.000000	13.963370
1794.000000	13.955588
1793.000000	13.943425
1792.000000	13.935680
1791.000000	13.916545
1790.000000	13.895355
1789.000000	13.918591
1788.000000	13.933379
1787.000000	13.894950
1786.000000	13.889799
1785.000000	13.889431
1784.000000	13.878744
1783.000000	13.877168
1782.000000	13.872582
1781.000000	13.854694
1780.000000	13.841815
1779.000000	13.840223
1778.000000	13.843485
1777.000000	13.820486
1776.000000	13.780465
1775.000000	13.773191
1774.000000	13.760016
1773.000000	13.722950
1772.000000	13.694033
1771.000000	13.670831
1770.000000	13.648249
1769.000000	13.626656
1768.000000	13.580641
1767.000000	13.562429
1766.000000	13.566659
1765.000000	13.539696
1764.000000	13.525084
1763.000000	13.497247
1762.000000	13.481624
1761.000000	13.470231
1760.000000	13.443454
1759.000000	13.408880
1758.000000	13.398216
1757.000000	13.371591
1756.000000	13.336581
1755.000000	13.334974
1754.000000	13.285055
1753.000000	13.253588
1752.000000	13.270782
1751.000000	13.242408
1750.000000	13.231907
1749.000000	13.217456
1748.000000	13.163211
1747.000000	13.137315
1746.000000	13.112623
1745.000000	13.098136
1744.000000	13.064830
1743.000000	13.044288
1742.000000	13.011273
1741.000000	13.002694
1740.000000	12.985237
1739.000000	12.981340
1738.000000	12.961474
1737.000000	12.959416
1736.000000	12.907253
1735.000000	12.930798
1734.000000	12.916631
1733.000000	12.899023
1732.000000	12.908398
1731.000000	12.898831
1730.000000	12.923969
1729.000000	12.922148
1728.000000	12.919898
1727.000000	12.933231
1726.000000	12.977603
1725.000000	12.967148
1724.000000	12.995846
1723.000000	13.007785
1722.000000	13.036650
1721.000000	13.082379
1720.000000	13.100542
1719.000000	13.153918
1718.000000	13.156974
1717.000000	13.178186
1716.000000	13.225488
1715.000000	13.234340
1714.000000	13.229508
1713.000000	13.251740
1712.000000	13.270358
1711.000000	13.287221
1710.000000	13.323251
1709.000000	13.338402
1708.000000	13.326963
1707.000000	13.344320
1706.000000	13.345452
1705.000000	13.350485
1704.000000	13.349681
1703.000000	13.361338
1702.000000	13.358791
1701.000000	13.358523
1700.000000	13.396511
1699.000000	13.324793
1698.000000	13.385039
1697.000000	13.415073
1696.000000	13.395678
1695.000000	13.387856
1694.000000	13.400419
1693.000000	13.413761
1692.000000	13.415523
1691.000000	13.435725
1690.000000	13.486817
1689.000000	13.482672
1688.000000	13.515197
1687.000000	13.573830
1686.000000	13.595460
1685.000000	13.635726
1684.000000	13.667200
1683.000000	13.754502
1682.000000	13.787179
1681.000000	13.802759
1680.000000	13.853701
1679.000000	13.915238
1678.000000	13.965879
1677.000000	14.014018
1676.000000	14.049115
1675.000000	14.105449
1674.000000	14.185856
1673.000000	14.209579
1672.000000	14.255228
1671.000000	14.285162
1670.000000	14.354909
1669.000000	14.387300
1668.000000	14.395723
1667.000000	14.451595
1666.000000	14.457385
1665.000000	14.484304
1664.000000	14.480971
1663.000000	14.482418
1662.000000	14.540124
1661.000000	14.554087
1660.000000	14.601587
1659.000000	14.611261
1658.000000	14.620877
1657.000000	14.637747
1656.000000	14.651929
1655.000000	14.673260
1654.000000	14.667493
1653.000000	14.652557
1652.000000	14.668670
1651.000000	14.666610
1650.000000	14.676278
1649.000000	14.665263
1648.000000	14.653820
1647.000000	14.644734
1646.000000	14.641597
1645.000000	14.630377
1644.000000	14.611457
1643.000000	14.605375
1642.000000	14.593465
1641.000000	14.584491
1640.000000	14.565989
1639.000000	14.564974
1638.000000	14.559278
1637.000000	14.543526
1636.000000	14.514933
1635.000000	14.492621
1634.000000	14.473330
1633.000000	14.471447
1632.000000	14.453853
1631.000000	14.442878
1630.000000	14.420344
1629.000000	14.390779
1628.000000	14.376067
1627.000000	14.362326
1626.000000	14.346650
1625.000000	14.328929
1624.000000	14.314359
1623.000000	14.288399
1622.000000	14.275644
1621.000000	14.260582
1620.000000	14.239466
1619.000000	14.207598
1618.000000	14.190727
1617.000000	14.182304
1616.000000	14.161738
1615.000000	14.138570
1614.000000	14.118355
1613.000000	14.090892
1612.000000	14.066669
1611.000000	14.044572
1610.000000	14.033108
1609.000000	14.009278
1608.000000	13.999622
1607.000000	13.962094
1606.000000	13.935190
1605.000000	13.921727
1604.000000	13.887156
1603.000000	13.866120
1602.000000	13.845443
1601.000000	13.820102
1600.000000	13.797289
1599.000000	13.782332
1598.000000	13.758021
1597.000000	13.730289
1596.000000	13.719079
1595.000000	13.704469
1594.000000	13.684803
1593.000000	13.675317
1592.000000	13.658178
1591.000000	13.641174
1590.000000	13.607305
1589.000000	13.568059
1588.000000	13.563757
1587.000000	13.559692
1586.000000	13.536593
1585.000000	13.522805
1584.000000	13.504549
1583.000000	13.484597
1582.000000	13.472075
1581.000000	13.458648
1580.000000	13.443186
1579.000000	13.424253
1578.000000	13.418822
1577.000000	13.405766
1576.000000	13.372339
1575.000000	13.347995
1574.000000	13.336929
1573.000000	13.327341
1572.000000	13.313397
1571.000000	13.295743
1570.000000	13.286168
1569.000000	13.260450
1568.000000	13.249102
1567.000000	13.229778
1566.000000	13.222539
1565.000000	13.208961
1564.000000	13.183465
1563.000000	13.174568
1562.000000	13.165488
1561.000000	13.145139
1560.000000	13.144743
1559.000000	13.130704
1558.000000	13.118938
1557.000000	13.099690
1556.000000	13.081343
1555.000000	13.057249
1554.000000	13.044503
1553.000000	13.043889
1552.000000	13.047465
1551.000000	13.030238
1550.000000	13.003208
1549.000000	12.994351
1548.000000	12.992114
1547.000000	12.955954
1546.000000	12.919998
1545.000000	12.906338
1544.000000	12.872603
1543.000000	12.842305
1542.000000	12.801131
1541.000000	12.771963
1540.000000	12.745342
1539.000000	12.721143
1538.000000	12.695244
1537.000000	12.658174
1536.000000	12.618516
1535.000000	12.583052
1534.000000	12.549846
1533.000000	12.535246
1532.000000	12.497665
1531.000000	12.467800
1530.000000	12.444417
1529.000000	12.405532
1528.000000	12.380829
1527.000000	12.350666
1526.000000	12.327010
1525.000000	12.309191
1524.000000	12.278170
1523.000000	12.271433
1522.000000	12.242536
1521.000000	12.224883
1520.000000	12.204974
1519.000000	12.203070
1518.000000	12.187520
1517.000000	12.162006
1516.000000	12.142905
1515.000000	12.141534
1514.000000	12.116491
1513.000000	12.110286
1512.000000	12.091604
1511.000000	12.078367
1510.000000	12.089302
1509.000000	12.061519
1508.000000	12.049367
1507.000000	12.042744
1506.000000	12.028824
1505.000000	12.033396
1504.000000	12.041221
1503.000000	12.048484
1502.000000	12.026468
1501.000000	12.034925
1500.000000	12.026954
1499.000000	12.005838
1498.000000	12.018752
1497.000000	12.021568
1496.000000	12.019582
1495.000000	12.038731
1494.000000	12.033946
1493.000000	12.044364
1492.000000	12.048105
1491.000000	12.047081
1490.000000	12.046107
1489.000000	12.063370
1488.000000	12.094126
1487.000000	12.096053
1486.000000	12.094156
1485.000000	12.115211
1484.000000	12.124696
1483.000000	12.153417
1482.000000	12.124720
1481.000000	12.180754
1480.000000	12.190215
1479.000000	12.202151
1478.000000	12.195521
1477.000000	12.223081
1476.000000	12.211028
1475.000000	12.208975
1474.000000	12.211478
1473.000000	12.231203
1472.000000	12.253894
1471.000000	12.258584
1470.000000	12.274842
1469.000000	12.282084
1468.000000	12.266447
1467.000000	12.285656
1466.000000	12.300780
1465.000000	12.302911
1464.000000	12.305018
1463.000000	12.347955
1462.000000	12.415565
1461.000000	12.441264
1460.000000	12.467001
1459.000000	12.446656
1458.000000	12.444413
1457.000000	12.425897
1456.000000	12.415665
1455.000000	12.432904
1454.000000	12.448569
1453.000000	12.470916
