PE UV       SUBTECH     SPECTRUM    ASCII       PEDS        4.00        
   -1
TDms1240112.Sample.asc
18/03/20
15:58:42.00
18/03/20
15:58:42.00
Administrator

200.000000
1
Lambda 750
750N8071901
PerkinElmer UV WinLab 6.0.4.0738 / 1.61.00 Lambda 900

0
0
3350/servo 860.8/2
0
0
UV/VIS
1
1
1
CommonBeamDepol,150mm sphere / downward view
0
0
0
0
Program
Program
3350/servo 860.8/2
3350/0.2 860.8/0.2
3350/0.2 860.8/0.2
0
1
 
 
 
0
 
860.8
319.2
860.8
Front
100
on
 
 
0
0
0
 
0
 
 
 
0
 
 
0
0
0
0
0
 
 
 
 
0
0


0
0
#HDR
-1
-1
#GR
nm
%T
1.0
0.0
2350.000000
-1.000000
2151
8
24.647134
0.230098
#DATA
2350.000000	18.634818
2349.000000	18.494166
2348.000000	18.603236
2347.000000	19.027355
2346.000000	18.816715
2345.000000	18.388621
2344.000000	18.245569
2343.000000	18.380009
2342.000000	18.113531
2341.000000	18.617013
2340.000000	18.745115
2339.000000	19.188128
2338.000000	19.003661
2337.000000	18.919245
2336.000000	19.198232
2335.000000	19.007577
2334.000000	18.870158
2333.000000	19.150403
2332.000000	19.423686
2331.000000	19.222460
2330.000000	19.199844
2329.000000	19.179098
2328.000000	19.195812
2327.000000	18.850278
2326.000000	19.195668
2325.000000	19.285835
2324.000000	18.994119
2323.000000	18.824289
2322.000000	18.718302
2321.000000	18.698795
2320.000000	18.782910
2319.000000	18.642973
2318.000000	18.574311
2317.000000	18.455191
2316.000000	18.347716
2315.000000	18.486603
2314.000000	18.371608
2313.000000	18.257332
2312.000000	18.321142
2311.000000	18.422502
2310.000000	18.497605
2309.000000	18.384853
2308.000000	18.142190
2307.000000	18.310330
2306.000000	18.116426
2305.000000	18.129887
2304.000000	17.974950
2303.000000	18.050567
2302.000000	17.952902
2301.000000	17.858080
2300.000000	17.987460
2299.000000	18.211330
2298.000000	17.826018
2297.000000	17.759826
2296.000000	17.971549
2295.000000	17.913782
2294.000000	17.880492
2293.000000	17.782016
2292.000000	17.792324
2291.000000	17.744585
2290.000000	17.418216
2289.000000	17.430671
2288.000000	17.619179
2287.000000	17.905323
2286.000000	17.841672
2285.000000	17.746509
2284.000000	17.751645
2283.000000	17.564680
2282.000000	17.559674
2281.000000	17.608182
2280.000000	17.852444
2279.000000	17.839897
2278.000000	17.654954
2277.000000	17.785011
2276.000000	17.749596
2275.000000	17.763039
2274.000000	18.004625
2273.000000	18.048533
2272.000000	18.050476
2271.000000	17.957608
2270.000000	17.817167
2269.000000	17.808899
2268.000000	17.939914
2267.000000	17.956010
2266.000000	18.127283
2265.000000	18.230491
2264.000000	18.172517
2263.000000	18.274244
2262.000000	18.384071
2261.000000	18.487848
2260.000000	18.576627
2259.000000	18.689072
2258.000000	18.735940
2257.000000	18.703993
2256.000000	18.781494
2255.000000	18.902580
2254.000000	18.835122
2253.000000	18.957660
2252.000000	19.062885
2251.000000	19.133119
2250.000000	19.167405
2249.000000	19.411922
2248.000000	19.535938
2247.000000	19.514361
2246.000000	19.690689
2245.000000	19.807302
2244.000000	19.862610
2243.000000	19.977042
2242.000000	20.028505
2241.000000	19.989963
2240.000000	20.001258
2239.000000	20.058803
2238.000000	20.130695
2237.000000	20.228902
2236.000000	20.292563
2235.000000	20.302685
2234.000000	20.362684
2233.000000	20.349446
2232.000000	20.344459
2231.000000	20.303405
2230.000000	20.311171
2229.000000	20.374650
2228.000000	20.471039
2227.000000	20.426872
2226.000000	20.342725
2225.000000	20.341280
2224.000000	20.364146
2223.000000	20.272722
2222.000000	20.192807
2221.000000	20.268801
2220.000000	20.262954
2219.000000	20.180544
2218.000000	20.159823
2217.000000	20.101243
2216.000000	20.155751
2215.000000	20.131751
2214.000000	20.160128
2213.000000	20.231737
2212.000000	20.031360
2211.000000	20.020478
2210.000000	20.017101
2209.000000	19.900003
2208.000000	19.946844
2207.000000	19.882534
2206.000000	19.845264
2205.000000	19.883443
2204.000000	19.935989
2203.000000	19.854361
2202.000000	19.778425
2201.000000	19.704775
2200.000000	19.807233
2199.000000	19.634106
2198.000000	19.648409
2197.000000	19.661074
2196.000000	19.564507
2195.000000	19.364822
2194.000000	19.453516
2193.000000	19.533617
2192.000000	19.543657
2191.000000	19.386234
2190.000000	19.409642
2189.000000	19.438312
2188.000000	19.399029
2187.000000	19.270376
2186.000000	19.257549
2185.000000	19.188280
2184.000000	19.330508
2183.000000	19.310545
2182.000000	19.239507
2181.000000	19.268878
2180.000000	19.162745
2179.000000	19.120468
2178.000000	19.158525
2177.000000	19.195381
2176.000000	19.285134
2175.000000	19.411321
2174.000000	19.279248
2173.000000	19.227583
2172.000000	19.281140
2171.000000	19.285252
2170.000000	19.344215
2169.000000	19.344506
2168.000000	19.511255
2167.000000	19.426384
2166.000000	19.448889
2165.000000	19.451259
2164.000000	19.510654
2163.000000	19.539284
2162.000000	19.686668
2161.000000	19.702841
2160.000000	19.865248
2159.000000	19.808733
2158.000000	19.862696
2157.000000	19.779012
2156.000000	19.966733
2155.000000	20.089834
2154.000000	20.317988
2153.000000	20.269909
2152.000000	20.276602
2151.000000	20.295448
2150.000000	20.255791
2149.000000	20.268068
2148.000000	20.301712
2147.000000	20.477248
2146.000000	20.446880
2145.000000	20.506036
2144.000000	20.556975
2143.000000	20.641390
2142.000000	20.728614
2141.000000	20.753021
2140.000000	20.903623
2139.000000	20.827118
2138.000000	20.858715
2137.000000	20.780260
2136.000000	20.804560
2135.000000	20.971266
2134.000000	21.131677
2133.000000	21.015808
2132.000000	21.008994
2131.000000	21.163435
2130.000000	21.121860
2129.000000	21.052934
2128.000000	21.095231
2127.000000	20.972944
2126.000000	21.111934
2125.000000	21.176655
2124.000000	21.100046
2123.000000	21.100515
2122.000000	21.178603
2121.000000	21.202653
2120.000000	21.219575
2119.000000	21.234892
2118.000000	21.263920
2117.000000	21.114842
2116.000000	21.220477
2115.000000	21.354352
2114.000000	21.183474
2113.000000	21.095465
2112.000000	21.119875
2111.000000	21.185553
2110.000000	21.209342
2109.000000	21.262629
2108.000000	21.121721
2107.000000	21.192582
2106.000000	21.128103
2105.000000	21.132076
2104.000000	21.196746
2103.000000	21.212905
2102.000000	21.133889
2101.000000	21.252513
2100.000000	21.259900
2099.000000	21.156354
2098.000000	21.153677
2097.000000	21.182417
2096.000000	21.175463
2095.000000	21.193032
2094.000000	21.082307
2093.000000	21.114083
2092.000000	21.090817
2091.000000	21.059514
2090.000000	21.024954
2089.000000	21.024988
2088.000000	21.053414
2087.000000	20.992316
2086.000000	20.996331
2085.000000	20.922585
2084.000000	20.967990
2083.000000	20.856932
2082.000000	20.855566
2081.000000	20.876204
2080.000000	20.775921
2079.000000	20.769765
2078.000000	20.802551
2077.000000	20.746356
2076.000000	20.714004
2075.000000	20.608983
2074.000000	20.541984
2073.000000	20.510698
2072.000000	20.468608
2071.000000	20.384571
2070.000000	20.352931
2069.000000	20.268064
2068.000000	20.260854
2067.000000	20.139710
2066.000000	20.077441
2065.000000	19.985498
2064.000000	19.980511
2063.000000	19.907155
2062.000000	19.872391
2061.000000	19.783521
2060.000000	19.702528
2059.000000	19.613322
2058.000000	19.529107
2057.000000	19.447798
2056.000000	19.409877
2055.000000	19.411392
2054.000000	19.362221
2053.000000	19.280074
2052.000000	19.211841
2051.000000	19.110216
2050.000000	19.067099
2049.000000	19.059350
2048.000000	19.026335
2047.000000	19.020072
2046.000000	18.976079
2045.000000	18.983772
2044.000000	18.974574
2043.000000	18.946613
2042.000000	18.905625
2041.000000	18.917486
2040.000000	18.952249
2039.000000	18.994266
2038.000000	18.992642
2037.000000	18.983211
2036.000000	18.987247
2035.000000	18.966526
2034.000000	18.995722
2033.000000	19.024761
2032.000000	19.089238
2031.000000	19.190745
2030.000000	19.210667
2029.000000	19.245811
2028.000000	19.268665
2027.000000	19.312174
2026.000000	19.380737
2025.000000	19.394402
2024.000000	19.377856
2023.000000	19.381233
2022.000000	19.422334
2021.000000	19.401578
2020.000000	19.393368
2019.000000	19.388737
2018.000000	19.388015
2017.000000	19.408090
2016.000000	19.382475
2015.000000	19.385957
2014.000000	19.392716
2013.000000	19.358912
2012.000000	19.324029
2011.000000	19.328551
2010.000000	19.293222
2009.000000	19.255579
2008.000000	19.226066
2007.000000	19.157856
2006.000000	19.093504
2005.000000	19.074559
2004.000000	19.031913
2003.000000	18.990605
2002.000000	18.976124
2001.000000	18.901040
2000.000000	18.832498
1999.000000	18.779423
1998.000000	18.763307
1997.000000	18.706538
1996.000000	18.675513
1995.000000	18.654904
1994.000000	18.576044
1993.000000	18.523646
1992.000000	18.467491
1991.000000	18.384291
1990.000000	18.306621
1989.000000	18.272767
1988.000000	18.252566
1987.000000	18.224656
1986.000000	18.127752
1985.000000	18.090772
1984.000000	18.062460
1983.000000	17.957976
1982.000000	17.966657
1981.000000	17.919296
1980.000000	17.845110
1979.000000	17.807283
1978.000000	17.792867
1977.000000	17.721537
1976.000000	17.660038
1975.000000	17.595670
1974.000000	17.547811
1973.000000	17.502400
1972.000000	17.446272
1971.000000	17.378704
1970.000000	17.343683
1969.000000	17.348639
1968.000000	17.265119
1967.000000	17.237516
1966.000000	17.213590
1965.000000	17.137939
1964.000000	17.098764
1963.000000	17.033545
1962.000000	16.997672
1961.000000	16.954913
1960.000000	16.942364
1959.000000	16.889742
1958.000000	16.799675
1957.000000	16.810925
1956.000000	16.699112
1955.000000	16.699717
1954.000000	16.751083
1953.000000	16.748024
1952.000000	16.711525
1951.000000	16.657128
1950.000000	16.605417
1949.000000	16.582621
1948.000000	16.551281
1947.000000	16.563603
1946.000000	16.529510
1945.000000	16.578776
1944.000000	16.534141
1943.000000	16.547787
1942.000000	16.572760
1941.000000	16.599775
1940.000000	16.664009
1939.000000	16.665583
1938.000000	16.609412
1937.000000	16.694485
1936.000000	16.796755
1935.000000	16.819301
1934.000000	16.815107
1933.000000	16.876341
1932.000000	16.948726
1931.000000	16.965408
1930.000000	17.027264
1929.000000	17.084262
1928.000000	17.162513
1927.000000	17.307327
1926.000000	17.388384
1925.000000	17.425814
1924.000000	17.611663
1923.000000	17.626631
1922.000000	17.822501
1921.000000	17.894713
1920.000000	18.036988
1919.000000	18.097186
1918.000000	18.211736
1917.000000	18.400601
1916.000000	18.348468
1915.000000	18.623078
1914.000000	18.817220
1913.000000	18.902272
1912.000000	19.028834
1911.000000	19.238662
1910.000000	19.339765
1909.000000	19.493463
1908.000000	19.648639
1907.000000	19.757649
1906.000000	19.892977
1905.000000	20.069593
1904.000000	20.292428
1903.000000	20.424473
1902.000000	20.605763
1901.000000	20.781609
1900.000000	21.018739
1899.000000	21.199865
1898.000000	21.370683
1897.000000	21.484095
1896.000000	21.577804
1895.000000	21.848237
1894.000000	21.980465
1893.000000	22.143717
1892.000000	22.266943
1891.000000	22.354324
1890.000000	22.546792
1889.000000	22.673465
1888.000000	22.824909
1887.000000	22.975112
1886.000000	23.080951
1885.000000	23.214295
1884.000000	23.330455
1883.000000	23.442032
1882.000000	23.550086
1881.000000	23.666905
1880.000000	23.732333
1879.000000	23.827400
1878.000000	23.933718
1877.000000	24.018983
1876.000000	24.056173
1875.000000	24.137952
1874.000000	24.224050
1873.000000	24.297221
1872.000000	24.331139
1871.000000	24.384565
1870.000000	24.447646
1869.000000	24.494827
1868.000000	24.547382
1867.000000	24.524953
1866.000000	24.543300
1865.000000	24.573841
1864.000000	24.544044
1863.000000	24.537138
1862.000000	24.584015
1861.000000	24.566497
1860.000000	24.558522
1859.000000	24.610278
1858.000000	24.639216
1857.000000	24.642748
1856.000000	24.631988
1855.000000	24.616519
1854.000000	24.632762
1853.000000	24.647134
1852.000000	24.626297
1851.000000	24.614498
1850.000000	24.637340
1849.000000	24.638304
1848.000000	24.579974
1847.000000	24.561355
1846.000000	24.580514
1845.000000	24.603068
1844.000000	24.584994
1843.000000	24.567160
1842.000000	24.571740
1841.000000	24.571734
1840.000000	24.540038
1839.000000	24.508942
1838.000000	24.487483
1837.000000	24.464670
1836.000000	24.474783
1835.000000	24.448668
1834.000000	24.419087
1833.000000	24.387929
1832.000000	24.352599
1831.000000	24.334681
1830.000000	24.310183
1829.000000	24.281596
1828.000000	24.281674
1827.000000	24.249558
1826.000000	24.228636
1825.000000	24.213162
1824.000000	24.211741
1823.000000	24.200359
1822.000000	24.146266
1821.000000	24.132390
1820.000000	24.121660
1819.000000	24.096578
1818.000000	24.070579
1817.000000	24.045388
1816.000000	24.049209
1815.000000	24.049075
1814.000000	24.024677
1813.000000	24.004016
1812.000000	23.986297
1811.000000	23.974696
1810.000000	23.977238
1809.000000	23.995714
1808.000000	23.975335
1807.000000	23.922300
1806.000000	23.892869
1805.000000	23.885965
1804.000000	23.897283
1803.000000	23.876565
1802.000000	23.845844
1801.000000	23.849869
1800.000000	23.835657
1799.000000	23.821332
1798.000000	23.816612
1797.000000	23.814627
1796.000000	23.811741
1795.000000	23.808042
1794.000000	23.795113
1793.000000	23.786531
1792.000000	23.783729
1791.000000	23.778009
1790.000000	23.766083
1789.000000	23.752063
1788.000000	23.740482
1787.000000	23.722626
1786.000000	23.715337
1785.000000	23.709556
1784.000000	23.700931
1783.000000	23.706553
1782.000000	23.696731
1781.000000	23.686394
1780.000000	23.659863
1779.000000	23.642998
1778.000000	23.660584
1777.000000	23.641846
1776.000000	23.618323
1775.000000	23.592790
1774.000000	23.565557
1773.000000	23.542040
1772.000000	23.515411
1771.000000	23.489371
1770.000000	23.465586
1769.000000	23.438349
1768.000000	23.414853
1767.000000	23.392839
1766.000000	23.388796
1765.000000	23.361659
1764.000000	23.352736
1763.000000	23.315082
1762.000000	23.290741
1761.000000	23.263166
1760.000000	23.243185
1759.000000	23.233597
1758.000000	23.205856
1757.000000	23.180686
1756.000000	23.169214
1755.000000	23.150751
1754.000000	23.126582
1753.000000	23.117943
1752.000000	23.110613
1751.000000	23.108166
1750.000000	23.055781
1749.000000	23.044027
1748.000000	22.995688
1747.000000	22.986311
1746.000000	22.995553
1745.000000	22.934627
1744.000000	22.909497
1743.000000	22.882713
1742.000000	22.856713
1741.000000	22.836265
1740.000000	22.830404
1739.000000	22.796959
1738.000000	22.786995
1737.000000	22.775447
1736.000000	22.726547
1735.000000	22.749767
1734.000000	22.754915
1733.000000	22.736846
1732.000000	22.701309
1731.000000	22.698733
1730.000000	22.683647
1729.000000	22.678127
1728.000000	22.707807
1727.000000	22.716124
1726.000000	22.718480
1725.000000	22.750761
1724.000000	22.792678
1723.000000	22.813891
1722.000000	22.834112
1721.000000	22.850749
1720.000000	22.882926
1719.000000	22.939511
1718.000000	22.963529
1717.000000	22.948940
1716.000000	22.981605
1715.000000	23.015373
1714.000000	23.021994
1713.000000	23.032106
1712.000000	23.060571
1711.000000	23.078901
1710.000000	23.092083
1709.000000	23.114177
1708.000000	23.108906
1707.000000	23.138627
1706.000000	23.127013
1705.000000	23.139133
1704.000000	23.171782
1703.000000	23.175303
1702.000000	23.187920
1701.000000	23.191062
1700.000000	23.203826
1699.000000	23.187089
1698.000000	23.211625
1697.000000	23.226671
1696.000000	23.225666
1695.000000	23.213512
1694.000000	23.240082
1693.000000	23.274148
1692.000000	23.260993
1691.000000	23.288116
1690.000000	23.306168
1689.000000	23.328531
1688.000000	23.368549
1687.000000	23.377870
1686.000000	23.425983
1685.000000	23.457799
1684.000000	23.512837
1683.000000	23.531008
1682.000000	23.571964
1681.000000	23.607091
1680.000000	23.684941
1679.000000	23.713882
1678.000000	23.767074
1677.000000	23.748661
1676.000000	23.814214
1675.000000	23.867647
1674.000000	23.906314
1673.000000	23.930270
1672.000000	23.950767
1671.000000	24.007779
1670.000000	24.030158
1669.000000	24.033325
1668.000000	24.048341
1667.000000	24.101265
1666.000000	24.109629
1665.000000	24.105862
1664.000000	24.105658
1663.000000	24.117658
1662.000000	24.156327
1661.000000	24.169415
1660.000000	24.191848
1659.000000	24.226353
1658.000000	24.236709
1657.000000	24.253055
1656.000000	24.251013
1655.000000	24.250815
1654.000000	24.256069
1653.000000	24.243674
1652.000000	24.252656
1651.000000	24.263876
1650.000000	24.264240
1649.000000	24.264928
1648.000000	24.258177
1647.000000	24.228549
1646.000000	24.196909
1645.000000	24.207291
1644.000000	24.200788
1643.000000	24.185971
1642.000000	24.175546
1641.000000	24.170866
1640.000000	24.134477
1639.000000	24.137829
1638.000000	24.147214
1637.000000	24.138922
1636.000000	24.107487
1635.000000	24.125689
1634.000000	24.093976
1633.000000	24.051420
1632.000000	24.050574
1631.000000	24.047898
1630.000000	24.036514
1629.000000	24.004372
1628.000000	23.968001
1627.000000	23.960101
1626.000000	23.953783
1625.000000	23.949031
1624.000000	23.943641
1623.000000	23.916214
1622.000000	23.892789
1621.000000	23.899852
1620.000000	23.886339
1619.000000	23.862516
1618.000000	23.837732
1617.000000	23.824381
1616.000000	23.805716
1615.000000	23.785476
1614.000000	23.761942
1613.000000	23.743519
1612.000000	23.727004
1611.000000	23.708862
1610.000000	23.689738
1609.000000	23.682615
1608.000000	23.659672
1607.000000	23.632629
1606.000000	23.607888
1605.000000	23.601037
1604.000000	23.589454
1603.000000	23.563191
1602.000000	23.533057
1601.000000	23.521775
1600.000000	23.518668
1599.000000	23.497019
1598.000000	23.472434
1597.000000	23.461666
1596.000000	23.441030
1595.000000	23.408686
1594.000000	23.387614
1593.000000	23.388362
1592.000000	23.372855
1591.000000	23.347668
1590.000000	23.334484
1589.000000	23.300984
1588.000000	23.291403
1587.000000	23.284049
1586.000000	23.257425
1585.000000	23.250829
1584.000000	23.235382
1583.000000	23.208940
1582.000000	23.208616
1581.000000	23.204586
1580.000000	23.172738
1579.000000	23.167338
1578.000000	23.160577
1577.000000	23.154287
1576.000000	23.138002
1575.000000	23.108718
1574.000000	23.080821
1573.000000	23.069837
1572.000000	23.059335
1571.000000	23.043090
1570.000000	23.025376
1569.000000	23.001944
1568.000000	22.989046
1567.000000	22.990477
1566.000000	22.989525
1565.000000	22.985335
1564.000000	22.970765
1563.000000	22.957827
1562.000000	22.940684
1561.000000	22.911451
1560.000000	22.902552
1559.000000	22.895047
1558.000000	22.873982
1557.000000	22.879550
1556.000000	22.854431
1555.000000	22.836071
1554.000000	22.840448
1553.000000	22.820967
1552.000000	22.810903
1551.000000	22.797104
1550.000000	22.781074
1549.000000	22.782579
1548.000000	22.748637
1547.000000	22.715036
1546.000000	22.701696
1545.000000	22.681608
1544.000000	22.652890
1543.000000	22.624796
1542.000000	22.601819
1541.000000	22.564037
1540.000000	22.545514
1539.000000	22.517542
1538.000000	22.479609
1537.000000	22.451377
1536.000000	22.432545
1535.000000	22.412197
1534.000000	22.376479
1533.000000	22.348895
1532.000000	22.315685
1531.000000	22.289835
1530.000000	22.264634
1529.000000	22.245466
1528.000000	22.212800
1527.000000	22.186374
1526.000000	22.162279
1525.000000	22.166559
1524.000000	22.133714
1523.000000	22.123069
1522.000000	22.091377
1521.000000	22.065128
1520.000000	22.038874
1519.000000	22.026438
1518.000000	22.014029
1517.000000	21.998517
1516.000000	21.975849
1515.000000	21.968349
1514.000000	21.944343
1513.000000	21.947875
1512.000000	21.924696
1511.000000	21.913405
1510.000000	21.906844
1509.000000	21.894317
1508.000000	21.889650
1507.000000	21.866240
1506.000000	21.862862
1505.000000	21.857222
1504.000000	21.842621
1503.000000	21.838334
1502.000000	21.853100
1501.000000	21.821121
1500.000000	21.804896
1499.000000	21.825944
1498.000000	21.826863
1497.000000	21.825579
1496.000000	21.825033
1495.000000	21.840027
1494.000000	21.812003
1493.000000	21.824017
1492.000000	21.831528
1491.000000	21.843502
1490.000000	21.844771
1489.000000	21.850411
1488.000000	21.860893
1487.000000	21.869297
1486.000000	21.859182
1485.000000	21.868758
1484.000000	21.875371
1483.000000	21.898104
1482.000000	21.874108
1481.000000	21.913844
1480.000000	21.921027
1479.000000	21.926088
1478.000000	21.935916
1477.000000	21.946438
1476.000000	21.941050
1475.000000	21.964154
1474.000000	21.966063
1473.000000	21.967102
1472.000000	21.976609
1471.000000	21.952762
1470.000000	21.969615
