PE UV       SUBTECH     SPECTRUM    ASCII       PEDS        4.00        
   -1
TDmsfkat92.Sample.asc
18/03/20
13:59:33.00
18/03/20
13:59:33.00
Administrator

200.000000
1
Lambda 750
750N8071901
PerkinElmer UV WinLab 6.0.4.0738 / 1.61.00 Lambda 900

0
0
3350/servo 860.8/2
0
0
UV/VIS
1
1
1
CommonBeamDepol,150mm sphere / downward view
0
0
0
0
Program
Program
3350/servo 860.8/2
3350/0.2 860.8/0.2
3350/0.2 860.8/0.2
0
1
 
 
 
0
 
860.8
319.2
860.8
Front
100
on
 
 
0
0
0
 
0
 
 
 
0
 
 
0
0
0
0
0
 
 
 
 
0
0


0
0
#HDR
-1
-1
#GR
nm
%T
1.0
0.0
2350.000000
-1.000000
2151
8
13.790324
0.025343
#DATA
2350.000000	5.105518
2349.000000	5.457359
2348.000000	5.178213
2347.000000	6.003024
2346.000000	5.583675
2345.000000	5.473479
2344.000000	5.298234
2343.000000	5.539464
2342.000000	5.507011
2341.000000	5.427235
2340.000000	5.450017
2339.000000	5.774827
2338.000000	6.008138
2337.000000	5.525585
2336.000000	5.867768
2335.000000	6.396030
2334.000000	6.041519
2333.000000	6.399854
2332.000000	6.427908
2331.000000	6.199939
2330.000000	6.164390
2329.000000	6.412242
2328.000000	6.155022
2327.000000	6.038192
2326.000000	6.137805
2325.000000	6.187643
2324.000000	6.199616
2323.000000	5.873591
2322.000000	5.656915
2321.000000	5.700825
2320.000000	6.013226
2319.000000	6.043210
2318.000000	5.929293
2317.000000	5.771346
2316.000000	5.642171
2315.000000	5.688621
2314.000000	5.634924
2313.000000	5.710498
2312.000000	5.576489
2311.000000	5.797263
2310.000000	5.871842
2309.000000	5.575617
2308.000000	5.379753
2307.000000	5.782785
2306.000000	5.657870
2305.000000	5.655296
2304.000000	5.650257
2303.000000	5.584110
2302.000000	5.663659
2301.000000	5.547365
2300.000000	5.235046
2299.000000	5.351447
2298.000000	5.378484
2297.000000	5.066954
2296.000000	5.291522
2295.000000	5.276997
2294.000000	5.266564
2293.000000	5.240295
2292.000000	5.285767
2291.000000	5.394035
2290.000000	5.203133
2289.000000	5.196991
2288.000000	5.166324
2287.000000	5.164972
2286.000000	5.153903
2285.000000	5.062223
2284.000000	4.978365
2283.000000	4.921270
2282.000000	4.880429
2281.000000	4.872067
2280.000000	5.103131
2279.000000	5.060071
2278.000000	4.795315
2277.000000	4.695245
2276.000000	4.984274
2275.000000	5.165215
2274.000000	5.141994
2273.000000	5.128127
2272.000000	5.114535
2271.000000	5.208312
2270.000000	5.242886
2269.000000	5.267448
2268.000000	5.314693
2267.000000	5.243550
2266.000000	5.178239
2265.000000	5.242085
2264.000000	5.475655
2263.000000	5.462114
2262.000000	5.375833
2261.000000	5.403916
2260.000000	5.466957
2259.000000	5.639531
2258.000000	5.819477
2257.000000	5.816062
2256.000000	5.745234
2255.000000	5.737740
2254.000000	5.855002
2253.000000	5.949201
2252.000000	6.053151
2251.000000	6.025361
2250.000000	6.024189
2249.000000	6.161946
2248.000000	6.282281
2247.000000	6.306825
2246.000000	6.345520
2245.000000	6.379538
2244.000000	6.297293
2243.000000	6.325901
2242.000000	6.413622
2241.000000	6.569068
2240.000000	6.714091
2239.000000	6.784103
2238.000000	6.811595
2237.000000	6.696834
2236.000000	6.636086
2235.000000	6.736915
2234.000000	6.844583
2233.000000	6.846231
2232.000000	6.820291
2231.000000	6.926820
2230.000000	7.027248
2229.000000	7.032191
2228.000000	7.112802
2227.000000	6.988399
2226.000000	6.787356
2225.000000	6.771330
2224.000000	6.799814
2223.000000	6.762506
2222.000000	6.861926
2221.000000	6.965300
2220.000000	6.958619
2219.000000	6.921419
2218.000000	6.811570
2217.000000	6.860170
2216.000000	6.850453
2215.000000	6.802047
2214.000000	6.822941
2213.000000	6.800700
2212.000000	6.821865
2211.000000	6.842453
2210.000000	6.878026
2209.000000	6.841661
2208.000000	6.614687
2207.000000	6.567132
2206.000000	6.546195
2205.000000	6.508024
2204.000000	6.559002
2203.000000	6.533371
2202.000000	6.516331
2201.000000	6.411432
2200.000000	6.436609
2199.000000	6.381957
2198.000000	6.378709
2197.000000	6.449178
2196.000000	6.308712
2195.000000	6.234397
2194.000000	6.283671
2193.000000	6.171415
2192.000000	6.292949
2191.000000	6.204409
2190.000000	6.125115
2189.000000	6.096927
2188.000000	6.015785
2187.000000	6.131497
2186.000000	6.095951
2185.000000	6.172451
2184.000000	6.233332
2183.000000	6.068901
2182.000000	6.071785
2181.000000	6.060857
2180.000000	6.015783
2179.000000	5.954977
2178.000000	5.920351
2177.000000	5.973246
2176.000000	6.072937
2175.000000	6.159014
2174.000000	6.025055
2173.000000	5.966759
2172.000000	6.069676
2171.000000	6.032244
2170.000000	6.055056
2169.000000	6.171823
2168.000000	6.070114
2167.000000	6.135110
2166.000000	6.262336
2165.000000	6.300745
2164.000000	6.338303
2163.000000	6.203885
2162.000000	6.285041
2161.000000	6.392636
2160.000000	6.276384
2159.000000	6.409932
2158.000000	6.345168
2157.000000	6.584224
2156.000000	6.705615
2155.000000	6.614156
2154.000000	6.615968
2153.000000	6.867415
2152.000000	6.734551
2151.000000	6.574212
2150.000000	6.720569
2149.000000	6.878199
2148.000000	6.983711
2147.000000	6.926250
2146.000000	6.935224
2145.000000	7.046294
2144.000000	6.971216
2143.000000	7.109363
2142.000000	7.126969
2141.000000	7.071009
2140.000000	7.370668
2139.000000	7.403260
2138.000000	7.366794
2137.000000	7.287830
2136.000000	7.252831
2135.000000	7.405856
2134.000000	7.314051
2133.000000	7.264450
2132.000000	7.555504
2131.000000	7.460515
2130.000000	7.439209
2129.000000	7.449169
2128.000000	7.487088
2127.000000	7.395097
2126.000000	7.476019
2125.000000	7.563026
2124.000000	7.591415
2123.000000	7.593473
2122.000000	7.665018
2121.000000	7.430694
2120.000000	7.378894
2119.000000	7.684969
2118.000000	7.687848
2117.000000	7.722866
2116.000000	7.590368
2115.000000	7.782138
2114.000000	7.675904
2113.000000	7.475834
2112.000000	7.508685
2111.000000	7.652084
2110.000000	7.626165
2109.000000	7.560143
2108.000000	7.554163
2107.000000	7.728537
2106.000000	7.651242
2105.000000	7.633284
2104.000000	7.843474
2103.000000	7.760858
2102.000000	7.782004
2101.000000	7.653820
2100.000000	7.780740
2099.000000	7.776374
2098.000000	7.677219
2097.000000	7.554415
2096.000000	7.578110
2095.000000	7.740228
2094.000000	7.714441
2093.000000	7.636800
2092.000000	7.702458
2091.000000	7.671715
2090.000000	7.673960
2089.000000	7.603562
2088.000000	7.613379
2087.000000	7.588997
2086.000000	7.613004
2085.000000	7.657940
2084.000000	7.533998
2083.000000	7.527614
2082.000000	7.592568
2081.000000	7.579445
2080.000000	7.491798
2079.000000	7.441860
2078.000000	7.372272
2077.000000	7.377350
2076.000000	7.409980
2075.000000	7.352864
2074.000000	7.363480
2073.000000	7.282501
2072.000000	7.225745
2071.000000	7.188189
2070.000000	7.147623
2069.000000	7.029625
2068.000000	7.007691
2067.000000	6.967080
2066.000000	6.967217
2065.000000	6.879297
2064.000000	6.853882
2063.000000	6.690520
2062.000000	6.675121
2061.000000	6.626131
2060.000000	6.578653
2059.000000	6.560217
2058.000000	6.508385
2057.000000	6.470435
2056.000000	6.468980
2055.000000	6.425768
2054.000000	6.329988
2053.000000	6.254634
2052.000000	6.248145
2051.000000	6.186102
2050.000000	6.190867
2049.000000	6.131333
2048.000000	6.075044
2047.000000	6.063324
2046.000000	6.070712
2045.000000	6.036667
2044.000000	6.010992
2043.000000	6.010117
2042.000000	5.969611
2041.000000	5.989775
2040.000000	6.012172
2039.000000	6.012908
2038.000000	6.039808
2037.000000	6.080067
2036.000000	6.086501
2035.000000	6.076149
2034.000000	6.156367
2033.000000	6.235323
2032.000000	6.218530
2031.000000	6.258875
2030.000000	6.321619
2029.000000	6.365506
2028.000000	6.423598
2027.000000	6.449702
2026.000000	6.455207
2025.000000	6.489285
2024.000000	6.490969
2023.000000	6.484089
2022.000000	6.505945
2021.000000	6.513046
2020.000000	6.548894
2019.000000	6.588203
2018.000000	6.564767
2017.000000	6.547305
2016.000000	6.586101
2015.000000	6.593571
2014.000000	6.566275
2013.000000	6.555735
2012.000000	6.527941
2011.000000	6.535992
2010.000000	6.514878
2009.000000	6.474830
2008.000000	6.453887
2007.000000	6.434272
2006.000000	6.416482
2005.000000	6.409048
2004.000000	6.379828
2003.000000	6.319741
2002.000000	6.264222
2001.000000	6.264188
2000.000000	6.254882
1999.000000	6.208335
1998.000000	6.178285
1997.000000	6.182490
1996.000000	6.156935
1995.000000	6.082785
1994.000000	6.068155
1993.000000	6.022236
1992.000000	5.965890
1991.000000	5.935923
1990.000000	5.890924
1989.000000	5.837906
1988.000000	5.788227
1987.000000	5.805891
1986.000000	5.783233
1985.000000	5.738685
1984.000000	5.692669
1983.000000	5.675744
1982.000000	5.648694
1981.000000	5.647788
1980.000000	5.599612
1979.000000	5.548067
1978.000000	5.564009
1977.000000	5.502287
1976.000000	5.485698
1975.000000	5.445279
1974.000000	5.439481
1973.000000	5.377265
1972.000000	5.357216
1971.000000	5.324039
1970.000000	5.310926
1969.000000	5.287488
1968.000000	5.261350
1967.000000	5.273989
1966.000000	5.261124
1965.000000	5.209163
1964.000000	5.185273
1963.000000	5.155625
1962.000000	5.078243
1961.000000	5.077822
1960.000000	5.050327
1959.000000	5.097006
1958.000000	5.041234
1957.000000	5.006480
1956.000000	4.974701
1955.000000	4.960319
1954.000000	4.935049
1953.000000	4.974444
1952.000000	4.918101
1951.000000	4.900776
1950.000000	4.912250
1949.000000	4.935312
1948.000000	4.923518
1947.000000	4.872330
1946.000000	4.885926
1945.000000	4.882047
1944.000000	4.886184
1943.000000	4.913219
1942.000000	4.886307
1941.000000	4.934178
1940.000000	4.998715
1939.000000	5.018607
1938.000000	4.971366
1937.000000	5.033128
1936.000000	5.115191
1935.000000	5.119818
1934.000000	5.114453
1933.000000	5.139879
1932.000000	5.116047
1931.000000	5.191539
1930.000000	5.181734
1929.000000	5.279172
1928.000000	5.383571
1927.000000	5.338153
1926.000000	5.456379
1925.000000	5.536825
1924.000000	5.649387
1923.000000	5.649570
1922.000000	5.774203
1921.000000	5.880885
1920.000000	6.002488
1919.000000	5.957369
1918.000000	6.047664
1917.000000	6.313016
1916.000000	6.203869
1915.000000	6.383391
1914.000000	6.580542
1913.000000	6.700015
1912.000000	6.752291
1911.000000	6.878320
1910.000000	6.956330
1909.000000	7.115997
1908.000000	7.202822
1907.000000	7.373615
1906.000000	7.494935
1905.000000	7.640133
1904.000000	7.838634
1903.000000	7.927912
1902.000000	8.170768
1901.000000	8.310695
1900.000000	8.445796
1899.000000	8.623729
1898.000000	8.856062
1897.000000	8.968237
1896.000000	9.101045
1895.000000	9.287280
1894.000000	9.462207
1893.000000	9.604603
1892.000000	9.755431
1891.000000	9.932840
1890.000000	10.120175
1889.000000	10.259759
1888.000000	10.382666
1887.000000	10.570695
1886.000000	10.717544
1885.000000	10.807627
1884.000000	10.991220
1883.000000	11.126319
1882.000000	11.224837
1881.000000	11.384760
1880.000000	11.461473
1879.000000	11.536382
1878.000000	11.657630
1877.000000	11.775353
1876.000000	11.820696
1875.000000	11.987190
1874.000000	12.046017
1873.000000	12.109877
1872.000000	12.144532
1871.000000	12.170745
1870.000000	12.233505
1869.000000	12.298400
1868.000000	12.344549
1867.000000	12.358059
1866.000000	12.361986
1865.000000	12.412512
1864.000000	12.485629
1863.000000	12.485441
1862.000000	12.485081
1861.000000	12.486838
1860.000000	12.512731
1859.000000	12.519499
1858.000000	12.552015
1857.000000	12.550261
1856.000000	12.544324
1855.000000	12.594482
1854.000000	12.570892
1853.000000	12.605120
1852.000000	12.602204
1851.000000	12.591597
1850.000000	12.552466
1849.000000	12.561060
1848.000000	12.594285
1847.000000	12.589638
1846.000000	12.561004
1845.000000	12.574946
1844.000000	12.564029
1843.000000	12.543548
1842.000000	12.525606
1841.000000	12.542076
1840.000000	12.533629
1839.000000	12.495904
1838.000000	12.484744
1837.000000	12.438067
1836.000000	12.436063
1835.000000	12.422674
1834.000000	12.391518
1833.000000	12.383610
1832.000000	12.361199
1831.000000	12.326146
1830.000000	12.309298
1829.000000	12.289920
1828.000000	12.279660
1827.000000	12.253858
1826.000000	12.243145
1825.000000	12.212325
1824.000000	12.193864
1823.000000	12.172131
1822.000000	12.147274
1821.000000	12.148374
1820.000000	12.131481
1819.000000	12.086629
1818.000000	12.070027
1817.000000	12.055410
1816.000000	12.041880
1815.000000	12.058632
1814.000000	12.034948
1813.000000	11.985952
1812.000000	11.961899
1811.000000	11.958233
1810.000000	11.948828
1809.000000	11.959533
1808.000000	11.961747
1807.000000	11.928114
1806.000000	11.899310
1805.000000	11.889548
1804.000000	11.879030
1803.000000	11.856684
1802.000000	11.845043
1801.000000	11.847246
1800.000000	11.830634
1799.000000	11.818652
1798.000000	11.821932
1797.000000	11.814835
1796.000000	11.796620
1795.000000	11.775394
1794.000000	11.784326
1793.000000	11.787097
1792.000000	11.775511
1791.000000	11.774278
1790.000000	11.757288
1789.000000	11.738573
1788.000000	11.743602
1787.000000	11.755982
1786.000000	11.742541
1785.000000	11.745063
1784.000000	11.744742
1783.000000	11.738173
1782.000000	11.725351
1781.000000	11.712915
1780.000000	11.711711
1779.000000	11.675060
1778.000000	11.648652
1777.000000	11.647623
1776.000000	11.621585
1775.000000	11.598278
1774.000000	11.582024
1773.000000	11.550998
1772.000000	11.523919
1771.000000	11.497282
1770.000000	11.479511
1769.000000	11.452314
1768.000000	11.454163
1767.000000	11.416701
1766.000000	11.385432
1765.000000	11.346394
1764.000000	11.352020
1763.000000	11.336524
1762.000000	11.300599
1761.000000	11.265623
1760.000000	11.241786
1759.000000	11.227507
1758.000000	11.208004
1757.000000	11.158927
1756.000000	11.172037
1755.000000	11.148481
1754.000000	11.132761
1753.000000	11.117687
1752.000000	11.095779
1751.000000	11.094592
1750.000000	11.062890
1749.000000	11.032022
1748.000000	10.968546
1747.000000	10.968793
1746.000000	10.979292
1745.000000	10.923909
1744.000000	10.896325
1743.000000	10.885447
1742.000000	10.853776
1741.000000	10.822562
1740.000000	10.816810
1739.000000	10.803515
1738.000000	10.779606
1737.000000	10.772271
1736.000000	10.762516
1735.000000	10.747506
1734.000000	10.770044
1733.000000	10.777712
1732.000000	10.756575
1731.000000	10.741060
1730.000000	10.742927
1729.000000	10.734321
1728.000000	10.736547
1727.000000	10.757889
1726.000000	10.765639
1725.000000	10.818529
1724.000000	10.835955
1723.000000	10.846835
1722.000000	10.908601
1721.000000	10.935975
1720.000000	10.938820
1719.000000	11.008932
1718.000000	10.997643
1717.000000	11.039293
1716.000000	11.062036
1715.000000	11.080357
1714.000000	11.104243
1713.000000	11.128481
1712.000000	11.172288
1711.000000	11.188372
1710.000000	11.235687
1709.000000	11.256748
1708.000000	11.232502
1707.000000	11.235744
1706.000000	11.250020
1705.000000	11.264716
1704.000000	11.262554
1703.000000	11.271628
1702.000000	11.271880
1701.000000	11.270196
1700.000000	11.289818
1699.000000	11.263032
1698.000000	11.295323
1697.000000	11.285086
1696.000000	11.324212
1695.000000	11.307526
1694.000000	11.316161
1693.000000	11.325150
1692.000000	11.306404
1691.000000	11.346988
1690.000000	11.401186
1689.000000	11.416548
1688.000000	11.459799
1687.000000	11.495597
1686.000000	11.533830
1685.000000	11.579492
1684.000000	11.644606
1683.000000	11.695723
1682.000000	11.769819
1681.000000	11.768431
1680.000000	11.842623
1679.000000	11.882762
1678.000000	11.940415
1677.000000	11.963795
1676.000000	12.056779
1675.000000	12.134118
1674.000000	12.168408
1673.000000	12.211333
1672.000000	12.278766
1671.000000	12.323236
1670.000000	12.385745
1669.000000	12.395428
1668.000000	12.442931
1667.000000	12.502032
1666.000000	12.501067
1665.000000	12.535507
1664.000000	12.554063
1663.000000	12.554050
1662.000000	12.602091
1661.000000	12.640733
1660.000000	12.661371
1659.000000	12.694136
1658.000000	12.711469
1657.000000	12.716372
1656.000000	12.743347
1655.000000	12.729713
1654.000000	12.750123
1653.000000	12.748879
1652.000000	12.748886
1651.000000	12.770215
1650.000000	12.767423
1649.000000	12.759391
1648.000000	12.749200
1647.000000	12.730876
1646.000000	12.706925
1645.000000	12.710362
1644.000000	12.696374
1643.000000	12.682896
1642.000000	12.702729
1641.000000	12.679242
1640.000000	12.675166
1639.000000	12.657391
1638.000000	12.640675
1637.000000	12.634930
1636.000000	12.600505
1635.000000	12.586547
1634.000000	12.570615
1633.000000	12.548280
1632.000000	12.516750
1631.000000	12.499771
1630.000000	12.492153
1629.000000	12.483176
1628.000000	12.473283
1627.000000	12.448317
1626.000000	12.428332
1625.000000	12.403893
1624.000000	12.401038
1623.000000	12.367345
1622.000000	12.348213
1621.000000	12.337380
1620.000000	12.307592
1619.000000	12.290552
1618.000000	12.269657
1617.000000	12.235114
1616.000000	12.229793
1615.000000	12.219449
1614.000000	12.192746
1613.000000	12.153195
1612.000000	12.139438
1611.000000	12.121932
1610.000000	12.090873
1609.000000	12.070568
1608.000000	12.046241
1607.000000	12.022421
1606.000000	11.999817
1605.000000	11.971564
1604.000000	11.948932
1603.000000	11.929246
1602.000000	11.900727
1601.000000	11.876293
1600.000000	11.847609
1599.000000	11.833991
1598.000000	11.821092
1597.000000	11.795899
1596.000000	11.776029
1595.000000	11.763260
1594.000000	11.737943
1593.000000	11.717492
1592.000000	11.696737
1591.000000	11.681147
1590.000000	11.648401
1589.000000	11.618853
1588.000000	11.611422
1587.000000	11.596414
1586.000000	11.572434
1585.000000	11.563242
1584.000000	11.545053
1583.000000	11.523454
1582.000000	11.511623
1581.000000	11.498897
1580.000000	11.473327
1579.000000	11.454429
1578.000000	11.455499
1577.000000	11.444786
1576.000000	11.422071
1575.000000	11.404424
1574.000000	11.372225
1573.000000	11.355666
1572.000000	11.339060
1571.000000	11.318340
1570.000000	11.308040
1569.000000	11.296164
1568.000000	11.278952
1567.000000	11.251582
1566.000000	11.225900
1565.000000	11.235021
1564.000000	11.237722
1563.000000	11.226203
1562.000000	11.189019
1561.000000	11.175790
1560.000000	11.183208
1559.000000	11.157016
1558.000000	11.133361
1557.000000	11.114372
1556.000000	11.101161
1555.000000	11.111213
1554.000000	11.089681
1553.000000	11.058053
1552.000000	11.047278
1551.000000	11.030523
1550.000000	11.013985
1549.000000	11.016846
1548.000000	10.995787
1547.000000	10.977431
1546.000000	10.952061
1545.000000	10.922685
1544.000000	10.883119
1543.000000	10.859934
1542.000000	10.836850
1541.000000	10.794847
1540.000000	10.771944
1539.000000	10.740681
1538.000000	10.699827
1537.000000	10.656288
1536.000000	10.626408
1535.000000	10.585342
1534.000000	10.557142
1533.000000	10.522073
1532.000000	10.493185
1531.000000	10.466291
1530.000000	10.423692
1529.000000	10.399382
1528.000000	10.373956
1527.000000	10.353831
1526.000000	10.309571
1525.000000	10.298205
1524.000000	10.266780
1523.000000	10.257863
1522.000000	10.227093
1521.000000	10.208253
1520.000000	10.194064
1519.000000	10.182156
1518.000000	10.172719
1517.000000	10.149983
1516.000000	10.130054
1515.000000	10.135316
1514.000000	10.107063
1513.000000	10.104499
1512.000000	10.081905
1511.000000	10.068522
1510.000000	10.053729
1509.000000	10.047881
1508.000000	10.043916
1507.000000	10.055476
1506.000000	10.042823
1505.000000	10.042203
1504.000000	10.027698
1503.000000	10.028858
1502.000000	10.024613
1501.000000	10.020473
1500.000000	10.024831
1499.000000	10.025992
1498.000000	10.009549
1497.000000	9.999320
1496.000000	10.020973
1495.000000	10.017056
1494.000000	10.031251
1493.000000	10.020973
1492.000000	10.039241
1491.000000	10.073641
1490.000000	10.102927
1489.000000	10.097492
1488.000000	10.109736
1487.000000	10.112256
1486.000000	10.111684
1485.000000	10.134870
1484.000000	10.148766
1483.000000	10.163862
1482.000000	10.171796
1481.000000	10.192712
1480.000000	10.199101
1479.000000	10.224513
1478.000000	10.228842
1477.000000	10.242856
1476.000000	10.257004
1475.000000	10.288114
1474.000000	10.280924
1473.000000	10.293141
1472.000000	10.317027
1471.000000	10.303914
1470.000000	10.319562
1469.000000	10.334911
1468.000000	10.365646
1467.000000	10.397726
1466.000000	10.402480
1465.000000	10.426776
1464.000000	10.445052
1463.000000	10.453118
1462.000000	10.450341
1461.000000	10.444258
1460.000000	10.489180
1459.000000	10.504854
1458.000000	10.489995
1457.000000	10.501868
1456.000000	10.543876
1455.000000	10.554887
1454.000000	10.563508
1453.000000	10.567525
1452.000000	10.587327
1451.000000	10.605974
1450.000000	10.639849
1449.000000	10.638544
