PE UV       SUBTECH     SPECTRUM    ASCII       PEDS        4.00        
   -1
TTmsfkat92.Sample.asc
18/03/20
14:09:17.00
18/03/20
14:09:17.00
Administrator

200.000000
1
Lambda 750
750N8071901
PerkinElmer UV WinLab 6.0.4.0738 / 1.61.00 Lambda 900

0
0
3350/servo 860.8/2
0
0
UV/VIS
1
1
1
CommonBeamDepol,150mm sphere / downward view
0
0
0
0
Program
Program
3350/servo 860.8/2
3350/0.2 860.8/0.2
3350/0.2 860.8/0.2
0
1
 
 
 
0
 
860.8
319.2
860.8
Front
100
on
 
 
0
0
0
 
0
 
 
 
0
 
 
0
0
0
0
0
 
 
 
 
0
0


0
0
#HDR
-1
-1
#GR
nm
%T
1.0
0.0
2350.000000
-1.000000
2151
8
13.799015
0.014705
#DATA
2350.000000	5.543570
2349.000000	5.829381
2348.000000	5.417832
2347.000000	6.203933
2346.000000	5.960736
2345.000000	5.511810
2344.000000	5.215131
2343.000000	5.532779
2342.000000	5.536940
2341.000000	5.649346
2340.000000	5.406941
2339.000000	6.075135
2338.000000	5.922880
2337.000000	5.737865
2336.000000	6.167234
2335.000000	5.987736
2334.000000	6.310101
2333.000000	6.094153
2332.000000	6.170569
2331.000000	6.054161
2330.000000	6.089758
2329.000000	6.111040
2328.000000	5.780832
2327.000000	5.834574
2326.000000	5.979629
2325.000000	6.212588
2324.000000	6.243681
2323.000000	5.952224
2322.000000	5.918147
2321.000000	6.072986
2320.000000	6.037132
2319.000000	6.037034
2318.000000	5.965864
2317.000000	6.038415
2316.000000	5.766159
2315.000000	5.976573
2314.000000	5.851231
2313.000000	5.947319
2312.000000	5.899651
2311.000000	5.935902
2310.000000	5.768503
2309.000000	5.599719
2308.000000	5.578151
2307.000000	5.618860
2306.000000	5.436092
2305.000000	5.566905
2304.000000	5.312614
2303.000000	5.399676
2302.000000	5.400209
2301.000000	5.284431
2300.000000	5.216897
2299.000000	5.131580
2298.000000	5.094712
2297.000000	5.183602
2296.000000	5.247433
2295.000000	5.222643
2294.000000	5.148674
2293.000000	5.296784
2292.000000	5.168398
2291.000000	5.041243
2290.000000	5.025853
2289.000000	5.180810
2288.000000	5.309137
2287.000000	5.077590
2286.000000	5.072555
2285.000000	5.122216
2284.000000	5.085325
2283.000000	4.961572
2282.000000	4.993968
2281.000000	5.033969
2280.000000	5.000152
2279.000000	5.068392
2278.000000	5.211664
2277.000000	5.218897
2276.000000	5.148064
2275.000000	5.110646
2274.000000	5.043843
2273.000000	5.137964
2272.000000	5.142307
2271.000000	5.172243
2270.000000	5.030360
2269.000000	5.050663
2268.000000	5.136588
2267.000000	5.164601
2266.000000	5.294912
2265.000000	5.357929
2264.000000	5.416439
2263.000000	5.348045
2262.000000	5.331889
2261.000000	5.457920
2260.000000	5.464930
2259.000000	5.544399
2258.000000	5.674951
2257.000000	5.645401
2256.000000	5.672162
2255.000000	5.779632
2254.000000	5.853786
2253.000000	5.856113
2252.000000	5.887073
2251.000000	5.984195
2250.000000	6.181680
2249.000000	6.189038
2248.000000	6.181781
2247.000000	6.279890
2246.000000	6.309366
2245.000000	6.440097
2244.000000	6.655059
2243.000000	6.661752
2242.000000	6.647988
2241.000000	6.728139
2240.000000	6.790078
2239.000000	6.906778
2238.000000	6.829936
2237.000000	6.729482
2236.000000	6.814097
2235.000000	6.841121
2234.000000	6.942696
2233.000000	6.912660
2232.000000	6.862439
2231.000000	6.938173
2230.000000	6.991351
2229.000000	6.985583
2228.000000	6.967616
2227.000000	6.872552
2226.000000	6.904637
2225.000000	6.898752
2224.000000	6.913819
2223.000000	6.917756
2222.000000	6.851288
2221.000000	6.863233
2220.000000	6.981038
2219.000000	6.974502
2218.000000	6.932740
2217.000000	6.852167
2216.000000	6.875983
2215.000000	6.913140
2214.000000	6.935001
2213.000000	6.874783
2212.000000	6.742453
2211.000000	6.667146
2210.000000	6.753921
2209.000000	6.829607
2208.000000	6.834852
2207.000000	6.650906
2206.000000	6.655721
2205.000000	6.597816
2204.000000	6.502092
2203.000000	6.508240
2202.000000	6.585687
2201.000000	6.514296
2200.000000	6.510704
2199.000000	6.491375
2198.000000	6.478736
2197.000000	6.439149
2196.000000	6.342720
2195.000000	6.297492
2194.000000	6.282760
2193.000000	6.209087
2192.000000	6.183177
2191.000000	6.267712
2190.000000	6.206999
2189.000000	6.259138
2188.000000	6.274480
2187.000000	6.211224
2186.000000	6.210110
2185.000000	6.089571
2184.000000	6.042976
2183.000000	6.021929
2182.000000	6.088677
2181.000000	5.983683
2180.000000	6.203030
2179.000000	6.082522
2178.000000	6.010018
2177.000000	5.960916
2176.000000	6.055443
2175.000000	6.212265
2174.000000	6.099906
2173.000000	6.000606
2172.000000	5.940957
2171.000000	6.137832
2170.000000	6.247074
2169.000000	6.224534
2168.000000	6.237723
2167.000000	6.317874
2166.000000	6.170666
2165.000000	6.294178
2164.000000	6.325684
2163.000000	6.334716
2162.000000	6.228642
2161.000000	6.322019
2160.000000	6.448612
2159.000000	6.566087
2158.000000	6.520025
2157.000000	6.578068
2156.000000	6.644059
2155.000000	6.504384
2154.000000	6.682114
2153.000000	6.904689
2152.000000	6.812646
2151.000000	6.786039
2150.000000	6.998572
2149.000000	6.941241
2148.000000	6.818860
2147.000000	6.900274
2146.000000	6.888091
2145.000000	7.055377
2144.000000	7.051127
2143.000000	7.089409
2142.000000	7.220154
2141.000000	7.205991
2140.000000	7.217098
2139.000000	7.309423
2138.000000	7.395268
2137.000000	7.367351
2136.000000	7.467372
2135.000000	7.219854
2134.000000	7.613677
2133.000000	7.349408
2132.000000	7.476526
2131.000000	7.727531
2130.000000	7.641096
2129.000000	7.671701
2128.000000	7.639352
2127.000000	7.609391
2126.000000	7.454136
2125.000000	7.472242
2124.000000	7.622093
2123.000000	7.543726
2122.000000	7.525617
2121.000000	7.549049
2120.000000	7.604659
2119.000000	7.828376
2118.000000	7.656286
2117.000000	7.639965
2116.000000	7.693932
2115.000000	7.652304
2114.000000	7.735937
2113.000000	7.567911
2112.000000	7.714603
2111.000000	7.628137
2110.000000	7.706154
2109.000000	7.723564
2108.000000	7.765318
2107.000000	7.770600
2106.000000	7.773294
2105.000000	7.643702
2104.000000	7.830234
2103.000000	7.796020
2102.000000	7.682946
2101.000000	7.807865
2100.000000	7.798050
2099.000000	7.849521
2098.000000	7.811664
2097.000000	7.879542
2096.000000	7.706289
2095.000000	7.639235
2094.000000	7.655437
2093.000000	7.649154
2092.000000	7.849811
2091.000000	7.839424
2090.000000	7.719257
2089.000000	7.751012
2088.000000	7.775385
2087.000000	7.727378
2086.000000	7.693257
2085.000000	7.710282
2084.000000	7.654683
2083.000000	7.581274
2082.000000	7.575356
2081.000000	7.544537
2080.000000	7.458688
2079.000000	7.468087
2078.000000	7.523937
2077.000000	7.491290
2076.000000	7.400361
2075.000000	7.342341
2074.000000	7.340614
2073.000000	7.336844
2072.000000	7.344006
2071.000000	7.296409
2070.000000	7.257376
2069.000000	7.210082
2068.000000	7.091177
2067.000000	6.981661
2066.000000	6.904050
2065.000000	6.895096
2064.000000	6.890044
2063.000000	6.844282
2062.000000	6.844719
2061.000000	6.756679
2060.000000	6.677223
2059.000000	6.605271
2058.000000	6.492178
2057.000000	6.534602
2056.000000	6.551043
2055.000000	6.455239
2054.000000	6.398850
2053.000000	6.362710
2052.000000	6.281987
2051.000000	6.233513
2050.000000	6.180835
2049.000000	6.199023
2048.000000	6.185593
2047.000000	6.142868
2046.000000	6.097565
2045.000000	6.045481
2044.000000	6.024970
2043.000000	6.030181
2042.000000	6.042903
2041.000000	6.035993
2040.000000	6.061537
2039.000000	6.093111
2038.000000	6.115052
2037.000000	6.111706
2036.000000	6.120484
2035.000000	6.174938
2034.000000	6.242464
2033.000000	6.258036
2032.000000	6.277857
2031.000000	6.270133
2030.000000	6.307827
2029.000000	6.342078
2028.000000	6.387692
2027.000000	6.444121
2026.000000	6.495283
2025.000000	6.543055
2024.000000	6.537632
2023.000000	6.580289
2022.000000	6.632499
2021.000000	6.616621
2020.000000	6.605219
2019.000000	6.621810
2018.000000	6.681274
2017.000000	6.709886
2016.000000	6.652190
2015.000000	6.597023
2014.000000	6.606480
2013.000000	6.595933
2012.000000	6.591493
2011.000000	6.597826
2010.000000	6.573795
2009.000000	6.542068
2008.000000	6.511273
2007.000000	6.474295
2006.000000	6.468090
2005.000000	6.472235
2004.000000	6.436914
2003.000000	6.409825
2002.000000	6.369462
2001.000000	6.306035
2000.000000	6.286370
1999.000000	6.283208
1998.000000	6.261682
1997.000000	6.205751
1996.000000	6.152972
1995.000000	6.136436
1994.000000	6.096816
1993.000000	6.048666
1992.000000	6.014366
1991.000000	6.010441
1990.000000	5.964741
1989.000000	5.885798
1988.000000	5.856526
1987.000000	5.820330
1986.000000	5.788012
1985.000000	5.759020
1984.000000	5.772454
1983.000000	5.725453
1982.000000	5.692103
1981.000000	5.728412
1980.000000	5.695486
1979.000000	5.617799
1978.000000	5.570519
1977.000000	5.524557
1976.000000	5.520065
1975.000000	5.481480
1974.000000	5.464188
1973.000000	5.430250
1972.000000	5.428825
1971.000000	5.410572
1970.000000	5.387694
1969.000000	5.383584
1968.000000	5.296519
1967.000000	5.297985
1966.000000	5.291231
1965.000000	5.211603
1964.000000	5.217801
1963.000000	5.177388
1962.000000	5.177687
1961.000000	5.140348
1960.000000	5.127316
1959.000000	5.048104
1958.000000	5.049668
1957.000000	5.040736
1956.000000	4.999797
1955.000000	5.022695
1954.000000	5.054536
1953.000000	5.029846
1952.000000	4.960369
1951.000000	4.991964
1950.000000	5.033835
1949.000000	4.969859
1948.000000	4.953089
1947.000000	4.933212
1946.000000	4.908684
1945.000000	4.939466
1944.000000	4.949093
1943.000000	5.007673
1942.000000	4.981161
1941.000000	4.971773
1940.000000	5.023095
1939.000000	5.025209
1938.000000	5.063312
1937.000000	5.073943
1936.000000	5.141188
1935.000000	5.144081
1934.000000	5.164317
1933.000000	5.235098
1932.000000	5.192894
1931.000000	5.255269
1930.000000	5.289685
1929.000000	5.355723
1928.000000	5.379712
1927.000000	5.446536
1926.000000	5.464698
1925.000000	5.592628
1924.000000	5.674134
1923.000000	5.680901
1922.000000	5.844573
1921.000000	5.943291
1920.000000	6.011315
1919.000000	6.108774
1918.000000	6.160071
1917.000000	6.319413
1916.000000	6.358264
1915.000000	6.520797
1914.000000	6.565928
1913.000000	6.747520
1912.000000	6.833687
1911.000000	6.918632
1910.000000	7.048303
1909.000000	7.126457
1908.000000	7.303672
1907.000000	7.471811
1906.000000	7.556952
1905.000000	7.712791
1904.000000	7.935285
1903.000000	8.056322
1902.000000	8.201514
1901.000000	8.370568
1900.000000	8.507735
1899.000000	8.693324
1898.000000	8.952925
1897.000000	9.025524
1896.000000	9.172633
1895.000000	9.334898
1894.000000	9.475310
1893.000000	9.698213
1892.000000	9.870471
1891.000000	9.981189
1890.000000	10.163124
1889.000000	10.311356
1888.000000	10.492924
1887.000000	10.596670
1886.000000	10.752457
1885.000000	10.880984
1884.000000	11.057784
1883.000000	11.168221
1882.000000	11.281840
1881.000000	11.378877
1880.000000	11.554594
1879.000000	11.681731
1878.000000	11.688553
1877.000000	11.838628
1876.000000	11.915190
1875.000000	12.076227
1874.000000	12.115878
1873.000000	12.197484
1872.000000	12.231523
1871.000000	12.315177
1870.000000	12.359022
1869.000000	12.411319
1868.000000	12.423111
1867.000000	12.451512
1866.000000	12.494500
1865.000000	12.505603
1864.000000	12.506210
1863.000000	12.531259
1862.000000	12.553529
1861.000000	12.568802
1860.000000	12.578161
1859.000000	12.598305
1858.000000	12.612476
1857.000000	12.646623
1856.000000	12.674089
1855.000000	12.656971
1854.000000	12.673934
1853.000000	12.685027
1852.000000	12.629279
1851.000000	12.664204
1850.000000	12.670403
1849.000000	12.655268
1848.000000	12.654709
1847.000000	12.656673
1846.000000	12.668533
1845.000000	12.669685
1844.000000	12.648608
1843.000000	12.643317
1842.000000	12.637362
1841.000000	12.627141
1840.000000	12.592446
1839.000000	12.591362
1838.000000	12.582748
1837.000000	12.550368
1836.000000	12.531341
1835.000000	12.514004
1834.000000	12.472204
1833.000000	12.446740
1832.000000	12.441290
1831.000000	12.412832
1830.000000	12.365742
1829.000000	12.353264
1828.000000	12.345036
1827.000000	12.327865
1826.000000	12.309335
1825.000000	12.294971
1824.000000	12.299273
1823.000000	12.271858
1822.000000	12.231164
1821.000000	12.215012
1820.000000	12.197002
1819.000000	12.161480
1818.000000	12.145697
1817.000000	12.144719
1816.000000	12.126835
1815.000000	12.109138
1814.000000	12.103438
1813.000000	12.093875
1812.000000	12.083035
1811.000000	12.056198
1810.000000	12.050566
1809.000000	12.049498
1808.000000	12.032089
1807.000000	12.008518
1806.000000	11.973021
1805.000000	11.952388
1804.000000	11.957336
1803.000000	11.950433
1802.000000	11.931767
1801.000000	11.928697
1800.000000	11.912287
1799.000000	11.902024
1798.000000	11.900833
1797.000000	11.894553
1796.000000	11.877656
1795.000000	11.864874
1794.000000	11.866592
1793.000000	11.861740
1792.000000	11.842943
1791.000000	11.821064
1790.000000	11.823902
1789.000000	11.828076
1788.000000	11.829350
1787.000000	11.819150
1786.000000	11.810173
1785.000000	11.809225
1784.000000	11.799765
1783.000000	11.778457
1782.000000	11.760949
1781.000000	11.771089
1780.000000	11.770389
1779.000000	11.756720
1778.000000	11.737845
1777.000000	11.714848
1776.000000	11.697856
1775.000000	11.683709
1774.000000	11.659621
1773.000000	11.638356
1772.000000	11.598849
1771.000000	11.583614
1770.000000	11.581516
1769.000000	11.552692
1768.000000	11.512737
1767.000000	11.496824
1766.000000	11.484199
1765.000000	11.442281
1764.000000	11.437849
1763.000000	11.417986
1762.000000	11.368241
1761.000000	11.356045
1760.000000	11.312958
1759.000000	11.292593
1758.000000	11.290193
1757.000000	11.231856
1756.000000	11.226443
1755.000000	11.233097
1754.000000	11.200897
1753.000000	11.187548
1752.000000	11.165333
1751.000000	11.128862
1750.000000	11.102039
1749.000000	11.110535
1748.000000	11.085264
1747.000000	11.065999
1746.000000	11.034314
1745.000000	11.020001
1744.000000	10.983073
1743.000000	10.951058
1742.000000	10.938576
1741.000000	10.936551
1740.000000	10.915348
1739.000000	10.887602
1738.000000	10.866840
1737.000000	10.867417
1736.000000	10.842312
1735.000000	10.833203
1734.000000	10.856062
1733.000000	10.818188
1732.000000	10.819511
1731.000000	10.814169
1730.000000	10.804748
1729.000000	10.817264
1728.000000	10.848109
1727.000000	10.837885
1726.000000	10.854686
1725.000000	10.852687
1724.000000	10.901434
1723.000000	10.954791
1722.000000	10.988905
1721.000000	10.978982
1720.000000	11.027456
1719.000000	11.084888
1718.000000	11.075619
1717.000000	11.086551
1716.000000	11.140206
1715.000000	11.169331
1714.000000	11.168596
1713.000000	11.188147
1712.000000	11.229320
1711.000000	11.253526
1710.000000	11.264857
1709.000000	11.286426
1708.000000	11.310169
1707.000000	11.322974
1706.000000	11.311528
1705.000000	11.327638
1704.000000	11.334836
1703.000000	11.339133
1702.000000	11.335218
1701.000000	11.324376
1700.000000	11.360369
1699.000000	11.352904
1698.000000	11.350519
1697.000000	11.359386
1696.000000	11.375026
1695.000000	11.368521
1694.000000	11.398104
1693.000000	11.418279
1692.000000	11.400933
1691.000000	11.413173
1690.000000	11.460348
1689.000000	11.501137
1688.000000	11.555037
1687.000000	11.582304
1686.000000	11.621429
1685.000000	11.645150
1684.000000	11.703562
1683.000000	11.743802
1682.000000	11.827457
1681.000000	11.870066
1680.000000	11.956479
1679.000000	11.981474
1678.000000	12.037195
1677.000000	12.084403
1676.000000	12.149682
1675.000000	12.193800
1674.000000	12.263025
1673.000000	12.308085
1672.000000	12.359187
1671.000000	12.419503
1670.000000	12.479975
1669.000000	12.505055
1668.000000	12.530096
1667.000000	12.589406
1666.000000	12.605721
1665.000000	12.608757
1664.000000	12.623861
1663.000000	12.647802
1662.000000	12.691799
1661.000000	12.727995
1660.000000	12.742019
1659.000000	12.775417
1658.000000	12.788390
1657.000000	12.800701
1656.000000	12.818012
1655.000000	12.807422
1654.000000	12.824493
1653.000000	12.832986
1652.000000	12.856658
1651.000000	12.848127
1650.000000	12.818528
1649.000000	12.812523
1648.000000	12.811363
1647.000000	12.811234
1646.000000	12.807499
1645.000000	12.790011
1644.000000	12.783844
1643.000000	12.757467
1642.000000	12.768050
1641.000000	12.753697
1640.000000	12.750637
1639.000000	12.736213
1638.000000	12.717273
1637.000000	12.702579
1636.000000	12.696186
1635.000000	12.673399
1634.000000	12.650361
1633.000000	12.627722
1632.000000	12.624949
1631.000000	12.607948
1630.000000	12.578187
1629.000000	12.563527
1628.000000	12.556380
1627.000000	12.539441
1626.000000	12.512139
1625.000000	12.494502
1624.000000	12.494997
1623.000000	12.456120
1622.000000	12.436073
1621.000000	12.419249
1620.000000	12.408158
1619.000000	12.377709
1618.000000	12.352859
1617.000000	12.342907
1616.000000	12.317775
1615.000000	12.293304
1614.000000	12.271172
1613.000000	12.244315
1612.000000	12.223036
1611.000000	12.202076
1610.000000	12.180154
1609.000000	12.154979
1608.000000	12.136236
1607.000000	12.115570
1606.000000	12.084017
1605.000000	12.052821
1604.000000	12.028370
1603.000000	12.015185
1602.000000	11.985554
1601.000000	11.955837
1600.000000	11.944418
1599.000000	11.926532
1598.000000	11.891084
1597.000000	11.874627
1596.000000	11.855060
1595.000000	11.828373
1594.000000	11.803156
1593.000000	11.793571
1592.000000	11.778806
1591.000000	11.758439
1590.000000	11.748652
1589.000000	11.722555
1588.000000	11.697856
1587.000000	11.679204
1586.000000	11.650655
1585.000000	11.640348
1584.000000	11.628765
1583.000000	11.604317
1582.000000	11.594303
1581.000000	11.578018
1580.000000	11.562197
1579.000000	11.550813
1578.000000	11.527721
1577.000000	11.506038
1576.000000	11.494698
1575.000000	11.478680
1574.000000	11.455505
1573.000000	11.437117
1572.000000	11.416969
1571.000000	11.400313
1570.000000	11.373345
1569.000000	11.351111
1568.000000	11.343649
1567.000000	11.340840
1566.000000	11.338827
1565.000000	11.317789
1564.000000	11.291946
1563.000000	11.297695
1562.000000	11.279510
1561.000000	11.263026
1560.000000	11.252370
1559.000000	11.232270
1558.000000	11.208507
1557.000000	11.205458
1556.000000	11.198729
1555.000000	11.191536
1554.000000	11.180785
1553.000000	11.162229
1552.000000	11.150034
1551.000000	11.140693
1550.000000	11.115421
1549.000000	11.092486
1548.000000	11.076306
1547.000000	11.065066
1546.000000	11.047721
1545.000000	11.022010
1544.000000	10.973896
1543.000000	10.929693
1542.000000	10.912603
1541.000000	10.882870
1540.000000	10.856327
1539.000000	10.813997
1538.000000	10.773544
1537.000000	10.741155
1536.000000	10.704792
1535.000000	10.666363
1534.000000	10.635128
1533.000000	10.597718
1532.000000	10.556133
1531.000000	10.535844
1530.000000	10.495281
1529.000000	10.482857
1528.000000	10.494599
1527.000000	10.547188
1526.000000	10.562614
1525.000000	10.552143
1524.000000	10.495707
1523.000000	10.425635
1522.000000	10.381439
1521.000000	10.354380
1520.000000	10.330027
1519.000000	10.324230
1518.000000	10.307181
1517.000000	10.260870
1516.000000	10.244796
1515.000000	10.249594
1514.000000	10.231281
1513.000000	10.209618
1512.000000	10.167213
1511.000000	10.175971
1510.000000	10.179796
1509.000000	10.156743
1508.000000	10.134916
1507.000000	10.126370
1506.000000	10.093903
1505.000000	10.087808
1504.000000	10.080007
1503.000000	10.106664
1502.000000	10.110043
1501.000000	10.086176
1500.000000	10.071751
1499.000000	10.077896
1498.000000	10.088174
1497.000000	10.079048
1496.000000	10.091460
1495.000000	10.078716
1494.000000	10.074008
1493.000000	10.074092
1492.000000	10.080879
1491.000000	10.090904
1490.000000	10.095412
1489.000000	10.105007
1488.000000	10.098260
1487.000000	10.110529
1486.000000	10.116457
1485.000000	10.154672
1484.000000	10.164405
1483.000000	10.189654
1482.000000	10.192409
1481.000000	10.176975
1480.000000	10.183975
1479.000000	10.212534
1478.000000	10.237878
1477.000000	10.257780
1476.000000	10.289693
1475.000000	10.277149
1474.000000	10.294222
1473.000000	10.313550
1472.000000	10.328805
1471.000000	10.378520
1470.000000	10.398853
1469.000000	10.397343
1468.000000	10.394675
1467.000000	10.399046
1466.000000	10.425930
1465.000000	10.468810
1464.000000	10.479368
1463.000000	10.468547
1462.000000	10.469423
1461.000000	10.473290
1460.000000	10.511417
1459.000000	10.535409
1458.000000	10.537612
1457.000000	10.529073
1456.000000	10.530985
1455.000000	10.573568
1454.000000	10.609800
1453.000000	10.600314
1452.000000	10.590879
1451.000000	10.610136
1450.000000	10.653656
1449.000000	10.661075
