PE UV       SUBTECH     SPECTRUM    ASCII       PEDS        4.00        
   -1
TTmsmeh72.Sample.asc
18/03/20
11:15:32.00
18/03/20
11:15:32.00
Administrator

200.000000
1
Lambda 750
750N8071901
PerkinElmer UV WinLab 6.0.4.0738 / 1.61.00 Lambda 900

0
0
3350/servo 860.8/2
0
0
UV/VIS
1
1
1
CommonBeamDepol,150mm sphere / downward view
0
0
0
0
Program
Program
3350/servo 860.8/2
3350/0.2 860.8/0.2
3350/0.2 860.8/0.2
0
1
 
 
 
0
 
860.8
319.2
860.8
Front
100
on
 
 
0
0
0
 
0
 
 
 
0
 
 
0
0
0
0
0
 
 
 
 
0
0


0
0
#HDR
-1
-1
#GR
nm
%T
1.0
0.0
2350.000000
-1.000000
2151
8
15.090770
-0.034489
#DATA
2350.000000	7.203156
2349.000000	6.972805
2348.000000	6.979891
2347.000000	7.600901
2346.000000	7.444597
2345.000000	7.329306
2344.000000	6.678084
2343.000000	6.766033
2342.000000	6.891929
2341.000000	7.440219
2340.000000	7.346572
2339.000000	7.706748
2338.000000	7.807281
2337.000000	7.668372
2336.000000	7.713665
2335.000000	7.752843
2334.000000	7.541210
2333.000000	7.905553
2332.000000	8.208521
2331.000000	7.889131
2330.000000	7.758655
2329.000000	7.795401
2328.000000	8.113106
2327.000000	7.916527
2326.000000	7.984676
2325.000000	7.737292
2324.000000	7.684663
2323.000000	7.802744
2322.000000	7.593455
2321.000000	7.532860
2320.000000	7.693375
2319.000000	7.611790
2318.000000	7.444819
2317.000000	7.468937
2316.000000	7.387223
2315.000000	7.546853
2314.000000	7.461731
2313.000000	7.581210
2312.000000	7.209433
2311.000000	7.266710
2310.000000	7.252360
2309.000000	7.265346
2308.000000	7.358770
2307.000000	7.348083
2306.000000	7.479994
2305.000000	7.309049
2304.000000	7.151109
2303.000000	7.060600
2302.000000	7.114659
2301.000000	7.051210
2300.000000	6.802862
2299.000000	6.980775
2298.000000	6.878247
2297.000000	6.575983
2296.000000	6.831903
2295.000000	6.975051
2294.000000	6.931710
2293.000000	6.887074
2292.000000	6.802251
2291.000000	6.838444
2290.000000	6.954274
2289.000000	6.893486
2288.000000	6.977086
2287.000000	7.164015
2286.000000	7.008497
2285.000000	6.958187
2284.000000	6.956672
2283.000000	6.860210
2282.000000	6.803779
2281.000000	6.786159
2280.000000	6.999524
2279.000000	6.979201
2278.000000	6.912973
2277.000000	6.988701
2276.000000	6.910139
2275.000000	6.922455
2274.000000	7.144702
2273.000000	7.080912
2272.000000	7.123556
2271.000000	7.115950
2270.000000	7.138511
2269.000000	7.139132
2268.000000	7.075890
2267.000000	7.230037
2266.000000	7.267517
2265.000000	7.232428
2264.000000	7.219180
2263.000000	7.288221
2262.000000	7.430197
2261.000000	7.497333
2260.000000	7.550476
2259.000000	7.647636
2258.000000	7.752576
2257.000000	7.806157
2256.000000	7.745598
2255.000000	7.749250
2254.000000	7.803054
2253.000000	7.908101
2252.000000	8.035529
2251.000000	8.054262
2250.000000	8.135118
2249.000000	8.234395
2248.000000	8.324113
2247.000000	8.429724
2246.000000	8.533240
2245.000000	8.589362
2244.000000	8.583246
2243.000000	8.648363
2242.000000	8.671315
2241.000000	8.662949
2240.000000	8.823246
2239.000000	8.862878
2238.000000	8.937293
2237.000000	8.968013
2236.000000	8.970607
2235.000000	9.006543
2234.000000	8.943716
2233.000000	8.898630
2232.000000	8.946338
2231.000000	9.040214
2230.000000	9.093573
2229.000000	9.070092
2228.000000	9.096776
2227.000000	9.133901
2226.000000	8.976483
2225.000000	8.990159
2224.000000	9.118553
2223.000000	9.116492
2222.000000	9.055424
2221.000000	9.022253
2220.000000	9.104899
2219.000000	9.113155
2218.000000	9.075063
2217.000000	9.027963
2216.000000	8.928282
2215.000000	8.909175
2214.000000	8.970119
2213.000000	8.954194
2212.000000	8.943411
2211.000000	8.879806
2210.000000	8.813854
2209.000000	8.727745
2208.000000	8.742443
2207.000000	8.804486
2206.000000	8.838327
2205.000000	8.747745
2204.000000	8.730796
2203.000000	8.648738
2202.000000	8.650979
2201.000000	8.668145
2200.000000	8.559742
2199.000000	8.530478
2198.000000	8.530594
2197.000000	8.529983
2196.000000	8.528386
2195.000000	8.418700
2194.000000	8.364798
2193.000000	8.434771
2192.000000	8.281401
2191.000000	8.239020
2190.000000	8.290491
2189.000000	8.317215
2188.000000	8.150934
2187.000000	8.110610
2186.000000	8.159010
2185.000000	8.138026
2184.000000	8.204323
2183.000000	8.380752
2182.000000	8.150233
2181.000000	8.067286
2180.000000	8.216750
2179.000000	8.095947
2178.000000	8.177595
2177.000000	8.038106
2176.000000	8.061688
2175.000000	8.111948
2174.000000	8.120582
2173.000000	8.150846
2172.000000	8.180836
2171.000000	8.224456
2170.000000	8.233440
2169.000000	8.316916
2168.000000	8.353412
2167.000000	8.266884
2166.000000	8.214060
2165.000000	8.367416
2164.000000	8.299685
2163.000000	8.238634
2162.000000	8.404077
2161.000000	8.381237
2160.000000	8.632022
2159.000000	8.589330
2158.000000	8.530879
2157.000000	8.634957
2156.000000	8.700103
2155.000000	8.714445
2154.000000	8.863842
2153.000000	9.019713
2152.000000	8.836260
2151.000000	8.742540
2150.000000	8.992592
2149.000000	8.905229
2148.000000	8.919267
2147.000000	8.991076
2146.000000	9.056484
2145.000000	9.289467
2144.000000	9.210638
2143.000000	9.135499
2142.000000	9.242111
2141.000000	9.288903
2140.000000	9.398059
2139.000000	9.563632
2138.000000	9.458653
2137.000000	9.566002
2136.000000	9.570604
2135.000000	9.729011
2134.000000	9.660804
2133.000000	9.325246
2132.000000	9.529131
2131.000000	9.617919
2130.000000	9.756110
2129.000000	9.612101
2128.000000	9.616967
2127.000000	9.537731
2126.000000	9.702972
2125.000000	9.512908
2124.000000	9.876761
2123.000000	9.798397
2122.000000	9.797142
2121.000000	9.864134
2120.000000	9.690912
2119.000000	9.809850
2118.000000	9.896361
2117.000000	9.750098
2116.000000	9.848969
2115.000000	9.892415
2114.000000	9.850322
2113.000000	9.755425
2112.000000	9.856090
2111.000000	9.807460
2110.000000	9.855645
2109.000000	10.023795
2108.000000	9.866026
2107.000000	9.914489
2106.000000	9.937648
2105.000000	9.882425
2104.000000	9.888587
2103.000000	9.832044
2102.000000	9.865251
2101.000000	9.892219
2100.000000	9.945763
2099.000000	9.884998
2098.000000	9.934153
2097.000000	9.802576
2096.000000	9.883406
2095.000000	9.711512
2094.000000	9.877173
2093.000000	9.783893
2092.000000	9.850065
2091.000000	9.882502
2090.000000	9.812238
2089.000000	9.847500
2088.000000	9.830364
2087.000000	9.859940
2086.000000	9.890348
2085.000000	9.887258
2084.000000	9.797347
2083.000000	9.726539
2082.000000	9.733408
2081.000000	9.673885
2080.000000	9.650162
2079.000000	9.588850
2078.000000	9.588226
2077.000000	9.606361
2076.000000	9.502846
2075.000000	9.442234
2074.000000	9.411527
2073.000000	9.388197
2072.000000	9.378332
2071.000000	9.349859
2070.000000	9.337219
2069.000000	9.228002
2068.000000	9.169422
2067.000000	9.130269
2066.000000	8.987453
2065.000000	8.862909
2064.000000	8.897020
2063.000000	8.940695
2062.000000	8.959566
2061.000000	8.856396
2060.000000	8.724802
2059.000000	8.638893
2058.000000	8.604541
2057.000000	8.612683
2056.000000	8.646481
2055.000000	8.536836
2054.000000	8.465402
2053.000000	8.421624
2052.000000	8.373821
2051.000000	8.388680
2050.000000	8.304141
2049.000000	8.283334
2048.000000	8.241141
2047.000000	8.215182
2046.000000	8.241957
2045.000000	8.252854
2044.000000	8.229561
2043.000000	8.240376
2042.000000	8.256164
2041.000000	8.219142
2040.000000	8.228218
2039.000000	8.223819
2038.000000	8.212050
2037.000000	8.243487
2036.000000	8.230167
2035.000000	8.258540
2034.000000	8.345798
2033.000000	8.415871
2032.000000	8.418919
2031.000000	8.397637
2030.000000	8.456644
2029.000000	8.522535
2028.000000	8.526356
2027.000000	8.533350
2026.000000	8.597709
2025.000000	8.630263
2024.000000	8.665175
2023.000000	8.694465
2022.000000	8.673409
2021.000000	8.661439
2020.000000	8.722555
2019.000000	8.759767
2018.000000	8.723592
2017.000000	8.716175
2016.000000	8.701673
2015.000000	8.732742
2014.000000	8.738586
2013.000000	8.685351
2012.000000	8.657255
2011.000000	8.645883
2010.000000	8.637305
2009.000000	8.611133
2008.000000	8.578910
2007.000000	8.520178
2006.000000	8.488530
2005.000000	8.485190
2004.000000	8.454125
2003.000000	8.392095
2002.000000	8.395434
2001.000000	8.396535
2000.000000	8.329042
1999.000000	8.293391
1998.000000	8.246144
1997.000000	8.204654
1996.000000	8.175788
1995.000000	8.155665
1994.000000	8.104425
1993.000000	8.062550
1992.000000	8.017833
1991.000000	7.938047
1990.000000	7.940820
1989.000000	7.916467
1988.000000	7.874696
1987.000000	7.841756
1986.000000	7.802388
1985.000000	7.779624
1984.000000	7.754877
1983.000000	7.677208
1982.000000	7.625290
1981.000000	7.591724
1980.000000	7.563853
1979.000000	7.573244
1978.000000	7.574673
1977.000000	7.512068
1976.000000	7.468101
1975.000000	7.429854
1974.000000	7.384244
1973.000000	7.353186
1972.000000	7.314791
1971.000000	7.286020
1970.000000	7.294795
1969.000000	7.274478
1968.000000	7.201855
1967.000000	7.165284
1966.000000	7.174796
1965.000000	7.162166
1964.000000	7.097921
1963.000000	7.086073
1962.000000	7.051664
1961.000000	7.029446
1960.000000	7.009417
1959.000000	6.974503
1958.000000	6.980412
1957.000000	6.912931
1956.000000	6.881490
1955.000000	6.878434
1954.000000	6.886370
1953.000000	6.846608
1952.000000	6.841997
1951.000000	6.825790
1950.000000	6.786403
1949.000000	6.774078
1948.000000	6.768974
1947.000000	6.763144
1946.000000	6.781330
1945.000000	6.782060
1944.000000	6.782302
1943.000000	6.813263
1942.000000	6.814770
1941.000000	6.840342
1940.000000	6.865983
1939.000000	6.907987
1938.000000	6.924859
1937.000000	6.977889
1936.000000	6.986191
1935.000000	7.011832
1934.000000	6.997806
1933.000000	7.111555
1932.000000	7.101881
1931.000000	7.133064
1930.000000	7.308961
1929.000000	7.303407
1928.000000	7.329277
1927.000000	7.313005
1926.000000	7.372427
1925.000000	7.443682
1924.000000	7.542828
1923.000000	7.628375
1922.000000	7.723476
1921.000000	7.872907
1920.000000	7.985426
1919.000000	8.048730
1918.000000	8.091815
1917.000000	8.230832
1916.000000	8.218298
1915.000000	8.447322
1914.000000	8.532256
1913.000000	8.724758
1912.000000	8.878830
1911.000000	8.958905
1910.000000	9.087845
1909.000000	9.183985
1908.000000	9.293357
1907.000000	9.447606
1906.000000	9.529218
1905.000000	9.745383
1904.000000	9.840171
1903.000000	10.085603
1902.000000	10.238244
1901.000000	10.408056
1900.000000	10.520843
1899.000000	10.709761
1898.000000	10.919224
1897.000000	11.031986
1896.000000	11.138314
1895.000000	11.317806
1894.000000	11.456710
1893.000000	11.635805
1892.000000	11.806957
1891.000000	11.922861
1890.000000	12.062821
1889.000000	12.227329
1888.000000	12.298278
1887.000000	12.495434
1886.000000	12.654480
1885.000000	12.756204
1884.000000	12.887878
1883.000000	12.987165
1882.000000	13.079177
1881.000000	13.192816
1880.000000	13.278563
1879.000000	13.383412
1878.000000	13.490293
1877.000000	13.529209
1876.000000	13.612943
1875.000000	13.719652
1874.000000	13.760503
1873.000000	13.888472
1872.000000	13.890849
1871.000000	13.947416
1870.000000	13.996415
1869.000000	14.048349
1868.000000	14.103320
1867.000000	14.118066
1866.000000	14.121669
1865.000000	14.165316
1864.000000	14.159916
1863.000000	14.123210
1862.000000	14.141720
1861.000000	14.190723
1860.000000	14.193329
1859.000000	14.163991
1858.000000	14.175518
1857.000000	14.160023
1856.000000	14.182561
1855.000000	14.213921
1854.000000	14.253941
1853.000000	14.221727
1852.000000	14.225900
1851.000000	14.231563
1850.000000	14.230969
1849.000000	14.236517
1848.000000	14.217108
1847.000000	14.238745
1846.000000	14.241283
1845.000000	14.240069
1844.000000	14.226996
1843.000000	14.198865
1842.000000	14.182463
1841.000000	14.188222
1840.000000	14.170254
1839.000000	14.171330
1838.000000	14.137621
1837.000000	14.101677
1836.000000	14.072924
1835.000000	14.066623
1834.000000	14.045629
1833.000000	14.014242
1832.000000	14.001691
1831.000000	13.972265
1830.000000	13.952270
1829.000000	13.929652
1828.000000	13.913354
1827.000000	13.892450
1826.000000	13.873636
1825.000000	13.870424
1824.000000	13.852587
1823.000000	13.835595
1822.000000	13.806398
1821.000000	13.774395
1820.000000	13.781295
1819.000000	13.762102
1818.000000	13.754268
1817.000000	13.747305
1816.000000	13.718931
1815.000000	13.698501
1814.000000	13.689583
1813.000000	13.693120
1812.000000	13.669392
1811.000000	13.670893
1810.000000	13.676842
1809.000000	13.661865
1808.000000	13.645997
1807.000000	13.617305
1806.000000	13.605123
1805.000000	13.602901
1804.000000	13.582035
1803.000000	13.572837
1802.000000	13.577293
1801.000000	13.559553
1800.000000	13.547889
1799.000000	13.544548
1798.000000	13.539859
1797.000000	13.522060
1796.000000	13.519718
1795.000000	13.533666
1794.000000	13.525749
1793.000000	13.525868
1792.000000	13.516238
1791.000000	13.521614
1790.000000	13.518145
1789.000000	13.516029
1788.000000	13.518473
1787.000000	13.505260
1786.000000	13.486444
1785.000000	13.487788
1784.000000	13.497650
1783.000000	13.484810
1782.000000	13.467993
1781.000000	13.454591
1780.000000	13.464120
1779.000000	13.471278
1778.000000	13.441660
1777.000000	13.400558
1776.000000	13.376228
1775.000000	13.368516
1774.000000	13.350575
1773.000000	13.319211
1772.000000	13.305049
1771.000000	13.294591
1770.000000	13.266571
1769.000000	13.217009
1768.000000	13.199093
1767.000000	13.181439
1766.000000	13.165791
1765.000000	13.152995
1764.000000	13.137128
1763.000000	13.101633
1762.000000	13.085028
1761.000000	13.061857
1760.000000	13.043262
1759.000000	13.014097
1758.000000	13.011074
1757.000000	12.995558
1756.000000	12.994789
1755.000000	12.975966
1754.000000	12.954950
1753.000000	12.896757
1752.000000	12.887012
1751.000000	12.876219
1750.000000	12.862083
1749.000000	12.850319
1748.000000	12.828613
1747.000000	12.780928
1746.000000	12.744457
1745.000000	12.723224
1744.000000	12.692107
1743.000000	12.702604
1742.000000	12.640252
1741.000000	12.632051
1740.000000	12.615799
1739.000000	12.592933
1738.000000	12.583765
1737.000000	12.568564
1736.000000	12.549441
1735.000000	12.540739
1734.000000	12.523652
1733.000000	12.534132
1732.000000	12.535865
1731.000000	12.519357
1730.000000	12.509927
1729.000000	12.501232
1728.000000	12.527649
1727.000000	12.528067
1726.000000	12.575464
1725.000000	12.593440
1724.000000	12.608462
1723.000000	12.636444
1722.000000	12.652920
1721.000000	12.683824
1720.000000	12.704729
1719.000000	12.737123
1718.000000	12.793528
1717.000000	12.815979
1716.000000	12.824370
1715.000000	12.845600
1714.000000	12.876534
1713.000000	12.893340
1712.000000	12.917088
1711.000000	12.968160
1710.000000	12.947288
1709.000000	12.993136
1708.000000	13.002572
1707.000000	13.029762
1706.000000	13.044521
1705.000000	13.032420
1704.000000	13.048964
1703.000000	13.056854
1702.000000	13.060501
1701.000000	13.071561
1700.000000	13.089093
1699.000000	13.074393
1698.000000	13.089442
1697.000000	13.107508
1696.000000	13.140086
1695.000000	13.132898
1694.000000	13.164249
1693.000000	13.164974
1692.000000	13.214877
1691.000000	13.205857
1690.000000	13.218553
1689.000000	13.294177
1688.000000	13.308458
1687.000000	13.339832
1686.000000	13.382052
1685.000000	13.413038
1684.000000	13.446624
1683.000000	13.505057
1682.000000	13.559470
1681.000000	13.613311
1680.000000	13.661773
1679.000000	13.717714
1678.000000	13.774861
1677.000000	13.763862
1676.000000	13.843183
1675.000000	13.885938
1674.000000	13.937169
1673.000000	13.974712
1672.000000	14.024234
1671.000000	14.074027
1670.000000	14.099361
1669.000000	14.116535
1668.000000	14.152208
1667.000000	14.214262
1666.000000	14.193616
1665.000000	14.205933
1664.000000	14.238457
1663.000000	14.249612
1662.000000	14.264089
1661.000000	14.278792
1660.000000	14.322367
1659.000000	14.342524
1658.000000	14.363695
1657.000000	14.395835
1656.000000	14.421127
1655.000000	14.394928
1654.000000	14.410956
1653.000000	14.425631
1652.000000	14.424075
1651.000000	14.421701
1650.000000	14.426444
1649.000000	14.413517
1648.000000	14.410448
1647.000000	14.412905
1646.000000	14.409770
1645.000000	14.383302
1644.000000	14.368148
1643.000000	14.360125
1642.000000	14.362558
1641.000000	14.344773
1640.000000	14.335617
1639.000000	14.324240
1638.000000	14.328672
1637.000000	14.300356
1636.000000	14.281318
1635.000000	14.276557
1634.000000	14.262741
1633.000000	14.254657
1632.000000	14.239184
1631.000000	14.221853
1630.000000	14.205108
1629.000000	14.192491
1628.000000	14.179703
1627.000000	14.179570
1626.000000	14.159532
1625.000000	14.132068
1624.000000	14.113337
1623.000000	14.112880
1622.000000	14.098096
1621.000000	14.077038
1620.000000	14.061902
1619.000000	14.037144
1618.000000	14.027066
1617.000000	14.013959
1616.000000	14.002639
1615.000000	13.987608
1614.000000	13.968918
1613.000000	13.944207
1612.000000	13.924664
1611.000000	13.904803
1610.000000	13.899238
1609.000000	13.883830
1608.000000	13.865645
1607.000000	13.843652
1606.000000	13.821231
1605.000000	13.806546
1604.000000	13.780595
1603.000000	13.760068
1602.000000	13.754419
1601.000000	13.731617
1600.000000	13.707084
1599.000000	13.691416
1598.000000	13.668321
1597.000000	13.653185
1596.000000	13.650511
1595.000000	13.627572
1594.000000	13.607501
1593.000000	13.606146
1592.000000	13.597032
1591.000000	13.583484
1590.000000	13.557637
1589.000000	13.531189
1588.000000	13.513684
1587.000000	13.511339
1586.000000	13.505203
1585.000000	13.486741
1584.000000	13.474275
1583.000000	13.459810
1582.000000	13.450541
1581.000000	13.431123
1580.000000	13.409568
1579.000000	13.408815
1578.000000	13.407649
1577.000000	13.391443
1576.000000	13.366549
1575.000000	13.335500
1574.000000	13.319358
1573.000000	13.312920
1572.000000	13.306185
1571.000000	13.282233
1570.000000	13.269613
1569.000000	13.266442
1568.000000	13.261392
1567.000000	13.244400
1566.000000	13.226906
1565.000000	13.215461
1564.000000	13.200219
1563.000000	13.202190
1562.000000	13.190472
1561.000000	13.174488
1560.000000	13.161906
1559.000000	13.163304
1558.000000	13.146051
1557.000000	13.115430
1556.000000	13.105202
1555.000000	13.112185
1554.000000	13.096809
1553.000000	13.085722
1552.000000	13.068991
1551.000000	13.049023
1550.000000	13.036715
1549.000000	13.021053
1548.000000	13.011710
1547.000000	12.983981
1546.000000	12.966102
1545.000000	12.942087
1544.000000	12.900222
1543.000000	12.886272
1542.000000	12.849669
1541.000000	12.824655
1540.000000	12.809111
1539.000000	12.783696
1538.000000	12.738194
1537.000000	12.704160
1536.000000	12.675883
1535.000000	12.633309
1534.000000	12.616560
1533.000000	12.581851
1532.000000	12.547008
1531.000000	12.534713
1530.000000	12.493158
1529.000000	12.487382
1528.000000	12.498121
1527.000000	12.546359
1526.000000	12.571727
1525.000000	12.560386
1524.000000	12.508316
1523.000000	12.449158
1522.000000	12.396984
1521.000000	12.364612
1520.000000	12.361245
1519.000000	12.355705
1518.000000	12.322795
1517.000000	12.293304
1516.000000	12.295420
1515.000000	12.296750
1514.000000	12.261226
1513.000000	12.243640
1512.000000	12.210425
1511.000000	12.225424
1510.000000	12.228677
1509.000000	12.202978
1508.000000	12.178149
1507.000000	12.175086
1506.000000	12.156471
1505.000000	12.150914
1504.000000	12.126743
1503.000000	12.135128
1502.000000	12.149381
1501.000000	12.146123
1500.000000	12.147503
1499.000000	12.141437
1498.000000	12.135877
1497.000000	12.146086
1496.000000	12.130999
1495.000000	12.130561
1494.000000	12.113875
1493.000000	12.144203
1492.000000	12.138184
1491.000000	12.145478
1490.000000	12.146546
1489.000000	12.153042
1488.000000	12.161359
1487.000000	12.180958
1486.000000	12.166453
1485.000000	12.178376
1484.000000	12.208274
1483.000000	12.228864
1482.000000	12.223315
1481.000000	12.247154
1480.000000	12.257620
1479.000000	12.266513
1478.000000	12.263138
1477.000000	12.302675
1476.000000	12.311227
1475.000000	12.309389
1474.000000	12.308219
1473.000000	12.322486
1472.000000	12.325377
1471.000000	12.340702
1470.000000	12.356164
1469.000000	12.355074
1468.000000	12.353332
1467.000000	12.370318
1466.000000	12.361079
1465.000000	12.419979
1464.000000	12.434262
1463.000000	12.435556
1462.000000	12.427948
1461.000000	12.437102
1460.000000	12.465884
1459.000000	12.476805
1458.000000	12.461775
1457.000000	12.474622
1456.000000	12.503058
1455.000000	12.531993
1454.000000	12.533031
1453.000000	12.516293
1452.000000	12.526709
1451.000000	12.522661
1450.000000	12.567537
1449.000000	12.584745
