PE UV       SUBTECH     SPECTRUM    ASCII       PEDS        4.00        
   -1
TTmsfkat102.Sample.asc
18/03/20
15:18:34.00
18/03/20
15:18:34.00
Administrator

200.000000
1
Lambda 750
750N8071901
PerkinElmer UV WinLab 6.0.4.0738 / 1.61.00 Lambda 900

0
0
3350/servo 860.8/2
0
0
UV/VIS
1
1
1
CommonBeamDepol,150mm sphere / downward view
0
0
0
0
Program
Program
3350/servo 860.8/2
3350/0.2 860.8/0.2
3350/0.2 860.8/0.2
0
1
 
 
 
0
 
860.8
319.2
860.8
Front
100
on
 
 
0
0
0
 
0
 
 
 
0
 
 
0
0
0
0
0
 
 
 
 
0
0


0
0
#HDR
-1
-1
#GR
nm
%T
1.0
0.0
2350.000000
-1.000000
2151
8
15.264288
0.029943
#DATA
2350.000000	8.455598
2349.000000	8.644630
2348.000000	8.486227
2347.000000	8.934738
2346.000000	8.590347
2345.000000	8.566862
2344.000000	8.371823
2343.000000	8.373102
2342.000000	8.289889
2341.000000	8.490383
2340.000000	8.786684
2339.000000	8.824431
2338.000000	8.962423
2337.000000	8.940027
2336.000000	9.157849
2335.000000	9.215685
2334.000000	9.242766
2333.000000	9.184814
2332.000000	9.376421
2331.000000	9.282925
2330.000000	8.608828
2329.000000	9.048216
2328.000000	8.867969
2327.000000	8.772921
2326.000000	8.818776
2325.000000	8.916716
2324.000000	9.120074
2323.000000	8.811703
2322.000000	8.758156
2321.000000	8.673755
2320.000000	8.815062
2319.000000	8.796197
2318.000000	8.653289
2317.000000	8.811686
2316.000000	8.466852
2315.000000	8.505411
2314.000000	8.589162
2313.000000	8.519560
2312.000000	8.450467
2311.000000	8.446102
2310.000000	8.543940
2309.000000	8.647149
2308.000000	8.633363
2307.000000	8.602245
2306.000000	8.577238
2305.000000	8.448896
2304.000000	8.359308
2303.000000	8.477807
2302.000000	8.306774
2301.000000	8.286547
2300.000000	8.287842
2299.000000	8.073619
2298.000000	8.104984
2297.000000	8.026334
2296.000000	8.079710
2295.000000	8.009804
2294.000000	8.020471
2293.000000	7.868136
2292.000000	7.869713
2291.000000	8.014687
2290.000000	8.051241
2289.000000	8.041541
2288.000000	7.943434
2287.000000	7.828808
2286.000000	7.852775
2285.000000	7.824034
2284.000000	7.733883
2283.000000	7.819857
2282.000000	7.841875
2281.000000	7.823750
2280.000000	7.717639
2279.000000	7.644554
2278.000000	7.663800
2277.000000	7.839887
2276.000000	7.903813
2275.000000	7.900039
2274.000000	7.860621
2273.000000	7.824932
2272.000000	7.854348
2271.000000	7.797524
2270.000000	7.915006
2269.000000	7.944407
2268.000000	7.823366
2267.000000	7.897198
2266.000000	8.086158
2265.000000	8.043132
2264.000000	8.176979
2263.000000	8.339656
2262.000000	8.280233
2261.000000	8.142755
2260.000000	8.313704
2259.000000	8.410818
2258.000000	8.445489
2257.000000	8.420110
2256.000000	8.448617
2255.000000	8.550162
2254.000000	8.686357
2253.000000	8.715571
2252.000000	8.720534
2251.000000	8.879714
2250.000000	8.919230
2249.000000	8.922235
2248.000000	9.021018
2247.000000	9.134791
2246.000000	9.238410
2245.000000	9.386665
2244.000000	9.467020
2243.000000	9.540314
2242.000000	9.588502
2241.000000	9.569828
2240.000000	9.695111
2239.000000	9.772190
2238.000000	9.717634
2237.000000	9.626553
2236.000000	9.682854
2235.000000	9.804005
2234.000000	9.805022
2233.000000	9.737662
2232.000000	9.831752
2231.000000	10.009326
2230.000000	9.985935
2229.000000	9.946735
2228.000000	9.952695
2227.000000	10.005792
2226.000000	9.979846
2225.000000	9.937608
2224.000000	9.911717
2223.000000	9.852006
2222.000000	9.821305
2221.000000	9.694660
2220.000000	9.757466
2219.000000	9.904328
2218.000000	9.887865
2217.000000	9.799490
2216.000000	9.819996
2215.000000	9.829650
2214.000000	9.807572
2213.000000	9.838029
2212.000000	9.774708
2211.000000	9.658510
2210.000000	9.714499
2209.000000	9.638778
2208.000000	9.532483
2207.000000	9.639285
2206.000000	9.630056
2205.000000	9.631458
2204.000000	9.511298
2203.000000	9.446752
2202.000000	9.322568
2201.000000	9.304054
2200.000000	9.414764
2199.000000	9.292968
2198.000000	9.199293
2197.000000	9.314996
2196.000000	9.211292
2195.000000	9.135323
2194.000000	9.147992
2193.000000	9.088561
2192.000000	9.140336
2191.000000	9.172563
2190.000000	9.173890
2189.000000	9.151065
2188.000000	8.963760
2187.000000	8.996714
2186.000000	9.051253
2185.000000	9.137541
2184.000000	9.025898
2183.000000	8.954539
2182.000000	8.891973
2181.000000	8.857437
2180.000000	8.922467
2179.000000	8.836151
2178.000000	8.754012
2177.000000	8.747380
2176.000000	8.940027
2175.000000	8.960540
2174.000000	8.979197
2173.000000	8.986310
2172.000000	8.951427
2171.000000	9.008089
2170.000000	9.038541
2169.000000	9.076983
2168.000000	9.171830
2167.000000	9.076295
2166.000000	9.085733
2165.000000	9.133665
2164.000000	9.011556
2163.000000	8.937410
2162.000000	9.060155
2161.000000	9.280471
2160.000000	9.344876
2159.000000	9.266001
2158.000000	9.305332
2157.000000	9.468531
2156.000000	9.560784
2155.000000	9.575084
2154.000000	9.639753
2153.000000	9.648119
2152.000000	9.563434
2151.000000	9.557656
2150.000000	9.827004
2149.000000	9.763867
2148.000000	9.864409
2147.000000	9.848683
2146.000000	9.768214
2145.000000	10.144331
2144.000000	10.028211
2143.000000	10.047436
2142.000000	10.047831
2141.000000	10.122450
2140.000000	10.024347
2139.000000	10.163646
2138.000000	10.208782
2137.000000	10.273623
2136.000000	10.253988
2135.000000	10.237362
2134.000000	10.417892
2133.000000	10.290160
2132.000000	10.430260
2131.000000	10.513451
2130.000000	10.567091
2129.000000	10.403157
2128.000000	10.580330
2127.000000	10.431915
2126.000000	10.419877
2125.000000	10.399035
2124.000000	10.545129
2123.000000	10.434719
2122.000000	10.444749
2121.000000	10.537605
2120.000000	10.653091
2119.000000	10.661113
2118.000000	10.638212
2117.000000	10.677334
2116.000000	10.740830
2115.000000	10.691927
2114.000000	10.693206
2113.000000	10.700150
2112.000000	10.682185
2111.000000	10.496178
2110.000000	10.512244
2109.000000	10.684457
2108.000000	10.583343
2107.000000	10.660902
2106.000000	10.710039
2105.000000	10.708506
2104.000000	10.680596
2103.000000	10.608120
2102.000000	10.574020
2101.000000	10.727235
2100.000000	10.760430
2099.000000	10.694373
2098.000000	10.702786
2097.000000	10.737075
2096.000000	10.666125
2095.000000	10.603549
2094.000000	10.666906
2093.000000	10.589547
2092.000000	10.606071
2091.000000	10.673985
2090.000000	10.678550
2089.000000	10.654682
2088.000000	10.591621
2087.000000	10.610717
2086.000000	10.641467
2085.000000	10.556864
2084.000000	10.511230
2083.000000	10.451043
2082.000000	10.429504
2081.000000	10.437090
2080.000000	10.462637
2079.000000	10.402907
2078.000000	10.307370
2077.000000	10.296679
2076.000000	10.231754
2075.000000	10.150192
2074.000000	10.226274
2073.000000	10.202322
2072.000000	10.106728
2071.000000	10.095859
2070.000000	9.975184
2069.000000	9.989403
2068.000000	9.965278
2067.000000	9.902229
2066.000000	9.786355
2065.000000	9.665995
2064.000000	9.630300
2063.000000	9.651831
2062.000000	9.646674
2061.000000	9.538835
2060.000000	9.459669
2059.000000	9.466880
2058.000000	9.418976
2057.000000	9.463581
2056.000000	9.372382
2055.000000	9.252442
2054.000000	9.190068
2053.000000	9.080209
2052.000000	9.003853
2051.000000	8.958522
2050.000000	8.936553
2049.000000	8.928418
2048.000000	8.915583
2047.000000	8.899366
2046.000000	8.816409
2045.000000	8.756449
2044.000000	8.842167
2043.000000	8.874626
2042.000000	8.815637
2041.000000	8.819457
2040.000000	8.815426
2039.000000	8.811097
2038.000000	8.834792
2037.000000	8.855884
2036.000000	8.900697
2035.000000	8.936271
2034.000000	8.971596
2033.000000	8.997587
2032.000000	9.027709
2031.000000	9.031547
2030.000000	9.092771
2029.000000	9.171327
2028.000000	9.199550
2027.000000	9.196785
2026.000000	9.286512
2025.000000	9.342570
2024.000000	9.327592
2023.000000	9.356503
2022.000000	9.406350
2021.000000	9.412129
2020.000000	9.402116
2019.000000	9.406221
2018.000000	9.424357
2017.000000	9.409734
2016.000000	9.427540
2015.000000	9.471385
2014.000000	9.481066
2013.000000	9.440396
2012.000000	9.429225
2011.000000	9.409119
2010.000000	9.368077
2009.000000	9.339689
2008.000000	9.325136
2007.000000	9.309276
2006.000000	9.251580
2005.000000	9.230536
2004.000000	9.191572
2003.000000	9.152686
2002.000000	9.146844
2001.000000	9.107825
2000.000000	9.027674
1999.000000	9.021393
1998.000000	9.045170
1997.000000	8.988817
1996.000000	8.942306
1995.000000	8.914807
1994.000000	8.858154
1993.000000	8.821099
1992.000000	8.797919
1991.000000	8.750527
1990.000000	8.725863
1989.000000	8.667075
1988.000000	8.622833
1987.000000	8.613759
1986.000000	8.544751
1985.000000	8.499387
1984.000000	8.500280
1983.000000	8.443475
1982.000000	8.434003
1981.000000	8.390650
1980.000000	8.328097
1979.000000	8.277375
1978.000000	8.272831
1977.000000	8.231111
1976.000000	8.202720
1975.000000	8.131106
1974.000000	8.066086
1973.000000	8.071186
1972.000000	8.067814
1971.000000	8.063796
1970.000000	8.028007
1969.000000	7.975212
1968.000000	7.922925
1967.000000	7.901528
1966.000000	7.920064
1965.000000	7.891823
1964.000000	7.829191
1963.000000	7.774879
1962.000000	7.757430
1961.000000	7.670668
1960.000000	7.679837
1959.000000	7.668995
1958.000000	7.649501
1957.000000	7.604052
1956.000000	7.582451
1955.000000	7.582349
1954.000000	7.600449
1953.000000	7.554324
1952.000000	7.543886
1951.000000	7.505279
1950.000000	7.477720
1949.000000	7.443662
1948.000000	7.478663
1947.000000	7.442812
1946.000000	7.461423
1945.000000	7.465704
1944.000000	7.449505
1943.000000	7.489369
1942.000000	7.430103
1941.000000	7.425704
1940.000000	7.482581
1939.000000	7.550104
1938.000000	7.565232
1937.000000	7.629696
1936.000000	7.636329
1935.000000	7.668154
1934.000000	7.658224
1933.000000	7.782248
1932.000000	7.709550
1931.000000	7.738192
1930.000000	7.797431
1929.000000	7.888301
1928.000000	7.952626
1927.000000	8.011039
1926.000000	8.123547
1925.000000	8.216002
1924.000000	8.274179
1923.000000	8.360541
1922.000000	8.408520
1921.000000	8.571956
1920.000000	8.633047
1919.000000	8.676676
1918.000000	8.806369
1917.000000	8.913258
1916.000000	8.907088
1915.000000	9.130395
1914.000000	9.230153
1913.000000	9.411955
1912.000000	9.455501
1911.000000	9.563179
1910.000000	9.648209
1909.000000	9.885603
1908.000000	9.934310
1907.000000	10.100856
1906.000000	10.147664
1905.000000	10.379312
1904.000000	10.477232
1903.000000	10.702884
1902.000000	10.830329
1901.000000	11.027481
1900.000000	11.164092
1899.000000	11.319559
1898.000000	11.500199
1897.000000	11.623544
1896.000000	11.814391
1895.000000	11.913897
1894.000000	12.073974
1893.000000	12.249450
1892.000000	12.348953
1891.000000	12.459066
1890.000000	12.702687
1889.000000	12.833688
1888.000000	12.946529
1887.000000	13.101805
1886.000000	13.261086
1885.000000	13.341031
1884.000000	13.457626
1883.000000	13.658818
1882.000000	13.711897
1881.000000	13.836747
1880.000000	13.917633
1879.000000	14.002335
1878.000000	14.106926
1877.000000	14.222294
1876.000000	14.248143
1875.000000	14.340272
1874.000000	14.403854
1873.000000	14.484683
1872.000000	14.532639
1871.000000	14.602988
1870.000000	14.670331
1869.000000	14.684611
1868.000000	14.756245
1867.000000	14.743251
1866.000000	14.776430
1865.000000	14.795352
1864.000000	14.790904
1863.000000	14.817972
1862.000000	14.813928
1861.000000	14.819650
1860.000000	14.859908
1859.000000	14.883291
1858.000000	14.841799
1857.000000	14.877975
1856.000000	14.922897
1855.000000	14.903938
1854.000000	14.919453
1853.000000	14.927409
1852.000000	14.898012
1851.000000	14.912110
1850.000000	14.925207
1849.000000	14.906619
1848.000000	14.879335
1847.000000	14.927859
1846.000000	14.935346
1845.000000	14.895123
1844.000000	14.866100
1843.000000	14.866427
1842.000000	14.868105
1841.000000	14.861746
1840.000000	14.839243
1839.000000	14.854749
1838.000000	14.826692
1837.000000	14.787045
1836.000000	14.755288
1835.000000	14.745208
1834.000000	14.702482
1833.000000	14.671225
1832.000000	14.650031
1831.000000	14.637026
1830.000000	14.632646
1829.000000	14.601360
1828.000000	14.578587
1827.000000	14.579520
1826.000000	14.549547
1825.000000	14.523369
1824.000000	14.504845
1823.000000	14.496716
1822.000000	14.471428
1821.000000	14.446867
1820.000000	14.440469
1819.000000	14.414844
1818.000000	14.391420
1817.000000	14.373383
1816.000000	14.347964
1815.000000	14.334246
1814.000000	14.336073
1813.000000	14.314546
1812.000000	14.300682
1811.000000	14.304616
1810.000000	14.303530
1809.000000	14.288880
1808.000000	14.257528
1807.000000	14.249048
1806.000000	14.238830
1805.000000	14.207709
1804.000000	14.181941
1803.000000	14.167257
1802.000000	14.174807
1801.000000	14.179742
1800.000000	14.163286
1799.000000	14.139334
1798.000000	14.128261
1797.000000	14.140891
1796.000000	14.131095
1795.000000	14.110808
1794.000000	14.102122
1793.000000	14.088442
1792.000000	14.085292
1791.000000	14.066767
1790.000000	14.061535
1789.000000	14.068712
1788.000000	14.071206
1787.000000	14.063601
1786.000000	14.049879
1785.000000	14.045716
1784.000000	14.043406
1783.000000	14.021314
1782.000000	14.005207
1781.000000	14.011419
1780.000000	14.007172
1779.000000	14.005475
1778.000000	13.980681
1777.000000	13.937850
1776.000000	13.921618
1775.000000	13.905608
1774.000000	13.893954
1773.000000	13.860648
1772.000000	13.836267
1771.000000	13.817768
1770.000000	13.802120
1769.000000	13.775443
1768.000000	13.743551
1767.000000	13.738740
1766.000000	13.727373
1765.000000	13.692220
1764.000000	13.657996
1763.000000	13.632915
1762.000000	13.623723
1761.000000	13.601948
1760.000000	13.557025
1759.000000	13.534677
1758.000000	13.537470
1757.000000	13.492731
1756.000000	13.491358
1755.000000	13.469831
1754.000000	13.443802
1753.000000	13.426461
1752.000000	13.408976
1751.000000	13.399216
1750.000000	13.383416
1749.000000	13.377634
1748.000000	13.333408
1747.000000	13.300511
1746.000000	13.239854
1745.000000	13.224734
1744.000000	13.194597
1743.000000	13.197074
1742.000000	13.198055
1741.000000	13.161221
1740.000000	13.136957
1739.000000	13.133856
1738.000000	13.104932
1737.000000	13.086786
1736.000000	13.098153
1735.000000	13.110325
1734.000000	13.066705
1733.000000	13.058689
1732.000000	13.025628
1731.000000	13.062537
1730.000000	13.049544
1729.000000	13.065876
1728.000000	13.090445
1727.000000	13.092918
1726.000000	13.113919
1725.000000	13.107339
1724.000000	13.140530
1723.000000	13.166466
1722.000000	13.184145
1721.000000	13.218213
1720.000000	13.250674
1719.000000	13.274717
1718.000000	13.291678
1717.000000	13.309085
1716.000000	13.338931
1715.000000	13.337652
1714.000000	13.398269
1713.000000	13.405122
1712.000000	13.433015
1711.000000	13.435824
1710.000000	13.442067
1709.000000	13.447358
1708.000000	13.476705
1707.000000	13.491229
1706.000000	13.496222
1705.000000	13.490458
1704.000000	13.527996
1703.000000	13.525730
1702.000000	13.499497
1701.000000	13.509373
1700.000000	13.503152
1699.000000	13.478714
1698.000000	13.526637
1697.000000	13.533789
1696.000000	13.547916
1695.000000	13.555897
1694.000000	13.546310
1693.000000	13.576027
1692.000000	13.558435
1691.000000	13.590563
1690.000000	13.625066
1689.000000	13.653883
1688.000000	13.697035
1687.000000	13.688593
1686.000000	13.749013
1685.000000	13.790114
1684.000000	13.805136
1683.000000	13.866518
1682.000000	13.913029
1681.000000	13.986007
1680.000000	14.020927
1679.000000	14.075657
1678.000000	14.132499
1677.000000	14.162872
1676.000000	14.221301
1675.000000	14.286223
1674.000000	14.304356
1673.000000	14.358365
1672.000000	14.415154
1671.000000	14.475357
1670.000000	14.522326
1669.000000	14.519583
1668.000000	14.553292
1667.000000	14.609071
1666.000000	14.618125
1665.000000	14.629077
1664.000000	14.664559
1663.000000	14.670735
1662.000000	14.701965
1661.000000	14.733182
1660.000000	14.734645
1659.000000	14.793027
1658.000000	14.793111
1657.000000	14.800105
1656.000000	14.813144
1655.000000	14.795055
1654.000000	14.817046
1653.000000	14.821685
1652.000000	14.843787
1651.000000	14.838889
1650.000000	14.816994
1649.000000	14.805562
1648.000000	14.803845
1647.000000	14.778833
1646.000000	14.764317
1645.000000	14.772100
1644.000000	14.769227
1643.000000	14.759088
1642.000000	14.753870
1641.000000	14.736955
1640.000000	14.712055
1639.000000	14.710429
1638.000000	14.702112
1637.000000	14.677910
1636.000000	14.670643
1635.000000	14.653323
1634.000000	14.634548
1633.000000	14.609911
1632.000000	14.593952
1631.000000	14.568220
1630.000000	14.559095
1629.000000	14.550567
1628.000000	14.537688
1627.000000	14.512167
1626.000000	14.485618
1625.000000	14.462405
1624.000000	14.457076
1623.000000	14.451728
1622.000000	14.425463
1621.000000	14.400348
1620.000000	14.391025
1619.000000	14.362916
1618.000000	14.340065
1617.000000	14.323319
1616.000000	14.299705
1615.000000	14.284452
1614.000000	14.269620
1613.000000	14.246822
1612.000000	14.222794
1611.000000	14.206180
1610.000000	14.179370
1609.000000	14.149455
1608.000000	14.125372
1607.000000	14.102275
1606.000000	14.074236
1605.000000	14.049605
1604.000000	14.027850
1603.000000	14.007320
1602.000000	13.989089
1601.000000	13.969844
1600.000000	13.947124
1599.000000	13.919874
1598.000000	13.908977
1597.000000	13.893638
1596.000000	13.871044
1595.000000	13.850237
1594.000000	13.836866
1593.000000	13.827677
1592.000000	13.798854
1591.000000	13.777883
1590.000000	13.754177
1589.000000	13.725084
1588.000000	13.705850
1587.000000	13.694796
1586.000000	13.686330
1585.000000	13.681183
1584.000000	13.660187
1583.000000	13.644190
1582.000000	13.629207
1581.000000	13.601960
1580.000000	13.580401
1579.000000	13.561973
1578.000000	13.545898
1577.000000	13.528575
1576.000000	13.516780
1575.000000	13.503517
1574.000000	13.481653
1573.000000	13.471251
1572.000000	13.457737
1571.000000	13.429926
1570.000000	13.408043
1569.000000	13.401220
1568.000000	13.387332
1567.000000	13.370621
1566.000000	13.353136
1565.000000	13.347788
1564.000000	13.333848
1563.000000	13.324661
1562.000000	13.313563
1561.000000	13.295338
1560.000000	13.273724
1559.000000	13.261308
1558.000000	13.246584
1557.000000	13.233832
1556.000000	13.233025
1555.000000	13.238408
1554.000000	13.211577
1553.000000	13.191217
1552.000000	13.186165
1551.000000	13.165793
1550.000000	13.142416
1549.000000	13.124411
1548.000000	13.122589
1547.000000	13.102587
1546.000000	13.048966
1545.000000	13.019881
1544.000000	13.000646
1543.000000	12.976744
1542.000000	12.946035
1541.000000	12.917855
1540.000000	12.896540
1539.000000	12.847061
1538.000000	12.813332
1537.000000	12.775830
1536.000000	12.751019
1535.000000	12.717275
1534.000000	12.695460
1533.000000	12.671610
1532.000000	12.617469
1531.000000	12.566393
1530.000000	12.553983
1529.000000	12.535213
1528.000000	12.513253
1527.000000	12.522392
1526.000000	12.564213
1525.000000	12.608025
1524.000000	12.596575
1523.000000	12.536903
1522.000000	12.472329
1521.000000	12.418331
1520.000000	12.386731
1519.000000	12.380687
1518.000000	12.366160
1517.000000	12.334836
1516.000000	12.295826
1515.000000	12.288928
1514.000000	12.296064
1513.000000	12.285281
1512.000000	12.256430
1511.000000	12.227759
1510.000000	12.213033
1509.000000	12.209173
1508.000000	12.207297
1507.000000	12.194688
1506.000000	12.166525
1505.000000	12.151422
1504.000000	12.142588
1503.000000	12.134925
1502.000000	12.133128
1501.000000	12.109158
1500.000000	12.093576
1499.000000	12.111067
1498.000000	12.110177
1497.000000	12.108406
1496.000000	12.112921
1495.000000	12.117558
1494.000000	12.109203
1493.000000	12.104897
1492.000000	12.125591
1491.000000	12.135629
1490.000000	12.141062
1489.000000	12.140754
1488.000000	12.146531
1487.000000	12.171919
1486.000000	12.171631
1485.000000	12.171978
1484.000000	12.195174
1483.000000	12.217085
1482.000000	12.233977
1481.000000	12.233956
1480.000000	12.254981
1479.000000	12.267528
1478.000000	12.269635
1477.000000	12.286127
1476.000000	12.293664
1475.000000	12.314465
1474.000000	12.334916
1473.000000	12.351729
1472.000000	12.342639
1471.000000	12.336337
1470.000000	12.345808
1469.000000	12.385224
1468.000000	12.402762
1467.000000	12.412445
1466.000000	12.396101
1465.000000	12.397439
1464.000000	12.403905
1463.000000	12.450883
1462.000000	12.454846
1461.000000	12.433549
1460.000000	12.439789
1459.000000	12.461375
1458.000000	12.481776
1457.000000	12.507918
1456.000000	12.496359
1455.000000	12.517983
1454.000000	12.543487
1453.000000	12.575882
