PE UV       SUBTECH     SPECTRUM    ASCII       PEDS        4.00        
   -1
TTmsmeh82.Sample.asc
18/03/20
12:08:18.00
18/03/20
12:08:18.00
Administrator

200.000000
1
Lambda 750
750N8071901
PerkinElmer UV WinLab 6.0.4.0738 / 1.61.00 Lambda 900

0
0
3350/servo 860.8/2
0
0
UV/VIS
1
1
1
CommonBeamDepol,150mm sphere / downward view
0
0
0
0
Program
Program
3350/servo 860.8/2
3350/0.2 860.8/0.2
3350/0.2 860.8/0.2
0
1
 
 
 
0
 
860.8
319.2
860.8
Front
100
on
 
 
0
0
0
 
0
 
 
 
0
 
 
0
0
0
0
0
 
 
 
 
0
0


0
0
#HDR
-1
-1
#GR
nm
%T
1.0
0.0
2350.000000
-1.000000
2151
8
15.161416
-0.003744
#DATA
2350.000000	8.850319
2349.000000	8.986466
2348.000000	8.970706
2347.000000	9.919182
2346.000000	9.478519
2345.000000	9.302866
2344.000000	8.899794
2343.000000	8.946027
2342.000000	8.982297
2341.000000	9.190561
2340.000000	9.208950
2339.000000	9.412301
2338.000000	9.504419
2337.000000	9.494918
2336.000000	9.883275
2335.000000	9.923824
2334.000000	9.734138
2333.000000	9.825712
2332.000000	9.908620
2331.000000	10.151025
2330.000000	9.858048
2329.000000	9.694068
2328.000000	9.543090
2327.000000	9.585979
2326.000000	9.736986
2325.000000	9.830261
2324.000000	9.611578
2323.000000	9.393753
2322.000000	9.464536
2321.000000	9.327011
2320.000000	9.523144
2319.000000	9.429703
2318.000000	9.273378
2317.000000	9.417484
2316.000000	9.285842
2315.000000	9.309370
2314.000000	9.178510
2313.000000	9.394062
2312.000000	9.126196
2311.000000	9.051061
2310.000000	9.094200
2309.000000	9.039684
2308.000000	9.033908
2307.000000	9.046202
2306.000000	9.179381
2305.000000	9.297490
2304.000000	8.979064
2303.000000	9.294893
2302.000000	8.952114
2301.000000	8.922251
2300.000000	8.864861
2299.000000	8.993754
2298.000000	8.917064
2297.000000	8.842365
2296.000000	8.984962
2295.000000	8.962722
2294.000000	8.904443
2293.000000	8.693297
2292.000000	8.615144
2291.000000	8.762837
2290.000000	8.899086
2289.000000	8.943440
2288.000000	8.865489
2287.000000	8.792647
2286.000000	8.775260
2285.000000	8.583575
2284.000000	8.686082
2283.000000	8.685231
2282.000000	8.811014
2281.000000	8.668683
2280.000000	8.578263
2279.000000	8.696270
2278.000000	8.687426
2277.000000	8.711121
2276.000000	8.864162
2275.000000	8.942517
2274.000000	8.995982
2273.000000	8.994554
2272.000000	8.884857
2271.000000	8.778901
2270.000000	8.811585
2269.000000	8.802436
2268.000000	8.802743
2267.000000	8.844684
2266.000000	8.817116
2265.000000	8.960347
2264.000000	9.165703
2263.000000	9.032374
2262.000000	9.123587
2261.000000	9.271889
2260.000000	9.331239
2259.000000	9.461523
2258.000000	9.450071
2257.000000	9.539855
2256.000000	9.551101
2255.000000	9.610539
2254.000000	9.708025
2253.000000	9.759817
2252.000000	9.792682
2251.000000	9.895178
2250.000000	9.987920
2249.000000	9.961757
2248.000000	10.010496
2247.000000	10.105461
2246.000000	10.161522
2245.000000	10.323924
2244.000000	10.417988
2243.000000	10.475464
2242.000000	10.504372
2241.000000	10.526993
2240.000000	10.647832
2239.000000	10.624829
2238.000000	10.659495
2237.000000	10.657709
2236.000000	10.664551
2235.000000	10.782206
2234.000000	10.771847
2233.000000	10.791802
2232.000000	10.803691
2231.000000	10.794854
2230.000000	10.877182
2229.000000	10.930779
2228.000000	10.936374
2227.000000	10.811254
2226.000000	10.792704
2225.000000	10.902404
2224.000000	10.807730
2223.000000	10.763847
2222.000000	10.668028
2221.000000	10.596946
2220.000000	10.735860
2219.000000	10.794766
2218.000000	10.684442
2217.000000	10.720035
2216.000000	10.806534
2215.000000	10.821889
2214.000000	10.756679
2213.000000	10.679806
2212.000000	10.649257
2211.000000	10.602597
2210.000000	10.580090
2209.000000	10.481640
2208.000000	10.558502
2207.000000	10.534937
2206.000000	10.536991
2205.000000	10.575337
2204.000000	10.434734
2203.000000	10.448752
2202.000000	10.529668
2201.000000	10.458733
2200.000000	10.437411
2199.000000	10.350442
2198.000000	10.312340
2197.000000	10.281851
2196.000000	10.209386
2195.000000	10.183622
2194.000000	10.176661
2193.000000	10.207581
2192.000000	10.038258
2191.000000	10.072986
2190.000000	10.121844
2189.000000	10.114702
2188.000000	10.111393
2187.000000	9.980959
2186.000000	9.958967
2185.000000	9.942186
2184.000000	9.952204
2183.000000	10.014243
2182.000000	10.109526
2181.000000	9.970850
2180.000000	9.893384
2179.000000	9.857316
2178.000000	9.925446
2177.000000	9.818972
2176.000000	9.782872
2175.000000	9.943222
2174.000000	9.941958
2173.000000	9.802677
2172.000000	9.955388
2171.000000	9.985938
2170.000000	9.903073
2169.000000	9.897335
2168.000000	10.100100
2167.000000	10.259010
2166.000000	10.126612
2165.000000	10.183318
2164.000000	10.262581
2163.000000	10.354950
2162.000000	10.257994
2161.000000	10.201830
2160.000000	10.366528
2159.000000	10.336142
2158.000000	10.350339
2157.000000	10.295646
2156.000000	10.389125
2155.000000	10.504670
2154.000000	10.709997
2153.000000	10.776139
2152.000000	10.742833
2151.000000	10.538984
2150.000000	10.711438
2149.000000	10.663523
2148.000000	10.718405
2147.000000	11.031342
2146.000000	10.859525
2145.000000	10.813609
2144.000000	10.848912
2143.000000	10.836929
2142.000000	10.960236
2141.000000	11.150368
2140.000000	11.215879
2139.000000	11.138806
2138.000000	11.250723
2137.000000	11.463419
2136.000000	11.261606
2135.000000	11.338435
2134.000000	11.495296
2133.000000	11.185049
2132.000000	11.302138
2131.000000	11.527164
2130.000000	11.500173
2129.000000	11.364539
2128.000000	11.495126
2127.000000	11.396287
2126.000000	11.352186
2125.000000	11.302126
2124.000000	11.429154
2123.000000	11.354085
2122.000000	11.558237
2121.000000	11.713073
2120.000000	11.480155
2119.000000	11.554431
2118.000000	11.679446
2117.000000	11.556262
2116.000000	11.582273
2115.000000	11.631782
2114.000000	11.598953
2113.000000	11.636689
2112.000000	11.648253
2111.000000	11.582303
2110.000000	11.635731
2109.000000	11.589037
2108.000000	11.584934
2107.000000	11.688306
2106.000000	11.581205
2105.000000	11.487350
2104.000000	11.558921
2103.000000	11.593547
2102.000000	11.580367
2101.000000	11.593787
2100.000000	11.544730
2099.000000	11.560809
2098.000000	11.615473
2097.000000	11.649110
2096.000000	11.510002
2095.000000	11.550940
2094.000000	11.589829
2093.000000	11.527046
2092.000000	11.547206
2091.000000	11.448363
2090.000000	11.577218
2089.000000	11.595045
2088.000000	11.522575
2087.000000	11.500886
2086.000000	11.592359
2085.000000	11.574129
2084.000000	11.553150
2083.000000	11.486570
2082.000000	11.459829
2081.000000	11.430482
2080.000000	11.429222
2079.000000	11.340811
2078.000000	11.318506
2077.000000	11.311006
2076.000000	11.309474
2075.000000	11.260037
2074.000000	11.155043
2073.000000	11.070385
2072.000000	11.113159
2071.000000	11.151841
2070.000000	11.083448
2069.000000	10.955754
2068.000000	10.901562
2067.000000	10.891683
2066.000000	10.853617
2065.000000	10.745452
2064.000000	10.704239
2063.000000	10.698365
2062.000000	10.656452
2061.000000	10.563455
2060.000000	10.529552
2059.000000	10.485109
2058.000000	10.395487
2057.000000	10.338808
2056.000000	10.335758
2055.000000	10.371829
2054.000000	10.298332
2053.000000	10.265804
2052.000000	10.177489
2051.000000	10.130724
2050.000000	10.092141
2049.000000	10.089386
2048.000000	10.062216
2047.000000	10.089191
2046.000000	10.037665
2045.000000	9.978614
2044.000000	9.984320
2043.000000	10.012606
2042.000000	10.066774
2041.000000	10.060832
2040.000000	9.983660
2039.000000	10.012624
2038.000000	10.041638
2037.000000	10.052083
2036.000000	10.066769
2035.000000	10.055308
2034.000000	10.060430
2033.000000	10.106264
2032.000000	10.198438
2031.000000	10.256161
2030.000000	10.254491
2029.000000	10.299335
2028.000000	10.322590
2027.000000	10.355845
2026.000000	10.420008
2025.000000	10.443647
2024.000000	10.448729
2023.000000	10.470722
2022.000000	10.478563
2021.000000	10.490383
2020.000000	10.519698
2019.000000	10.520737
2018.000000	10.488141
2017.000000	10.469457
2016.000000	10.481620
2015.000000	10.528432
2014.000000	10.538489
2013.000000	10.505458
2012.000000	10.495608
2011.000000	10.472796
2010.000000	10.433049
2009.000000	10.420385
2008.000000	10.409586
2007.000000	10.356292
2006.000000	10.315033
2005.000000	10.327680
2004.000000	10.264526
2003.000000	10.202523
2002.000000	10.160237
2001.000000	10.136316
2000.000000	10.110463
1999.000000	10.086576
1998.000000	10.057819
1997.000000	10.009447
1996.000000	9.999076
1995.000000	10.009775
1994.000000	9.948298
1993.000000	9.885933
1992.000000	9.846910
1991.000000	9.803031
1990.000000	9.767741
1989.000000	9.725573
1988.000000	9.675164
1987.000000	9.658893
1986.000000	9.641772
1985.000000	9.623820
1984.000000	9.620519
1983.000000	9.566446
1982.000000	9.535094
1981.000000	9.517056
1980.000000	9.448182
1979.000000	9.404676
1978.000000	9.357194
1977.000000	9.309420
1976.000000	9.272570
1975.000000	9.246337
1974.000000	9.218587
1973.000000	9.190390
1972.000000	9.179802
1971.000000	9.157096
1970.000000	9.115774
1969.000000	9.100190
1968.000000	9.056775
1967.000000	8.999843
1966.000000	9.004960
1965.000000	9.001508
1964.000000	8.912070
1963.000000	8.915636
1962.000000	8.877444
1961.000000	8.810064
1960.000000	8.796324
1959.000000	8.777477
1958.000000	8.766850
1957.000000	8.769472
1956.000000	8.725387
1955.000000	8.682260
1954.000000	8.670348
1953.000000	8.631756
1952.000000	8.582088
1951.000000	8.584795
1950.000000	8.589149
1949.000000	8.598517
1948.000000	8.611788
1947.000000	8.552622
1946.000000	8.570360
1945.000000	8.604126
1944.000000	8.559004
1943.000000	8.605954
1942.000000	8.542456
1941.000000	8.622442
1940.000000	8.604649
1939.000000	8.593518
1938.000000	8.581609
1937.000000	8.697056
1936.000000	8.750155
1935.000000	8.727710
1934.000000	8.732177
1933.000000	8.789251
1932.000000	8.805606
1931.000000	8.895070
1930.000000	8.987122
1929.000000	9.030676
1928.000000	9.068825
1927.000000	9.130312
1926.000000	9.174751
1925.000000	9.268152
1924.000000	9.362433
1923.000000	9.391920
1922.000000	9.483439
1921.000000	9.617436
1920.000000	9.632328
1919.000000	9.780249
1918.000000	9.852662
1917.000000	9.956847
1916.000000	9.985007
1915.000000	10.161447
1914.000000	10.269335
1913.000000	10.420317
1912.000000	10.482183
1911.000000	10.629872
1910.000000	10.658793
1909.000000	10.860189
1908.000000	10.917423
1907.000000	11.058544
1906.000000	11.179218
1905.000000	11.327010
1904.000000	11.458863
1903.000000	11.617182
1902.000000	11.748745
1901.000000	11.863767
1900.000000	12.019150
1899.000000	12.179087
1898.000000	12.352269
1897.000000	12.466595
1896.000000	12.570687
1895.000000	12.719143
1894.000000	12.776662
1893.000000	12.934775
1892.000000	13.091279
1891.000000	13.195167
1890.000000	13.333821
1889.000000	13.464728
1888.000000	13.575083
1887.000000	13.664848
1886.000000	13.760315
1885.000000	13.863864
1884.000000	13.965681
1883.000000	14.079870
1882.000000	14.173504
1881.000000	14.269110
1880.000000	14.312132
1879.000000	14.406734
1878.000000	14.463199
1877.000000	14.553880
1876.000000	14.582015
1875.000000	14.641151
1874.000000	14.725884
1873.000000	14.768086
1872.000000	14.802434
1871.000000	14.875636
1870.000000	14.890442
1869.000000	14.889873
1868.000000	14.924723
1867.000000	14.971817
1866.000000	14.965822
1865.000000	14.969974
1864.000000	14.968319
1863.000000	15.012189
1862.000000	15.019576
1861.000000	15.035717
1860.000000	14.998986
1859.000000	14.985324
1858.000000	15.057975
1857.000000	15.051021
1856.000000	15.016137
1855.000000	15.044843
1854.000000	15.056977
1853.000000	15.071608
1852.000000	15.071009
1851.000000	15.025281
1850.000000	15.000958
1849.000000	15.027395
1848.000000	15.035768
1847.000000	15.033533
1846.000000	15.039425
1845.000000	15.045853
1844.000000	15.012844
1843.000000	14.986576
1842.000000	15.007849
1841.000000	15.008253
1840.000000	14.984459
1839.000000	14.966945
1838.000000	14.938494
1837.000000	14.937793
1836.000000	14.917736
1835.000000	14.903311
1834.000000	14.877352
1833.000000	14.861834
1832.000000	14.824729
1831.000000	14.809788
1830.000000	14.805125
1829.000000	14.792813
1828.000000	14.767610
1827.000000	14.744384
1826.000000	14.732179
1825.000000	14.721862
1824.000000	14.730389
1823.000000	14.732119
1822.000000	14.695881
1821.000000	14.677254
1820.000000	14.659076
1819.000000	14.639093
1818.000000	14.643315
1817.000000	14.628813
1816.000000	14.613398
1815.000000	14.606084
1814.000000	14.591844
1813.000000	14.584153
1812.000000	14.584316
1811.000000	14.578695
1810.000000	14.561482
1809.000000	14.562843
1808.000000	14.543675
1807.000000	14.524718
1806.000000	14.521878
1805.000000	14.510723
1804.000000	14.490995
1803.000000	14.463247
1802.000000	14.464464
1801.000000	14.482159
1800.000000	14.472204
1799.000000	14.460824
1798.000000	14.459015
1797.000000	14.435767
1796.000000	14.438664
1795.000000	14.438527
1794.000000	14.440441
1793.000000	14.432169
1792.000000	14.411570
1791.000000	14.413895
1790.000000	14.413219
1789.000000	14.410961
1788.000000	14.425896
1787.000000	14.428878
1786.000000	14.404416
1785.000000	14.405060
1784.000000	14.396429
1783.000000	14.389562
1782.000000	14.384573
1781.000000	14.386401
1780.000000	14.375003
1779.000000	14.368929
1778.000000	14.359724
1777.000000	14.323097
1776.000000	14.309889
1775.000000	14.293909
1774.000000	14.288751
1773.000000	14.284116
1772.000000	14.260123
1771.000000	14.230615
1770.000000	14.226206
1769.000000	14.191802
1768.000000	14.150522
1767.000000	14.168028
1766.000000	14.164656
1765.000000	14.121729
1764.000000	14.092324
1763.000000	14.059548
1762.000000	14.047071
1761.000000	14.066670
1760.000000	14.028695
1759.000000	14.006850
1758.000000	13.982592
1757.000000	13.973223
1756.000000	13.968198
1755.000000	13.934915
1754.000000	13.906011
1753.000000	13.897388
1752.000000	13.895349
1751.000000	13.890383
1750.000000	13.875972
1749.000000	13.883389
1748.000000	13.841457
1747.000000	13.794369
1746.000000	13.802376
1745.000000	13.739056
1744.000000	13.735630
1743.000000	13.731011
1742.000000	13.718034
1741.000000	13.709914
1740.000000	13.690351
1739.000000	13.642547
1738.000000	13.637893
1737.000000	13.618223
1736.000000	13.622571
1735.000000	13.636909
1734.000000	13.621856
1733.000000	13.607754
1732.000000	13.591341
1731.000000	13.584465
1730.000000	13.578281
1729.000000	13.575224
1728.000000	13.601782
1727.000000	13.584889
1726.000000	13.609883
1725.000000	13.654483
1724.000000	13.694559
1723.000000	13.677275
1722.000000	13.702866
1721.000000	13.742029
1720.000000	13.743966
1719.000000	13.769706
1718.000000	13.782103
1717.000000	13.825667
1716.000000	13.844445
1715.000000	13.849430
1714.000000	13.880050
1713.000000	13.910805
1712.000000	13.914581
1711.000000	13.909588
1710.000000	13.962865
1709.000000	13.938576
1708.000000	13.957039
1707.000000	13.990110
1706.000000	13.983506
1705.000000	13.991697
1704.000000	14.033156
1703.000000	14.024495
1702.000000	14.004577
1701.000000	13.992014
1700.000000	14.022430
1699.000000	13.985614
1698.000000	14.020655
1697.000000	14.010892
1696.000000	14.051681
1695.000000	14.063577
1694.000000	14.063893
1693.000000	14.087428
1692.000000	14.070417
1691.000000	14.104588
1690.000000	14.121137
1689.000000	14.132237
1688.000000	14.165501
1687.000000	14.173464
1686.000000	14.238634
1685.000000	14.234983
1684.000000	14.279122
1683.000000	14.328711
1682.000000	14.361433
1681.000000	14.429238
1680.000000	14.447683
1679.000000	14.481786
1678.000000	14.526734
1677.000000	14.570925
1676.000000	14.576345
1675.000000	14.623471
1674.000000	14.656096
1673.000000	14.687849
1672.000000	14.740600
1671.000000	14.767918
1670.000000	14.800949
1669.000000	14.801626
1668.000000	14.821189
1667.000000	14.861847
1666.000000	14.855781
1665.000000	14.865590
1664.000000	14.873343
1663.000000	14.908112
1662.000000	14.934415
1661.000000	14.944276
1660.000000	14.959118
1659.000000	14.985054
1658.000000	14.978047
1657.000000	14.998329
1656.000000	15.011337
1655.000000	15.017518
1654.000000	15.029794
1653.000000	15.025349
1652.000000	15.019106
1651.000000	15.033110
1650.000000	15.023038
1649.000000	15.013725
1648.000000	15.007704
1647.000000	15.009748
1646.000000	15.011078
1645.000000	15.008508
1644.000000	14.994047
1643.000000	14.991029
1642.000000	14.991990
1641.000000	14.962656
1640.000000	14.948725
1639.000000	14.937856
1638.000000	14.961569
1637.000000	14.942717
1636.000000	14.925385
1635.000000	14.910324
1634.000000	14.899993
1633.000000	14.881761
1632.000000	14.879534
1631.000000	14.857502
1630.000000	14.854271
1629.000000	14.849725
1628.000000	14.825579
1627.000000	14.819977
1626.000000	14.825214
1625.000000	14.806658
1624.000000	14.783344
1623.000000	14.777067
1622.000000	14.764713
1621.000000	14.745699
1620.000000	14.722383
1619.000000	14.708192
1618.000000	14.704875
1617.000000	14.706743
1616.000000	14.682315
1615.000000	14.655455
1614.000000	14.643465
1613.000000	14.626235
1612.000000	14.615900
1611.000000	14.597859
1610.000000	14.575800
1609.000000	14.562165
1608.000000	14.560416
1607.000000	14.548720
1606.000000	14.537080
1605.000000	14.508401
1604.000000	14.488534
1603.000000	14.484149
1602.000000	14.471738
1601.000000	14.457270
1600.000000	14.444575
1599.000000	14.431949
1598.000000	14.412536
1597.000000	14.393642
1596.000000	14.381593
1595.000000	14.370128
1594.000000	14.349535
1593.000000	14.345193
1592.000000	14.328751
1591.000000	14.306332
1590.000000	14.299818
1589.000000	14.281884
1588.000000	14.268332
1587.000000	14.257663
1586.000000	14.249927
1585.000000	14.238809
1584.000000	14.221073
1583.000000	14.209829
1582.000000	14.192732
1581.000000	14.188920
1580.000000	14.183902
1579.000000	14.168612
1578.000000	14.157100
1577.000000	14.144346
1576.000000	14.126138
1575.000000	14.119511
1574.000000	14.105748
1573.000000	14.088225
1572.000000	14.078165
1571.000000	14.058994
1570.000000	14.054994
1569.000000	14.051750
1568.000000	14.036533
1567.000000	14.012994
1566.000000	14.008662
1565.000000	13.996628
1564.000000	13.979856
1563.000000	13.986573
1562.000000	13.983862
1561.000000	13.963264
1560.000000	13.956412
1559.000000	13.942969
1558.000000	13.933559
1557.000000	13.935919
1556.000000	13.926758
1555.000000	13.915316
1554.000000	13.911970
1553.000000	13.903084
1552.000000	13.889007
1551.000000	13.869156
1550.000000	13.845563
1549.000000	13.844261
1548.000000	13.822791
1547.000000	13.813206
1546.000000	13.810896
1545.000000	13.780254
1544.000000	13.753671
1543.000000	13.739515
1542.000000	13.717267
1541.000000	13.690062
1540.000000	13.689697
1539.000000	13.660956
1538.000000	13.622282
1537.000000	13.599629
1536.000000	13.568779
1535.000000	13.546675
1534.000000	13.524060
1533.000000	13.504010
1532.000000	13.465131
1531.000000	13.446521
1530.000000	13.423098
1529.000000	13.394237
1528.000000	13.380101
1527.000000	13.417886
1526.000000	13.482763
1525.000000	13.525046
1524.000000	13.508221
1523.000000	13.452541
1522.000000	13.384396
1521.000000	13.339162
1520.000000	13.305268
1519.000000	13.274053
1518.000000	13.257734
1517.000000	13.257479
1516.000000	13.254883
1515.000000	13.223674
1514.000000	13.210991
1513.000000	13.223123
1512.000000	13.233910
1511.000000	13.201910
1510.000000	13.169970
1509.000000	13.149629
1508.000000	13.130093
1507.000000	13.121796
1506.000000	13.148202
1505.000000	13.152199
1504.000000	13.130762
1503.000000	13.119598
1502.000000	13.104851
1501.000000	13.082112
1500.000000	13.077880
1499.000000	13.077832
1498.000000	13.089637
1497.000000	13.073166
1496.000000	13.063981
1495.000000	13.087255
1494.000000	13.069165
1493.000000	13.082162
1492.000000	13.096358
1491.000000	13.093205
1490.000000	13.099246
1489.000000	13.102976
1488.000000	13.113184
1487.000000	13.132384
1486.000000	13.124282
1485.000000	13.131430
1484.000000	13.144498
1483.000000	13.164289
1482.000000	13.185409
1481.000000	13.186096
1480.000000	13.184249
1479.000000	13.177519
1478.000000	13.214344
1477.000000	13.216493
1476.000000	13.236972
1475.000000	13.241847
1474.000000	13.242433
1473.000000	13.228106
1472.000000	13.236898
1471.000000	13.245207
1470.000000	13.254868
1469.000000	13.256635
1468.000000	13.260645
1467.000000	13.278550
1466.000000	13.299875
1465.000000	13.317433
1464.000000	13.296831
1463.000000	13.299180
1462.000000	13.305712
1461.000000	13.345921
1460.000000	13.373718
