PE UV       SUBTECH     SPECTRUM    ASCII       PEDS        4.00        
   -1
TTms1240122.Sample.asc
18/03/20
17:38:55.00
18/03/20
17:38:55.00
Administrator

200.000000
1
Lambda 750
750N8071901
PerkinElmer UV WinLab 6.0.4.0738 / 1.61.00 Lambda 900

0
0
3350/servo 860.8/2
0
0
UV/VIS
1
1
1
CommonBeamDepol,150mm sphere / downward view
0
0
0
0
Program
Program
3350/servo 860.8/2
3350/0.2 860.8/0.2
3350/0.2 860.8/0.2
0
1
 
 
 
0
 
860.8
319.2
860.8
Front
100
on
 
 
0
0
0
 
0
 
 
 
0
 
 
0
0
0
0
0
 
 
 
 
0
0


0
0
#HDR
-1
-1
#GR
nm
%T
1.0
0.0
2350.000000
-1.000000
2151
8
20.063736
0.023111
#DATA
2350.000000	13.782649
2349.000000	14.114562
2348.000000	13.849864
2347.000000	14.251273
2346.000000	14.157542
2345.000000	13.887543
2344.000000	13.451590
2343.000000	13.867631
2342.000000	13.679722
2341.000000	13.699967
2340.000000	14.194774
2339.000000	14.439223
2338.000000	14.205268
2337.000000	14.368541
2336.000000	14.309513
2335.000000	14.492705
2334.000000	14.274906
2333.000000	14.640368
2332.000000	14.638101
2331.000000	14.671531
2330.000000	14.356186
2329.000000	14.542679
2328.000000	14.467678
2327.000000	14.169608
2326.000000	14.169755
2325.000000	14.074050
2324.000000	14.294900
2323.000000	13.959157
2322.000000	14.038514
2321.000000	14.325436
2320.000000	14.168032
2319.000000	14.063066
2318.000000	13.747912
2317.000000	14.043921
2316.000000	13.761119
2315.000000	13.746141
2314.000000	13.821889
2313.000000	13.758727
2312.000000	13.623809
2311.000000	13.772912
2310.000000	13.864367
2309.000000	13.778008
2308.000000	13.552392
2307.000000	13.605042
2306.000000	13.463718
2305.000000	13.550530
2304.000000	13.644351
2303.000000	13.610603
2302.000000	13.484424
2301.000000	13.447907
2300.000000	13.095960
2299.000000	13.119292
2298.000000	13.141807
2297.000000	13.029020
2296.000000	13.084362
2295.000000	13.092262
2294.000000	13.076480
2293.000000	13.196546
2292.000000	13.145323
2291.000000	13.121688
2290.000000	13.049725
2289.000000	13.103355
2288.000000	13.201009
2287.000000	13.236533
2286.000000	13.141548
2285.000000	12.875109
2284.000000	13.024205
2283.000000	13.125930
2282.000000	12.984530
2281.000000	12.896264
2280.000000	12.952726
2279.000000	13.031038
2278.000000	12.918641
2277.000000	12.928083
2276.000000	13.010635
2275.000000	12.984777
2274.000000	12.873926
2273.000000	13.137712
2272.000000	13.202172
2271.000000	13.091235
2270.000000	13.106515
2269.000000	13.185107
2268.000000	13.253968
2267.000000	13.326597
2266.000000	13.386116
2265.000000	13.318942
2264.000000	13.439531
2263.000000	13.437815
2262.000000	13.418380
2261.000000	13.473237
2260.000000	13.534435
2259.000000	13.552465
2258.000000	13.773389
2257.000000	13.958165
2256.000000	13.990134
2255.000000	13.943523
2254.000000	13.983192
2253.000000	14.220345
2252.000000	14.318090
2251.000000	14.243538
2250.000000	14.283383
2249.000000	14.486718
2248.000000	14.579673
2247.000000	14.616571
2246.000000	14.658385
2245.000000	14.799282
2244.000000	14.902285
2243.000000	14.960034
2242.000000	15.045577
2241.000000	15.091262
2240.000000	15.174103
2239.000000	15.281072
2238.000000	15.326540
2237.000000	15.310870
2236.000000	15.416083
2235.000000	15.491141
2234.000000	15.465215
2233.000000	15.424973
2232.000000	15.339256
2231.000000	15.414932
2230.000000	15.463033
2229.000000	15.447808
2228.000000	15.461184
2227.000000	15.481653
2226.000000	15.451136
2225.000000	15.433434
2224.000000	15.352209
2223.000000	15.453054
2222.000000	15.432583
2221.000000	15.340632
2220.000000	15.351961
2219.000000	15.357076
2218.000000	15.237616
2217.000000	15.175705
2216.000000	15.238275
2215.000000	15.386562
2214.000000	15.347243
2213.000000	15.337877
2212.000000	15.284690
2211.000000	15.283120
2210.000000	15.238289
2209.000000	15.165007
2208.000000	15.130275
2207.000000	15.038050
2206.000000	15.062623
2205.000000	14.973310
2204.000000	15.037474
2203.000000	14.999449
2202.000000	14.908839
2201.000000	14.906070
2200.000000	14.970601
2199.000000	14.836577
2198.000000	14.793361
2197.000000	14.716683
2196.000000	14.661677
2195.000000	14.706711
2194.000000	14.621914
2193.000000	14.524733
2192.000000	14.691557
2191.000000	14.604420
2190.000000	14.688765
2189.000000	14.514781
2188.000000	14.379369
2187.000000	14.457651
2186.000000	14.443557
2185.000000	14.415190
2184.000000	14.470026
2183.000000	14.451373
2182.000000	14.565362
2181.000000	14.404357
2180.000000	14.379413
2179.000000	14.294808
2178.000000	14.308217
2177.000000	14.313110
2176.000000	14.322864
2175.000000	14.300727
2174.000000	14.389265
2173.000000	14.419265
2172.000000	14.504593
2171.000000	14.515643
2170.000000	14.472486
2169.000000	14.519593
2168.000000	14.641694
2167.000000	14.585204
2166.000000	14.629376
2165.000000	14.485575
2164.000000	14.609240
2163.000000	14.522700
2162.000000	14.748324
2161.000000	14.775471
2160.000000	14.692080
2159.000000	14.839265
2158.000000	14.822178
2157.000000	14.872288
2156.000000	14.923593
2155.000000	15.004548
2154.000000	15.052751
2153.000000	15.190305
2152.000000	15.272127
2151.000000	15.225127
2150.000000	15.326654
2149.000000	15.398483
2148.000000	15.538783
2147.000000	15.496481
2146.000000	15.342575
2145.000000	15.543252
2144.000000	15.561542
2143.000000	15.603931
2142.000000	15.639237
2141.000000	15.763821
2140.000000	15.829002
2139.000000	15.897505
2138.000000	15.811607
2137.000000	15.803726
2136.000000	15.880214
2135.000000	16.128697
2134.000000	15.989327
2133.000000	15.940832
2132.000000	16.029624
2131.000000	16.145015
2130.000000	16.213693
2129.000000	16.245180
2128.000000	16.143831
2127.000000	16.008090
2126.000000	16.163875
2125.000000	16.050650
2124.000000	16.169780
2123.000000	16.116260
2122.000000	16.258176
2121.000000	16.176673
2120.000000	16.124840
2119.000000	16.096256
2118.000000	16.317951
2117.000000	16.312407
2116.000000	16.388301
2115.000000	16.250723
2114.000000	16.205779
2113.000000	16.233028
2112.000000	16.082663
2111.000000	16.243385
2110.000000	16.397733
2109.000000	16.308995
2108.000000	16.192963
2107.000000	16.240117
2106.000000	16.202897
2105.000000	16.248393
2104.000000	16.302728
2103.000000	16.266085
2102.000000	16.264735
2101.000000	16.227127
2100.000000	16.307612
2099.000000	16.289837
2098.000000	16.239987
2097.000000	16.159573
2096.000000	16.119793
2095.000000	16.125704
2094.000000	16.201314
2093.000000	16.113010
2092.000000	16.268120
2091.000000	16.206530
2090.000000	16.190425
2089.000000	16.166623
2088.000000	16.160405
2087.000000	16.077156
2086.000000	16.027378
2085.000000	16.086655
2084.000000	16.066028
2083.000000	15.932981
2082.000000	15.966423
2081.000000	15.968095
2080.000000	15.889888
2079.000000	15.882183
2078.000000	15.826361
2077.000000	15.792908
2076.000000	15.796271
2075.000000	15.695672
2074.000000	15.600063
2073.000000	15.613434
2072.000000	15.568588
2071.000000	15.519737
2070.000000	15.502887
2069.000000	15.452977
2068.000000	15.379790
2067.000000	15.314373
2066.000000	15.303379
2065.000000	15.194880
2064.000000	15.109676
2063.000000	14.995673
2062.000000	14.974688
2061.000000	14.926190
2060.000000	14.871839
2059.000000	14.846659
2058.000000	14.825611
2057.000000	14.750551
2056.000000	14.686013
2055.000000	14.588307
2054.000000	14.500933
2053.000000	14.503764
2052.000000	14.439304
2051.000000	14.343648
2050.000000	14.338058
2049.000000	14.305168
2048.000000	14.281738
2047.000000	14.278264
2046.000000	14.254590
2045.000000	14.178502
2044.000000	14.189390
2043.000000	14.239489
2042.000000	14.230240
2041.000000	14.215511
2040.000000	14.221194
2039.000000	14.189051
2038.000000	14.179485
2037.000000	14.203540
2036.000000	14.228494
2035.000000	14.256684
2034.000000	14.313112
2033.000000	14.351189
2032.000000	14.415540
2031.000000	14.404917
2030.000000	14.392874
2029.000000	14.443998
2028.000000	14.465516
2027.000000	14.484611
2026.000000	14.556634
2025.000000	14.610371
2024.000000	14.626241
2023.000000	14.659857
2022.000000	14.683621
2021.000000	14.678610
2020.000000	14.702421
2019.000000	14.719057
2018.000000	14.704403
2017.000000	14.701622
2016.000000	14.677881
2015.000000	14.657655
2014.000000	14.654410
2013.000000	14.635877
2012.000000	14.625224
2011.000000	14.611309
2010.000000	14.580997
2009.000000	14.575833
2008.000000	14.540728
2007.000000	14.480518
2006.000000	14.438387
2005.000000	14.389056
2004.000000	14.324537
2003.000000	14.295279
2002.000000	14.245666
2001.000000	14.189829
2000.000000	14.170023
1999.000000	14.146277
1998.000000	14.090244
1997.000000	14.066679
1996.000000	14.042181
1995.000000	13.952891
1994.000000	13.903601
1993.000000	13.885077
1992.000000	13.787494
1991.000000	13.748995
1990.000000	13.723129
1989.000000	13.643680
1988.000000	13.592147
1987.000000	13.581596
1986.000000	13.517501
1985.000000	13.458641
1984.000000	13.393147
1983.000000	13.351327
1982.000000	13.319976
1981.000000	13.277558
1980.000000	13.210522
1979.000000	13.136130
1978.000000	13.130283
1977.000000	13.098524
1976.000000	13.043063
1975.000000	13.032990
1974.000000	12.940064
1973.000000	12.910905
1972.000000	12.876023
1971.000000	12.813002
1970.000000	12.770116
1969.000000	12.751752
1968.000000	12.688283
1967.000000	12.621249
1966.000000	12.620218
1965.000000	12.577440
1964.000000	12.521922
1963.000000	12.491368
1962.000000	12.429364
1961.000000	12.365554
1960.000000	12.356213
1959.000000	12.297674
1958.000000	12.263947
1957.000000	12.245006
1956.000000	12.213513
1955.000000	12.204450
1954.000000	12.128064
1953.000000	12.146539
1952.000000	12.114328
1951.000000	12.122529
1950.000000	12.052172
1949.000000	12.046776
1948.000000	12.034085
1947.000000	11.975580
1946.000000	12.003125
1945.000000	11.997479
1944.000000	12.010813
1943.000000	12.044451
1942.000000	11.997048
1941.000000	12.001144
1940.000000	12.101973
1939.000000	12.079043
1938.000000	12.061736
1937.000000	12.168055
1936.000000	12.209315
1935.000000	12.241176
1934.000000	12.263851
1933.000000	12.283085
1932.000000	12.349269
1931.000000	12.330634
1930.000000	12.512351
1929.000000	12.519159
1928.000000	12.577588
1927.000000	12.622337
1926.000000	12.692704
1925.000000	12.842548
1924.000000	12.955038
1923.000000	13.042430
1922.000000	13.083576
1921.000000	13.265895
1920.000000	13.330441
1919.000000	13.420753
1918.000000	13.576047
1917.000000	13.718686
1916.000000	13.775619
1915.000000	13.912661
1914.000000	14.076526
1913.000000	14.228273
1912.000000	14.320023
1911.000000	14.412862
1910.000000	14.564045
1909.000000	14.745093
1908.000000	14.967814
1907.000000	15.087975
1906.000000	15.247104
1905.000000	15.322300
1904.000000	15.576366
1903.000000	15.782058
1902.000000	15.928438
1901.000000	16.108237
1900.000000	16.287328
1899.000000	16.423766
1898.000000	16.647928
1897.000000	16.812327
1896.000000	16.967372
1895.000000	17.112267
1894.000000	17.292381
1893.000000	17.418250
1892.000000	17.574321
1891.000000	17.732818
1890.000000	17.878071
1889.000000	18.000030
1888.000000	18.180186
1887.000000	18.315424
1886.000000	18.440757
1885.000000	18.556623
1884.000000	18.666450
1883.000000	18.804046
1882.000000	18.905396
1881.000000	19.026966
1880.000000	19.096469
1879.000000	19.176835
1878.000000	19.278169
1877.000000	19.365296
1876.000000	19.446800
1875.000000	19.585230
1874.000000	19.628160
1873.000000	19.645328
1872.000000	19.745323
1871.000000	19.788686
1870.000000	19.836749
1869.000000	19.876591
1868.000000	19.924819
1867.000000	19.979854
1866.000000	19.962715
1865.000000	20.001600
1864.000000	19.942986
1863.000000	19.970015
1862.000000	19.988635
1861.000000	19.984058
1860.000000	20.027348
1859.000000	20.029932
1858.000000	20.029556
1857.000000	20.031001
1856.000000	20.037666
1855.000000	20.050763
1854.000000	20.063736
1853.000000	20.055610
1852.000000	20.057845
1851.000000	20.055368
1850.000000	20.029836
1849.000000	20.016851
1848.000000	20.052957
1847.000000	20.038790
1846.000000	20.033578
1845.000000	20.063704
1844.000000	20.048758
1843.000000	20.047184
1842.000000	20.049434
1841.000000	20.004638
1840.000000	19.992852
1839.000000	19.980882
1838.000000	19.974127
1837.000000	19.942672
1836.000000	19.913409
1835.000000	19.899271
1834.000000	19.861290
1833.000000	19.844817
1832.000000	19.831700
1831.000000	19.791209
1830.000000	19.789481
1829.000000	19.756136
1828.000000	19.736186
1827.000000	19.702940
1826.000000	19.687941
1825.000000	19.651113
1824.000000	19.639468
1823.000000	19.645706
1822.000000	19.622060
1821.000000	19.598304
1820.000000	19.597793
1819.000000	19.577971
1818.000000	19.561357
1817.000000	19.535058
1816.000000	19.509260
1815.000000	19.507548
1814.000000	19.483341
1813.000000	19.464008
1812.000000	19.452402
1811.000000	19.453817
1810.000000	19.447250
1809.000000	19.432240
1808.000000	19.402526
1807.000000	19.377839
1806.000000	19.371578
1805.000000	19.357469
1804.000000	19.338042
1803.000000	19.327799
1802.000000	19.319420
1801.000000	19.319290
1800.000000	19.305490
1799.000000	19.278084
1798.000000	19.274105
1797.000000	19.273899
1796.000000	19.254574
1795.000000	19.244483
1794.000000	19.267516
1793.000000	19.258191
1792.000000	19.235205
1791.000000	19.226231
1790.000000	19.226317
1789.000000	19.225896
1788.000000	19.229089
1787.000000	19.227494
1786.000000	19.223015
1785.000000	19.198666
1784.000000	19.195741
1783.000000	19.208139
1782.000000	19.221921
1781.000000	19.199258
1780.000000	19.172662
1779.000000	19.179478
1778.000000	19.173006
1777.000000	19.151018
1776.000000	19.146958
1775.000000	19.135283
1774.000000	19.107265
1773.000000	19.097792
1772.000000	19.068359
1771.000000	19.030470
1770.000000	19.009000
1769.000000	18.987325
1768.000000	18.986910
1767.000000	18.964293
1766.000000	18.937560
1765.000000	18.932871
1764.000000	18.910923
1763.000000	18.875848
1762.000000	18.857102
1761.000000	18.842978
1760.000000	18.802196
1759.000000	18.777742
1758.000000	18.772963
1757.000000	18.758663
1756.000000	18.724359
1755.000000	18.708501
1754.000000	18.694184
1753.000000	18.672991
1752.000000	18.651292
1751.000000	18.653466
1750.000000	18.639750
1749.000000	18.606721
1748.000000	18.596917
1747.000000	18.551214
1746.000000	18.533876
1745.000000	18.515064
1744.000000	18.478292
1743.000000	18.470672
1742.000000	18.445129
1741.000000	18.417263
1740.000000	18.405249
1739.000000	18.382081
1738.000000	18.381348
1737.000000	18.348570
1736.000000	18.349876
1735.000000	18.322041
1734.000000	18.328748
1733.000000	18.318192
1732.000000	18.318019
1731.000000	18.333682
1730.000000	18.338000
1729.000000	18.334518
1728.000000	18.371923
1727.000000	18.373795
1726.000000	18.342122
1725.000000	18.376095
1724.000000	18.393484
1723.000000	18.416544
1722.000000	18.433018
1721.000000	18.468850
1720.000000	18.499035
1719.000000	18.535677
1718.000000	18.510546
1717.000000	18.559985
1716.000000	18.584911
1715.000000	18.611065
1714.000000	18.627710
1713.000000	18.656393
1712.000000	18.651806
1711.000000	18.690252
1710.000000	18.682121
1709.000000	18.701080
1708.000000	18.710447
1707.000000	18.707351
1706.000000	18.741762
1705.000000	18.734442
1704.000000	18.769952
1703.000000	18.729399
1702.000000	18.758488
1701.000000	18.758220
1700.000000	18.765693
1699.000000	18.733421
1698.000000	18.765272
1697.000000	18.760034
1696.000000	18.798112
1695.000000	18.781067
1694.000000	18.785609
1693.000000	18.808553
1692.000000	18.820111
1691.000000	18.844583
1690.000000	18.864278
1689.000000	18.870059
1688.000000	18.896843
1687.000000	18.925106
1686.000000	18.959445
1685.000000	18.999469
1684.000000	19.038145
1683.000000	19.064414
1682.000000	19.103463
1681.000000	19.154493
1680.000000	19.183576
1679.000000	19.218208
1678.000000	19.259612
1677.000000	19.293835
1676.000000	19.348864
1675.000000	19.392007
1674.000000	19.451437
1673.000000	19.478755
1672.000000	19.504467
1671.000000	19.548102
1670.000000	19.570367
1669.000000	19.583933
1668.000000	19.574888
1667.000000	19.615108
1666.000000	19.626288
1665.000000	19.634166
1664.000000	19.647523
1663.000000	19.666875
1662.000000	19.710404
1661.000000	19.730299
1660.000000	19.724242
1659.000000	19.758498
1658.000000	19.767592
1657.000000	19.783988
1656.000000	19.796750
1655.000000	19.789710
1654.000000	19.805115
1653.000000	19.816534
1652.000000	19.826585
1651.000000	19.802612
1650.000000	19.790185
1649.000000	19.762809
1648.000000	19.760753
1647.000000	19.776478
1646.000000	19.763575
1645.000000	19.748942
1644.000000	19.739348
1643.000000	19.719228
1642.000000	19.728798
1641.000000	19.723650
1640.000000	19.706608
1639.000000	19.681964
1638.000000	19.685271
1637.000000	19.674472
1636.000000	19.651975
1635.000000	19.649589
1634.000000	19.618406
1633.000000	19.581677
1632.000000	19.588880
1631.000000	19.592386
1630.000000	19.561482
1629.000000	19.552245
1628.000000	19.538497
1627.000000	19.498403
1626.000000	19.482474
1625.000000	19.480504
1624.000000	19.480150
1623.000000	19.487767
1622.000000	19.460597
1621.000000	19.433702
1620.000000	19.419103
1619.000000	19.391248
1618.000000	19.379319
1617.000000	19.380665
1616.000000	19.354328
1615.000000	19.332300
1614.000000	19.307127
1613.000000	19.287026
1612.000000	19.271509
1611.000000	19.256477
1610.000000	19.238891
1609.000000	19.208611
1608.000000	19.191395
1607.000000	19.194090
1606.000000	19.176098
1605.000000	19.141380
1604.000000	19.123080
1603.000000	19.111947
1602.000000	19.097622
1601.000000	19.071012
1600.000000	19.053670
1599.000000	19.036035
1598.000000	19.025146
1597.000000	19.017734
1596.000000	18.992691
1595.000000	18.973352
1594.000000	18.958537
1593.000000	18.939241
1592.000000	18.924136
1591.000000	18.912958
1590.000000	18.894039
1589.000000	18.874577
1588.000000	18.855501
1587.000000	18.845658
1586.000000	18.828729
1585.000000	18.811137
1584.000000	18.801296
1583.000000	18.794223
1582.000000	18.781326
1581.000000	18.762285
1580.000000	18.753723
1579.000000	18.752417
1578.000000	18.742629
1577.000000	18.717639
1576.000000	18.692903
1575.000000	18.688715
1574.000000	18.669489
1573.000000	18.643853
1572.000000	18.628393
1571.000000	18.620891
1570.000000	18.611981
1569.000000	18.588608
1568.000000	18.570840
1567.000000	18.559452
1566.000000	18.542976
1565.000000	18.523246
1564.000000	18.510808
1563.000000	18.514971
1562.000000	18.501635
1561.000000	18.481133
1560.000000	18.468823
1559.000000	18.452068
1558.000000	18.439045
1557.000000	18.434321
1556.000000	18.426633
1555.000000	18.424497
1554.000000	18.398107
1553.000000	18.376543
1552.000000	18.368554
1551.000000	18.354982
1550.000000	18.337696
1549.000000	18.315311
1548.000000	18.303552
1547.000000	18.290310
1546.000000	18.262281
1545.000000	18.230687
1544.000000	18.214110
1543.000000	18.188347
1542.000000	18.169405
1541.000000	18.128063
1540.000000	18.112130
1539.000000	18.083027
1538.000000	18.053766
1537.000000	18.018907
1536.000000	17.982430
1535.000000	17.965009
1534.000000	17.934686
1533.000000	17.898814
1532.000000	17.867955
1531.000000	17.828912
1530.000000	17.797986
1529.000000	17.787541
1528.000000	17.793149
1527.000000	17.830363
1526.000000	17.864766
1525.000000	17.861103
1524.000000	17.805198
1523.000000	17.753861
1522.000000	17.688305
1521.000000	17.645746
1520.000000	17.630004
1519.000000	17.607139
1518.000000	17.587761
1517.000000	17.561007
1516.000000	17.560904
1515.000000	17.535181
1514.000000	17.525670
1513.000000	17.504351
1512.000000	17.471163
1511.000000	17.466686
1510.000000	17.466603
1509.000000	17.445811
1508.000000	17.427480
1507.000000	17.395218
1506.000000	17.402272
1505.000000	17.389028
1504.000000	17.377263
1503.000000	17.362925
1502.000000	17.347202
1501.000000	17.356919
1500.000000	17.379227
1499.000000	17.367036
1498.000000	17.343747
1497.000000	17.330787
1496.000000	17.339004
1495.000000	17.344220
1494.000000	17.330300
1493.000000	17.337093
1492.000000	17.339499
1491.000000	17.340806
1490.000000	17.345315
1489.000000	17.350785
1488.000000	17.357735
1487.000000	17.359785
1486.000000	17.357876
1485.000000	17.379325
1484.000000	17.361363
1483.000000	17.363343
1482.000000	17.364048
1481.000000	17.382841
1480.000000	17.406936
1479.000000	17.412697
1478.000000	17.416609
1477.000000	17.440136
1476.000000	17.460076
1475.000000	17.467657
1474.000000	17.471001
1473.000000	17.481280
1472.000000	17.469098
1471.000000	17.504412
1470.000000	17.513920
