PE UV       SUBTECH     SPECTRUM    ASCII       PEDS        4.00        
   -1
TTms1240112.Sample.asc
18/03/20
16:08:28.00
18/03/20
16:08:28.00
Administrator

200.000000
1
Lambda 750
750N8071901
PerkinElmer UV WinLab 6.0.4.0738 / 1.61.00 Lambda 900

0
0
3350/servo 860.8/2
0
0
UV/VIS
1
1
1
CommonBeamDepol,150mm sphere / downward view
0
0
0
0
Program
Program
3350/servo 860.8/2
3350/0.2 860.8/0.2
3350/0.2 860.8/0.2
0
1
 
 
 
0
 
860.8
319.2
860.8
Front
100
on
 
 
0
0
0
 
0
 
 
 
0
 
 
0
0
0
0
0
 
 
 
 
0
0


0
0
#HDR
-1
-1
#GR
nm
%T
1.0
0.0
2350.000000
-1.000000
2151
8
25.905368
0.872871
#DATA
2350.000000	19.865746
2349.000000	19.963272
2348.000000	19.546699
2347.000000	20.175636
2346.000000	20.186760
2345.000000	19.787311
2344.000000	19.814805
2343.000000	19.826249
2342.000000	19.748294
2341.000000	19.919282
2340.000000	19.948511
2339.000000	20.385514
2338.000000	20.340991
2337.000000	20.260984
2336.000000	20.595334
2335.000000	20.418514
2334.000000	20.497012
2333.000000	20.537409
2332.000000	20.487172
2331.000000	20.262017
2330.000000	20.499425
2329.000000	20.408922
2328.000000	20.279370
2327.000000	20.096899
2326.000000	20.023478
2325.000000	20.082664
2324.000000	20.207380
2323.000000	20.228341
2322.000000	20.126502
2321.000000	20.080368
2320.000000	19.982799
2319.000000	19.911807
2318.000000	20.000891
2317.000000	19.899801
2316.000000	19.684337
2315.000000	19.809098
2314.000000	19.658508
2313.000000	19.513304
2312.000000	19.423156
2311.000000	19.472281
2310.000000	19.378163
2309.000000	19.548219
2308.000000	19.548203
2307.000000	19.466320
2306.000000	19.453981
2305.000000	19.441544
2304.000000	19.377407
2303.000000	19.449635
2302.000000	19.440205
2301.000000	19.333352
2300.000000	19.350567
2299.000000	19.162092
2298.000000	19.011898
2297.000000	18.889622
2296.000000	19.192131
2295.000000	19.294230
2294.000000	19.131098
2293.000000	19.166801
2292.000000	18.961966
2291.000000	19.079133
2290.000000	19.072824
2289.000000	18.943207
2288.000000	18.938558
2287.000000	19.039567
2286.000000	18.879544
2285.000000	18.774702
2284.000000	18.982043
2283.000000	18.959344
2282.000000	18.862117
2281.000000	19.121631
2280.000000	18.967981
2279.000000	19.151422
2278.000000	19.093001
2277.000000	18.958570
2276.000000	19.111669
2275.000000	19.066619
2274.000000	18.950371
2273.000000	19.162179
2272.000000	19.128015
2271.000000	19.094308
2270.000000	19.053545
2269.000000	19.165503
2268.000000	19.224542
2267.000000	19.165678
2266.000000	19.262493
2265.000000	19.328877
2264.000000	19.412504
2263.000000	19.489387
2262.000000	19.552250
2261.000000	19.727727
2260.000000	19.858504
2259.000000	19.810467
2258.000000	19.882006
2257.000000	20.064916
2256.000000	20.120956
2255.000000	20.199903
2254.000000	20.259517
2253.000000	20.303276
2252.000000	20.316734
2251.000000	20.420016
2250.000000	20.497871
2249.000000	20.593700
2248.000000	20.711305
2247.000000	20.844704
2246.000000	20.907799
2245.000000	20.891505
2244.000000	21.073238
2243.000000	21.245609
2242.000000	21.268857
2241.000000	21.250672
2240.000000	21.283794
2239.000000	21.285953
2238.000000	21.329833
2237.000000	21.446315
2236.000000	21.531139
2235.000000	21.588537
2234.000000	21.595642
2233.000000	21.544456
2232.000000	21.518628
2231.000000	21.546829
2230.000000	21.555711
2229.000000	21.637940
2228.000000	21.691596
2227.000000	21.662812
2226.000000	21.632603
2225.000000	21.540327
2224.000000	21.590914
2223.000000	21.600354
2222.000000	21.569164
2221.000000	21.633075
2220.000000	21.621040
2219.000000	21.571059
2218.000000	21.502222
2217.000000	21.512299
2216.000000	21.522701
2215.000000	21.514643
2214.000000	21.601890
2213.000000	21.469168
2212.000000	21.307528
2211.000000	21.329155
2210.000000	21.333015
2209.000000	21.224617
2208.000000	21.146704
2207.000000	21.268050
2206.000000	21.233808
2205.000000	21.192373
2204.000000	21.202201
2203.000000	21.093992
2202.000000	20.927306
2201.000000	21.014255
2200.000000	21.056009
2199.000000	20.942676
2198.000000	20.859762
2197.000000	20.923942
2196.000000	20.899752
2195.000000	20.756141
2194.000000	20.642326
2193.000000	20.732537
2192.000000	20.702844
2191.000000	20.642876
2190.000000	20.673580
2189.000000	20.661223
2188.000000	20.483101
2187.000000	20.477614
2186.000000	20.550614
2185.000000	20.582890
2184.000000	20.568279
2183.000000	20.534954
2182.000000	20.507029
2181.000000	20.482627
2180.000000	20.485004
2179.000000	20.431590
2178.000000	20.452480
2177.000000	20.524487
2176.000000	20.486454
2175.000000	20.487875
2174.000000	20.377670
2173.000000	20.378884
2172.000000	20.617665
2171.000000	20.548977
2170.000000	20.608724
2169.000000	20.698935
2168.000000	20.694123
2167.000000	20.664735
2166.000000	20.680478
2165.000000	20.744204
2164.000000	20.660127
2163.000000	20.701623
2162.000000	20.823053
2161.000000	20.883535
2160.000000	21.000843
2159.000000	20.975700
2158.000000	21.045451
2157.000000	21.255225
2156.000000	21.154842
2155.000000	21.216184
2154.000000	21.233553
2153.000000	21.449445
2152.000000	21.358029
2151.000000	21.558641
2150.000000	21.529287
2149.000000	21.622856
2148.000000	21.639067
2147.000000	21.701852
2146.000000	21.641943
2145.000000	21.846712
2144.000000	21.920908
2143.000000	21.665694
2142.000000	21.941829
2141.000000	21.959304
2140.000000	21.945823
2139.000000	21.950846
2138.000000	22.189541
2137.000000	22.152108
2136.000000	22.066580
2135.000000	22.323235
2134.000000	22.214429
2133.000000	21.990812
2132.000000	22.372489
2131.000000	22.395863
2130.000000	22.466796
2129.000000	22.486591
2128.000000	22.374733
2127.000000	22.282706
2126.000000	22.269328
2125.000000	22.351290
2124.000000	22.308618
2123.000000	22.431582
2122.000000	22.520486
2121.000000	22.556461
2120.000000	22.420858
2119.000000	22.391827
2118.000000	22.307978
2117.000000	22.415433
2116.000000	22.532453
2115.000000	22.575192
2114.000000	22.559275
2113.000000	22.447008
2112.000000	22.497778
2111.000000	22.423952
2110.000000	22.326357
2109.000000	22.418004
2108.000000	22.488098
2107.000000	22.509775
2106.000000	22.418558
2105.000000	22.473914
2104.000000	22.494727
2103.000000	22.453050
2102.000000	22.418912
2101.000000	22.513375
2100.000000	22.475928
2099.000000	22.401173
2098.000000	22.351440
2097.000000	22.402275
2096.000000	22.378604
2095.000000	22.296668
2094.000000	22.404196
2093.000000	22.358512
2092.000000	22.386409
2091.000000	22.381149
2090.000000	22.270328
2089.000000	22.314698
2088.000000	22.291886
2087.000000	22.158944
2086.000000	22.245262
2085.000000	22.260379
2084.000000	22.249255
2083.000000	22.153466
2082.000000	22.148129
2081.000000	22.053846
2080.000000	22.133961
2079.000000	22.049332
2078.000000	21.901669
2077.000000	21.866427
2076.000000	21.842957
2075.000000	21.738660
2074.000000	21.755657
2073.000000	21.725561
2072.000000	21.710851
2071.000000	21.672888
2070.000000	21.621775
2069.000000	21.532579
2068.000000	21.484376
2067.000000	21.447101
2066.000000	21.293408
2065.000000	21.263650
2064.000000	21.189173
2063.000000	21.139379
2062.000000	21.127290
2061.000000	21.006397
2060.000000	20.931764
2059.000000	20.852874
2058.000000	20.825314
2057.000000	20.821765
2056.000000	20.788431
2055.000000	20.672159
2054.000000	20.560917
2053.000000	20.500310
2052.000000	20.465320
2051.000000	20.434073
2050.000000	20.402449
2049.000000	20.300269
2048.000000	20.194551
2047.000000	20.234013
2046.000000	20.215270
2045.000000	20.203809
2044.000000	20.212852
2043.000000	20.201229
2042.000000	20.206739
2041.000000	20.197375
2040.000000	20.169949
2039.000000	20.152498
2038.000000	20.222508
2037.000000	20.250090
2036.000000	20.221894
2035.000000	20.243383
2034.000000	20.285650
2033.000000	20.273367
2032.000000	20.328826
2031.000000	20.381786
2030.000000	20.418933
2029.000000	20.434570
2028.000000	20.510784
2027.000000	20.585272
2026.000000	20.596719
2025.000000	20.596629
2024.000000	20.632897
2023.000000	20.670602
2022.000000	20.685141
2021.000000	20.686881
2020.000000	20.714128
2019.000000	20.724187
2018.000000	20.721651
2017.000000	20.705900
2016.000000	20.661016
2015.000000	20.669317
2014.000000	20.674415
2013.000000	20.660700
2012.000000	20.645840
2011.000000	20.622611
2010.000000	20.580046
2009.000000	20.524076
2008.000000	20.462260
2007.000000	20.414337
2006.000000	20.371112
2005.000000	20.326624
2004.000000	20.300708
2003.000000	20.246509
2002.000000	20.197864
2001.000000	20.185486
2000.000000	20.162418
1999.000000	20.097467
1998.000000	20.011418
1997.000000	20.004063
1996.000000	19.958428
1995.000000	19.893958
1994.000000	19.815897
1993.000000	19.796263
1992.000000	19.753576
1991.000000	19.676309
1990.000000	19.637259
1989.000000	19.578553
1988.000000	19.531746
1987.000000	19.464926
1986.000000	19.411560
1985.000000	19.363753
1984.000000	19.329361
1983.000000	19.264331
1982.000000	19.225424
1981.000000	19.182245
1980.000000	19.123798
1979.000000	19.083908
1978.000000	19.061229
1977.000000	19.002716
1976.000000	18.909042
1975.000000	18.896484
1974.000000	18.845811
1973.000000	18.761848
1972.000000	18.689071
1971.000000	18.640087
1970.000000	18.617931
1969.000000	18.596965
1968.000000	18.493092
1967.000000	18.461707
1966.000000	18.448312
1965.000000	18.405409
1964.000000	18.327104
1963.000000	18.280170
1962.000000	18.251701
1961.000000	18.223123
1960.000000	18.156485
1959.000000	18.112499
1958.000000	18.091410
1957.000000	18.043029
1956.000000	18.006035
1955.000000	17.989906
1954.000000	17.970646
1953.000000	17.912268
1952.000000	17.876938
1951.000000	17.891471
1950.000000	17.849198
1949.000000	17.791226
1948.000000	17.815897
1947.000000	17.818149
1946.000000	17.819494
1945.000000	17.782545
1944.000000	17.775454
1943.000000	17.745928
1942.000000	17.807387
1941.000000	17.848230
1940.000000	17.783028
1939.000000	17.854850
1938.000000	17.895131
1937.000000	17.962057
1936.000000	17.989386
1935.000000	18.032050
1934.000000	18.053886
1933.000000	18.104235
1932.000000	18.194517
1931.000000	18.209356
1930.000000	18.297690
1929.000000	18.349992
1928.000000	18.419366
1927.000000	18.521878
1926.000000	18.556558
1925.000000	18.664145
1924.000000	18.848094
1923.000000	18.886552
1922.000000	19.002062
1921.000000	19.104579
1920.000000	19.254612
1919.000000	19.350033
1918.000000	19.391355
1917.000000	19.617615
1916.000000	19.699266
1915.000000	19.867648
1914.000000	20.008930
1913.000000	20.137399
1912.000000	20.266921
1911.000000	20.372373
1910.000000	20.549319
1909.000000	20.695321
1908.000000	20.838428
1907.000000	21.020890
1906.000000	21.136872
1905.000000	21.341815
1904.000000	21.534671
1903.000000	21.669795
1902.000000	21.839958
1901.000000	22.067546
1900.000000	22.243906
1899.000000	22.365308
1898.000000	22.557712
1897.000000	22.710278
1896.000000	22.884365
1895.000000	23.080727
1894.000000	23.201687
1893.000000	23.346437
1892.000000	23.481917
1891.000000	23.632622
1890.000000	23.781849
1889.000000	23.945600
1888.000000	24.076535
1887.000000	24.168980
1886.000000	24.327959
1885.000000	24.453957
1884.000000	24.557113
1883.000000	24.698593
1882.000000	24.811467
1881.000000	24.909937
1880.000000	25.013314
1879.000000	25.142128
1878.000000	25.248600
1877.000000	25.301114
1876.000000	25.358612
1875.000000	25.417118
1874.000000	25.498178
1873.000000	25.566400
1872.000000	25.610562
1871.000000	25.663376
1870.000000	25.691659
1869.000000	25.722954
1868.000000	25.760783
1867.000000	25.733463
1866.000000	25.797667
1865.000000	25.808663
1864.000000	25.818084
1863.000000	25.830364
1862.000000	25.843353
1861.000000	25.813700
1860.000000	25.810120
1859.000000	25.854144
1858.000000	25.895087
1857.000000	25.881768
1856.000000	25.856886
1855.000000	25.890545
1854.000000	25.905368
1853.000000	25.891482
1852.000000	25.864249
1851.000000	25.884123
1850.000000	25.895000
1849.000000	25.871928
1848.000000	25.861646
1847.000000	25.838067
1846.000000	25.831086
1845.000000	25.829493
1844.000000	25.845047
1843.000000	25.832019
1842.000000	25.810377
1841.000000	25.778056
1840.000000	25.795774
1839.000000	25.782959
1838.000000	25.755650
1837.000000	25.736801
1836.000000	25.697254
1835.000000	25.687211
1834.000000	25.662157
1833.000000	25.612375
1832.000000	25.564823
1831.000000	25.560464
1830.000000	25.542818
1829.000000	25.534768
1828.000000	25.505955
1827.000000	25.487258
1826.000000	25.490513
1825.000000	25.462397
1824.000000	25.439586
1823.000000	25.422467
1822.000000	25.392133
1821.000000	25.372094
1820.000000	25.367884
1819.000000	25.345388
1818.000000	25.323654
1817.000000	25.311871
1816.000000	25.291322
1815.000000	25.268129
1814.000000	25.242764
1813.000000	25.244124
1812.000000	25.221643
1811.000000	25.200376
1810.000000	25.199918
1809.000000	25.202880
1808.000000	25.189756
1807.000000	25.163527
1806.000000	25.155809
1805.000000	25.154253
1804.000000	25.125569
1803.000000	25.101909
1802.000000	25.091503
1801.000000	25.060250
1800.000000	25.071434
1799.000000	25.073535
1798.000000	25.054219
1797.000000	25.047816
1796.000000	25.045373
1795.000000	25.033707
1794.000000	25.027787
1793.000000	25.016119
1792.000000	25.007374
1791.000000	25.014061
1790.000000	25.000229
1789.000000	24.975107
1788.000000	24.969129
1787.000000	24.974799
1786.000000	24.971777
1785.000000	24.968275
1784.000000	24.964733
1783.000000	24.964294
1782.000000	24.939078
1781.000000	24.919044
1780.000000	24.920678
1779.000000	24.908272
1778.000000	24.891179
1777.000000	24.855151
1776.000000	24.841712
1775.000000	24.833360
1774.000000	24.795915
1773.000000	24.769833
1772.000000	24.726893
1771.000000	24.719981
1770.000000	24.713233
1769.000000	24.693629
1768.000000	24.660680
1767.000000	24.639218
1766.000000	24.641751
1765.000000	24.604428
1764.000000	24.568062
1763.000000	24.563045
1762.000000	24.524980
1761.000000	24.507104
1760.000000	24.481178
1759.000000	24.458521
1758.000000	24.443063
1757.000000	24.410294
1756.000000	24.406111
1755.000000	24.385313
1754.000000	24.369307
1753.000000	24.334870
1752.000000	24.334529
1751.000000	24.298459
1750.000000	24.300594
1749.000000	24.278972
1748.000000	24.239935
1747.000000	24.211347
1746.000000	24.196365
1745.000000	24.172844
1744.000000	24.145025
1743.000000	24.121989
1742.000000	24.096874
1741.000000	24.075300
1740.000000	24.063389
1739.000000	24.011697
1738.000000	24.009695
1737.000000	23.995881
1736.000000	23.969334
1735.000000	23.969755
1734.000000	23.986213
1733.000000	23.950302
1732.000000	23.943661
1731.000000	23.948798
1730.000000	23.957803
1729.000000	23.951141
1728.000000	23.961029
1727.000000	23.929482
1726.000000	23.950816
1725.000000	23.984222
1724.000000	24.023560
1723.000000	24.040950
1722.000000	24.046088
1721.000000	24.089118
1720.000000	24.100858
1719.000000	24.155834
1718.000000	24.176780
1717.000000	24.152538
1716.000000	24.203153
1715.000000	24.219826
1714.000000	24.269805
1713.000000	24.262414
1712.000000	24.279278
1711.000000	24.314487
1710.000000	24.305043
1709.000000	24.316559
1708.000000	24.361537
1707.000000	24.372155
1706.000000	24.384719
1705.000000	24.385980
1704.000000	24.400574
1703.000000	24.386735
1702.000000	24.406699
1701.000000	24.402645
1700.000000	24.387450
1699.000000	24.391308
1698.000000	24.431524
1697.000000	24.431014
1696.000000	24.451493
1695.000000	24.464008
1694.000000	24.464956
1693.000000	24.482295
1692.000000	24.500545
1691.000000	24.523261
1690.000000	24.536077
1689.000000	24.537074
1688.000000	24.590892
1687.000000	24.608648
1686.000000	24.643734
1685.000000	24.667187
1684.000000	24.727634
1683.000000	24.753732
1682.000000	24.799458
1681.000000	24.836164
1680.000000	24.873412
1679.000000	24.932371
1678.000000	24.968587
1677.000000	24.994462
1676.000000	25.053262
1675.000000	25.090463
1674.000000	25.116213
1673.000000	25.143628
1672.000000	25.193579
1671.000000	25.236981
1670.000000	25.253108
1669.000000	25.261976
1668.000000	25.282170
1667.000000	25.336594
1666.000000	25.341395
1665.000000	25.337702
1664.000000	25.348405
1663.000000	25.355837
1662.000000	25.389390
1661.000000	25.399509
1660.000000	25.409891
1659.000000	25.445270
1658.000000	25.468562
1657.000000	25.480903
1656.000000	25.478060
1655.000000	25.470802
1654.000000	25.492423
1653.000000	25.493086
1652.000000	25.477762
1651.000000	25.471254
1650.000000	25.473277
1649.000000	25.459147
1648.000000	25.459801
1647.000000	25.457892
1646.000000	25.448493
1645.000000	25.438909
1644.000000	25.418654
1643.000000	25.413440
1642.000000	25.416430
1641.000000	25.392106
1640.000000	25.380298
1639.000000	25.360592
1638.000000	25.363738
1637.000000	25.343603
1636.000000	25.320663
1635.000000	25.308909
1634.000000	25.288226
1633.000000	25.269260
1632.000000	25.270927
1631.000000	25.242609
1630.000000	25.232961
1629.000000	25.220407
1628.000000	25.209468
1627.000000	25.198248
1626.000000	25.189963
1625.000000	25.165854
1624.000000	25.143885
1623.000000	25.139663
1622.000000	25.128412
1621.000000	25.104824
1620.000000	25.079919
1619.000000	25.052035
1618.000000	25.054275
1617.000000	25.037032
1616.000000	25.017449
1615.000000	24.997536
1614.000000	24.979276
1613.000000	24.958046
1612.000000	24.949592
1611.000000	24.937124
1610.000000	24.912141
1609.000000	24.887325
1608.000000	24.874505
1607.000000	24.852810
1606.000000	24.834419
1605.000000	24.830757
1604.000000	24.805619
1603.000000	24.777102
1602.000000	24.759133
1601.000000	24.738611
1600.000000	24.718768
1599.000000	24.707469
1598.000000	24.691155
1597.000000	24.679269
1596.000000	24.655944
1595.000000	24.636798
1594.000000	24.628501
1593.000000	24.614860
1592.000000	24.594248
1591.000000	24.574386
1590.000000	24.563396
1589.000000	24.529051
1588.000000	24.505949
1587.000000	24.502628
1586.000000	24.492808
1585.000000	24.477626
1584.000000	24.461692
1583.000000	24.453079
1582.000000	24.436018
1581.000000	24.422689
1580.000000	24.407366
1579.000000	24.399709
1578.000000	24.394765
1577.000000	24.365615
1576.000000	24.337315
1575.000000	24.335323
1574.000000	24.313369
1573.000000	24.289973
1572.000000	24.290541
1571.000000	24.281113
1570.000000	24.252045
1569.000000	24.242978
1568.000000	24.228744
1567.000000	24.201400
1566.000000	24.191103
1565.000000	24.185421
1564.000000	24.164388
1563.000000	24.165781
1562.000000	24.153620
1561.000000	24.140670
1560.000000	24.125033
1559.000000	24.114359
1558.000000	24.095204
1557.000000	24.079616
1556.000000	24.061383
1555.000000	24.061533
1554.000000	24.052627
1553.000000	24.037771
1552.000000	24.034226
1551.000000	24.010296
1550.000000	23.984294
1549.000000	23.970889
1548.000000	23.948098
1547.000000	23.936229
1546.000000	23.911562
1545.000000	23.893513
1544.000000	23.853607
1543.000000	23.835968
1542.000000	23.816497
1541.000000	23.785496
1540.000000	23.767083
1539.000000	23.720666
1538.000000	23.691967
1537.000000	23.661543
1536.000000	23.649031
1535.000000	23.612487
1534.000000	23.584144
1533.000000	23.562160
1532.000000	23.532912
1531.000000	23.510824
1530.000000	23.461431
1529.000000	23.432197
1528.000000	23.408983
1527.000000	23.390386
1526.000000	23.368091
1525.000000	23.374288
1524.000000	23.384688
1523.000000	23.409389
1522.000000	23.438154
1521.000000	23.422918
1520.000000	23.374945
1519.000000	23.340743
1518.000000	23.292335
1517.000000	23.239404
1516.000000	23.191805
1515.000000	23.170354
1514.000000	23.146607
1513.000000	23.146940
1512.000000	23.149669
1511.000000	23.128960
1510.000000	23.111142
1509.000000	23.080829
1508.000000	23.059650
1507.000000	23.048484
1506.000000	23.055457
1505.000000	23.072009
1504.000000	23.036576
1503.000000	23.025041
1502.000000	23.013865
1501.000000	22.985598
1500.000000	22.998817
1499.000000	22.984680
1498.000000	22.984498
1497.000000	22.987171
1496.000000	22.974756
1495.000000	22.975302
1494.000000	22.972447
1493.000000	22.949669
1492.000000	22.981641
1491.000000	22.974620
1490.000000	22.964531
1489.000000	22.971565
1488.000000	22.995831
1487.000000	23.004650
1486.000000	23.010953
1485.000000	23.007447
1484.000000	23.034302
1483.000000	23.034790
1482.000000	23.025372
1481.000000	23.057976
1480.000000	23.069770
1479.000000	23.062055
1478.000000	23.072612
1477.000000	23.079649
1476.000000	23.080898
1475.000000	23.104344
1474.000000	23.097616
1473.000000	23.109306
1472.000000	23.097707
1471.000000	23.104329
1470.000000	23.107717
