PE UV       SUBTECH     SPECTRUM    ASCII       PEDS        4.00        
   -1
TTms148362.Sample.asc
18/03/20
10:18:49.00
18/03/20
10:18:49.00
Administrator

200.000000
1
Lambda 750
750N8071901
PerkinElmer UV WinLab 6.0.4.0738 / 1.61.00 Lambda 900

0
0
3350/servo 860.8/2
0
0
UV/VIS
1
1
1
CommonBeamDepol,150mm sphere / downward view
0
0
0
0
Program
Program
3350/servo 860.8/2
3350/0.2 860.8/0.2
3350/0.2 860.8/0.2
0
1
 
 
 
0
 
860.8
319.2
860.8
Front
100
on
 
 
0
0
0
 
0
 
 
 
0
 
 
0
0
0
0
0
 
 
 
 
0
0


0
0
#HDR
-1
-1
#GR
nm
%T
1.0
0.0
2350.000000
-1.000000
2151
8
19.939890
0.028195
#DATA
2350.000000	15.106872
2349.000000	15.292357
2348.000000	14.913725
2347.000000	15.939176
2346.000000	15.575329
2345.000000	15.172740
2344.000000	14.906578
2343.000000	14.968381
2342.000000	15.136823
2341.000000	15.394374
2340.000000	15.496420
2339.000000	15.536189
2338.000000	15.682057
2337.000000	15.943056
2336.000000	15.791659
2335.000000	15.981608
2334.000000	15.914850
2333.000000	16.048896
2332.000000	15.869651
2331.000000	15.961345
2330.000000	15.699135
2329.000000	15.841467
2328.000000	15.609250
2327.000000	15.363142
2326.000000	15.791999
2325.000000	15.993770
2324.000000	15.685482
2323.000000	15.579344
2322.000000	15.388256
2321.000000	15.654654
2320.000000	15.568481
2319.000000	15.250305
2318.000000	15.522390
2317.000000	15.420729
2316.000000	15.333203
2315.000000	15.137617
2314.000000	15.367119
2313.000000	15.355592
2312.000000	15.278231
2311.000000	15.264341
2310.000000	14.929331
2309.000000	15.284542
2308.000000	15.157908
2307.000000	15.119961
2306.000000	15.040396
2305.000000	14.945682
2304.000000	14.766325
2303.000000	14.953587
2302.000000	14.941687
2301.000000	14.717555
2300.000000	14.460455
2299.000000	14.680174
2298.000000	14.665496
2297.000000	14.549313
2296.000000	14.743993
2295.000000	14.866615
2294.000000	14.834189
2293.000000	14.787504
2292.000000	14.657584
2291.000000	14.578276
2290.000000	14.549364
2289.000000	14.580356
2288.000000	14.554313
2287.000000	14.591595
2286.000000	14.692194
2285.000000	14.635684
2284.000000	14.670684
2283.000000	14.542150
2282.000000	14.468339
2281.000000	14.479779
2280.000000	14.518199
2279.000000	14.714891
2278.000000	14.578193
2277.000000	14.423700
2276.000000	14.501871
2275.000000	14.412772
2274.000000	14.462509
2273.000000	14.585805
2272.000000	14.742043
2271.000000	14.652374
2270.000000	14.633020
2269.000000	14.694217
2268.000000	14.599172
2267.000000	14.650199
2266.000000	14.807103
2265.000000	14.817257
2264.000000	14.952647
2263.000000	15.015697
2262.000000	15.063006
2261.000000	15.121419
2260.000000	15.075613
2259.000000	15.143549
2258.000000	15.189730
2257.000000	15.242075
2256.000000	15.383921
2255.000000	15.514324
2254.000000	15.553499
2253.000000	15.609847
2252.000000	15.724699
2251.000000	15.785482
2250.000000	15.734320
2249.000000	15.833409
2248.000000	15.964607
2247.000000	15.904067
2246.000000	15.973025
2245.000000	16.089155
2244.000000	16.102518
2243.000000	16.235631
2242.000000	16.308665
2241.000000	16.326760
2240.000000	16.395709
2239.000000	16.500025
2238.000000	16.489711
2237.000000	16.538136
2236.000000	16.514590
2235.000000	16.615222
2234.000000	16.687754
2233.000000	16.614115
2232.000000	16.699055
2231.000000	16.665281
2230.000000	16.652893
2229.000000	16.669892
2228.000000	16.746453
2227.000000	16.716523
2226.000000	16.609208
2225.000000	16.599168
2224.000000	16.582313
2223.000000	16.476489
2222.000000	16.531675
2221.000000	16.603403
2220.000000	16.617383
2219.000000	16.567334
2218.000000	16.523409
2217.000000	16.386140
2216.000000	16.485764
2215.000000	16.548883
2214.000000	16.497665
2213.000000	16.489548
2212.000000	16.552005
2211.000000	16.642648
2210.000000	16.562030
2209.000000	16.446404
2208.000000	16.272964
2207.000000	16.274166
2206.000000	16.259410
2205.000000	16.236478
2204.000000	16.192133
2203.000000	16.149048
2202.000000	16.134042
2201.000000	16.228992
2200.000000	16.199881
2199.000000	16.197139
2198.000000	16.179375
2197.000000	16.200900
2196.000000	16.014243
2195.000000	16.001475
2194.000000	15.993675
2193.000000	15.828601
2192.000000	15.827107
2191.000000	15.844301
2190.000000	15.956107
2189.000000	15.965021
2188.000000	15.739843
2187.000000	15.793750
2186.000000	15.723259
2185.000000	15.784127
2184.000000	15.770048
2183.000000	15.790683
2182.000000	15.727750
2181.000000	15.755579
2180.000000	15.721110
2179.000000	15.611375
2178.000000	15.659386
2177.000000	15.642036
2176.000000	15.594107
2175.000000	15.645301
2174.000000	15.737510
2173.000000	15.815711
2172.000000	15.751045
2171.000000	15.734124
2170.000000	15.741492
2169.000000	15.850842
2168.000000	15.924213
2167.000000	15.749801
2166.000000	15.783198
2165.000000	16.023747
2164.000000	16.061024
2163.000000	15.982209
2162.000000	16.076878
2161.000000	16.019425
2160.000000	16.178148
2159.000000	16.224042
2158.000000	16.070298
2157.000000	16.254488
2156.000000	16.415605
2155.000000	16.334191
2154.000000	16.400316
2153.000000	16.753724
2152.000000	16.647294
2151.000000	16.423420
2150.000000	16.435503
2149.000000	16.642470
2148.000000	16.634772
2147.000000	16.764927
2146.000000	16.712823
2145.000000	16.679281
2144.000000	16.642048
2143.000000	16.863737
2142.000000	16.961130
2141.000000	17.024153
2140.000000	17.110275
2139.000000	17.018598
2138.000000	17.121197
2137.000000	16.946270
2136.000000	17.161797
2135.000000	17.252140
2134.000000	17.192030
2133.000000	17.117407
2132.000000	17.320760
2131.000000	17.016823
2130.000000	17.323581
2129.000000	17.215269
2128.000000	17.247737
2127.000000	17.256033
2126.000000	17.200471
2125.000000	17.235992
2124.000000	17.208822
2123.000000	17.159683
2122.000000	17.424481
2121.000000	17.276752
2120.000000	17.221495
2119.000000	17.313896
2118.000000	17.186813
2117.000000	17.271562
2116.000000	17.372248
2115.000000	17.395891
2114.000000	17.260728
2113.000000	17.299482
2112.000000	17.408907
2111.000000	17.245128
2110.000000	17.218989
2109.000000	17.279243
2108.000000	17.225137
2107.000000	17.295806
2106.000000	17.247630
2105.000000	17.175444
2104.000000	17.267833
2103.000000	17.345661
2102.000000	17.220397
2101.000000	17.207727
2100.000000	17.315931
2099.000000	17.349256
2098.000000	17.353509
2097.000000	17.337664
2096.000000	17.205159
2095.000000	17.191162
2094.000000	17.147611
2093.000000	17.145154
2092.000000	17.271286
2091.000000	17.138132
2090.000000	17.072051
2089.000000	17.132986
2088.000000	17.109409
2087.000000	17.149516
2086.000000	17.172625
2085.000000	17.169697
2084.000000	17.110123
2083.000000	16.927641
2082.000000	17.015339
2081.000000	16.929349
2080.000000	16.849939
2079.000000	16.856738
2078.000000	16.836067
2077.000000	16.836784
2076.000000	16.829901
2075.000000	16.733985
2074.000000	16.680713
2073.000000	16.684460
2072.000000	16.652778
2071.000000	16.722498
2070.000000	16.655344
2069.000000	16.508425
2068.000000	16.466884
2067.000000	16.473913
2066.000000	16.379732
2065.000000	16.322190
2064.000000	16.323122
2063.000000	16.270690
2062.000000	16.284895
2061.000000	16.166080
2060.000000	16.076818
2059.000000	16.000267
2058.000000	15.952787
2057.000000	15.941315
2056.000000	15.892220
2055.000000	15.782219
2054.000000	15.731906
2053.000000	15.741217
2052.000000	15.655571
2051.000000	15.533838
2050.000000	15.558080
2049.000000	15.548883
2048.000000	15.464439
2047.000000	15.446443
2046.000000	15.467147
2045.000000	15.472480
2044.000000	15.422210
2043.000000	15.390602
2042.000000	15.423285
2041.000000	15.449988
2040.000000	15.417949
2039.000000	15.417264
2038.000000	15.455359
2037.000000	15.429601
2036.000000	15.381096
2035.000000	15.427963
2034.000000	15.500035
2033.000000	15.519560
2032.000000	15.545513
2031.000000	15.573704
2030.000000	15.588202
2029.000000	15.614319
2028.000000	15.638769
2027.000000	15.690520
2026.000000	15.714223
2025.000000	15.765301
2024.000000	15.807808
2023.000000	15.811062
2022.000000	15.822580
2021.000000	15.797760
2020.000000	15.784976
2019.000000	15.786182
2018.000000	15.799345
2017.000000	15.798111
2016.000000	15.781363
2015.000000	15.816000
2014.000000	15.804789
2013.000000	15.750066
2012.000000	15.716255
2011.000000	15.702544
2010.000000	15.709049
2009.000000	15.674353
2008.000000	15.613567
2007.000000	15.573904
2006.000000	15.540870
2005.000000	15.488524
2004.000000	15.438537
2003.000000	15.400217
2002.000000	15.371042
2001.000000	15.325596
2000.000000	15.309778
1999.000000	15.253805
1998.000000	15.188309
1997.000000	15.174557
1996.000000	15.147904
1995.000000	15.085791
1994.000000	15.025505
1993.000000	15.000798
1992.000000	14.928140
1991.000000	14.877879
1990.000000	14.855015
1989.000000	14.839105
1988.000000	14.816584
1987.000000	14.723184
1986.000000	14.680202
1985.000000	14.649452
1984.000000	14.582624
1983.000000	14.528072
1982.000000	14.485377
1981.000000	14.510493
1980.000000	14.484143
1979.000000	14.423857
1978.000000	14.362391
1977.000000	14.339464
1976.000000	14.305396
1975.000000	14.261062
1974.000000	14.181002
1973.000000	14.119159
1972.000000	14.065653
1971.000000	14.046642
1970.000000	14.021914
1969.000000	13.978790
1968.000000	13.940208
1967.000000	13.929452
1966.000000	13.893195
1965.000000	13.844978
1964.000000	13.792697
1963.000000	13.812030
1962.000000	13.746428
1961.000000	13.685973
1960.000000	13.651485
1959.000000	13.657931
1958.000000	13.638373
1957.000000	13.574075
1956.000000	13.574302
1955.000000	13.562018
1954.000000	13.532547
1953.000000	13.503224
1952.000000	13.477836
1951.000000	13.464324
1950.000000	13.436086
1949.000000	13.442181
1948.000000	13.427999
1947.000000	13.389988
1946.000000	13.434138
1945.000000	13.447352
1944.000000	13.394982
1943.000000	13.467580
1942.000000	13.434044
1941.000000	13.475740
1940.000000	13.488577
1939.000000	13.486079
1938.000000	13.527502
1937.000000	13.566826
1936.000000	13.650461
1935.000000	13.665606
1934.000000	13.720701
1933.000000	13.788434
1932.000000	13.818006
1931.000000	13.834228
1930.000000	13.936808
1929.000000	13.969329
1928.000000	14.082632
1927.000000	14.138443
1926.000000	14.257903
1925.000000	14.289149
1924.000000	14.428241
1923.000000	14.440934
1922.000000	14.597947
1921.000000	14.686940
1920.000000	14.703716
1919.000000	14.798033
1918.000000	14.963495
1917.000000	15.086966
1916.000000	15.129216
1915.000000	15.284945
1914.000000	15.466161
1913.000000	15.584036
1912.000000	15.652840
1911.000000	15.747361
1910.000000	15.884187
1909.000000	16.044784
1908.000000	16.119590
1907.000000	16.265455
1906.000000	16.377084
1905.000000	16.579379
1904.000000	16.699916
1903.000000	16.771340
1902.000000	16.860967
1901.000000	17.053588
1900.000000	17.147165
1899.000000	17.273975
1898.000000	17.485603
1897.000000	17.538514
1896.000000	17.677617
1895.000000	17.811653
1894.000000	17.956214
1893.000000	18.097558
1892.000000	18.171914
1891.000000	18.238985
1890.000000	18.376191
1889.000000	18.502791
1888.000000	18.621486
1887.000000	18.661317
1886.000000	18.762553
1885.000000	18.846357
1884.000000	18.951359
1883.000000	19.081255
1882.000000	19.081289
1881.000000	19.158681
1880.000000	19.248088
1879.000000	19.367648
1878.000000	19.435094
1877.000000	19.480110
1876.000000	19.508083
1875.000000	19.594447
1874.000000	19.627313
1873.000000	19.675775
1872.000000	19.696463
1871.000000	19.739616
1870.000000	19.754868
1869.000000	19.838669
1868.000000	19.882228
1867.000000	19.886639
1866.000000	19.859497
1865.000000	19.863325
1864.000000	19.900749
1863.000000	19.939890
1862.000000	19.902084
1861.000000	19.887889
1860.000000	19.873704
1859.000000	19.877520
1858.000000	19.895716
1857.000000	19.913477
1856.000000	19.899598
1855.000000	19.896568
1854.000000	19.896390
1853.000000	19.918592
1852.000000	19.912690
1851.000000	19.933213
1850.000000	19.914980
1849.000000	19.908855
1848.000000	19.882843
1847.000000	19.872238
1846.000000	19.873218
1845.000000	19.863005
1844.000000	19.857637
1843.000000	19.862391
1842.000000	19.850642
1841.000000	19.836379
1840.000000	19.833995
1839.000000	19.850595
1838.000000	19.841124
1837.000000	19.784773
1836.000000	19.785499
1835.000000	19.772749
1834.000000	19.741643
1833.000000	19.722368
1832.000000	19.710171
1831.000000	19.677090
1830.000000	19.665010
1829.000000	19.631306
1828.000000	19.623112
1827.000000	19.652039
1826.000000	19.642634
1825.000000	19.603868
1824.000000	19.601557
1823.000000	19.577492
1822.000000	19.525582
1821.000000	19.526161
1820.000000	19.533651
1819.000000	19.498140
1818.000000	19.459990
1817.000000	19.445714
1816.000000	19.442426
1815.000000	19.435857
1814.000000	19.437772
1813.000000	19.412780
1812.000000	19.389522
1811.000000	19.395036
1810.000000	19.365406
1809.000000	19.363653
1808.000000	19.357039
1807.000000	19.321193
1806.000000	19.307467
1805.000000	19.306687
1804.000000	19.304276
1803.000000	19.275755
1802.000000	19.252198
1801.000000	19.240500
1800.000000	19.235838
1799.000000	19.246767
1798.000000	19.232220
1797.000000	19.219862
1796.000000	19.224438
1795.000000	19.199037
1794.000000	19.190027
1793.000000	19.194214
1792.000000	19.173117
1791.000000	19.160994
1790.000000	19.150672
1789.000000	19.140096
1788.000000	19.150577
1787.000000	19.139937
1786.000000	19.142358
1785.000000	19.131129
1784.000000	19.120688
1783.000000	19.132541
1782.000000	19.127866
1781.000000	19.109319
1780.000000	19.097416
1779.000000	19.085183
1778.000000	19.070463
1777.000000	19.075122
1776.000000	19.061784
1775.000000	19.044747
1774.000000	19.026107
1773.000000	19.014979
1772.000000	19.006516
1771.000000	18.999303
1770.000000	18.968749
1769.000000	18.933454
1768.000000	18.923632
1767.000000	18.924157
1766.000000	18.909569
1765.000000	18.889846
1764.000000	18.879187
1763.000000	18.843221
1762.000000	18.831043
1761.000000	18.819978
1760.000000	18.775184
1759.000000	18.770886
1758.000000	18.773147
1757.000000	18.749968
1756.000000	18.729077
1755.000000	18.710743
1754.000000	18.695790
1753.000000	18.686895
1752.000000	18.680579
1751.000000	18.660811
1750.000000	18.635790
1749.000000	18.636954
1748.000000	18.626794
1747.000000	18.618662
1746.000000	18.609490
1745.000000	18.559938
1744.000000	18.565469
1743.000000	18.537872
1742.000000	18.521791
1741.000000	18.511186
1740.000000	18.486230
1739.000000	18.478013
1738.000000	18.457015
1737.000000	18.443646
1736.000000	18.423554
1735.000000	18.416018
1734.000000	18.449846
1733.000000	18.408188
1732.000000	18.391359
1731.000000	18.421526
1730.000000	18.432700
1729.000000	18.411233
1728.000000	18.423785
1727.000000	18.420429
1726.000000	18.443371
1725.000000	18.464502
1724.000000	18.488961
1723.000000	18.492499
1722.000000	18.535626
1721.000000	18.547062
1720.000000	18.527565
1719.000000	18.571039
1718.000000	18.599424
1717.000000	18.608856
1716.000000	18.624511
1715.000000	18.630025
1714.000000	18.642352
1713.000000	18.664631
1712.000000	18.681544
1711.000000	18.678119
1710.000000	18.675562
1709.000000	18.720353
1708.000000	18.720227
1707.000000	18.716107
1706.000000	18.719500
1705.000000	18.729022
1704.000000	18.754149
1703.000000	18.747007
1702.000000	18.746613
1701.000000	18.754485
1700.000000	18.749708
1699.000000	18.739865
1698.000000	18.747573
1697.000000	18.773581
1696.000000	18.784966
1695.000000	18.773597
1694.000000	18.791372
1693.000000	18.775138
1692.000000	18.786103
1691.000000	18.823943
1690.000000	18.824760
1689.000000	18.840238
1688.000000	18.869277
1687.000000	18.837978
1686.000000	18.894604
1685.000000	18.921095
1684.000000	18.960323
1683.000000	18.999946
1682.000000	19.014426
1681.000000	19.024669
1680.000000	19.070124
1679.000000	19.090616
1678.000000	19.130283
1677.000000	19.138354
1676.000000	19.168954
1675.000000	19.214599
1674.000000	19.204424
1673.000000	19.258956
1672.000000	19.296526
1671.000000	19.321519
1670.000000	19.334742
1669.000000	19.332080
1668.000000	19.342317
1667.000000	19.378485
1666.000000	19.367585
1665.000000	19.381286
1664.000000	19.386632
1663.000000	19.394501
1662.000000	19.403595
1661.000000	19.404671
1660.000000	19.427239
1659.000000	19.452793
1658.000000	19.453384
1657.000000	19.468668
1656.000000	19.478442
1655.000000	19.479865
1654.000000	19.477783
1653.000000	19.480163
1652.000000	19.482654
1651.000000	19.476010
1650.000000	19.478286
1649.000000	19.463877
1648.000000	19.435328
1647.000000	19.446598
1646.000000	19.450644
1645.000000	19.436664
1644.000000	19.422478
1643.000000	19.420361
1642.000000	19.414372
1641.000000	19.409725
1640.000000	19.404627
1639.000000	19.388680
1638.000000	19.378948
1637.000000	19.373221
1636.000000	19.354429
1635.000000	19.354003
1634.000000	19.338002
1633.000000	19.316392
1632.000000	19.306719
1631.000000	19.296480
1630.000000	19.280994
1629.000000	19.264264
1628.000000	19.252336
1627.000000	19.257010
1626.000000	19.240779
1625.000000	19.229843
1624.000000	19.210821
1623.000000	19.208908
1622.000000	19.203513
1621.000000	19.189460
1620.000000	19.177232
1619.000000	19.164065
1618.000000	19.139795
1617.000000	19.114387
1616.000000	19.102747
1615.000000	19.078343
1614.000000	19.065407
1613.000000	19.052921
1612.000000	19.035135
1611.000000	19.022327
1610.000000	19.014338
1609.000000	18.999887
1608.000000	18.987240
1607.000000	18.969591
1606.000000	18.939227
1605.000000	18.924099
1604.000000	18.919531
1603.000000	18.899130
1602.000000	18.871145
1601.000000	18.854358
1600.000000	18.843926
1599.000000	18.824860
1598.000000	18.810475
1597.000000	18.805701
1596.000000	18.794188
1595.000000	18.779039
1594.000000	18.754806
1593.000000	18.743518
1592.000000	18.735113
1591.000000	18.726906
1590.000000	18.715834
1589.000000	18.685091
1588.000000	18.683480
1587.000000	18.678416
1586.000000	18.653360
1585.000000	18.641401
1584.000000	18.631462
1583.000000	18.617498
1582.000000	18.603418
1581.000000	18.586806
1580.000000	18.565634
1579.000000	18.552396
1578.000000	18.556701
1577.000000	18.549210
1576.000000	18.535877
1575.000000	18.516799
1574.000000	18.495532
1573.000000	18.486967
1572.000000	18.487895
1571.000000	18.478821
1570.000000	18.467060
1569.000000	18.449758
1568.000000	18.432757
1567.000000	18.431517
1566.000000	18.428362
1565.000000	18.415323
1564.000000	18.404638
1563.000000	18.396646
1562.000000	18.390571
1561.000000	18.396431
1560.000000	18.379464
1559.000000	18.368280
1558.000000	18.342892
1557.000000	18.322994
1556.000000	18.327242
1555.000000	18.334415
1554.000000	18.313188
1553.000000	18.305064
1552.000000	18.304466
1551.000000	18.284696
1550.000000	18.275547
1549.000000	18.262452
1548.000000	18.263630
1547.000000	18.245792
1546.000000	18.225069
1545.000000	18.195233
1544.000000	18.169264
1543.000000	18.163522
1542.000000	18.142483
1541.000000	18.120755
1540.000000	18.102171
1539.000000	18.077724
1538.000000	18.058358
1537.000000	18.032203
1536.000000	18.012745
1535.000000	17.985274
1534.000000	17.963572
1533.000000	17.939449
1532.000000	17.890662
1531.000000	17.883408
1530.000000	17.871537
1529.000000	17.862706
1528.000000	17.885969
1527.000000	17.925212
1526.000000	17.934979
1525.000000	17.920308
1524.000000	17.873375
1523.000000	17.827107
1522.000000	17.776880
1521.000000	17.744795
1520.000000	17.717713
1519.000000	17.689192
1518.000000	17.663099
1517.000000	17.666789
1516.000000	17.634354
1515.000000	17.612671
1514.000000	17.612962
1513.000000	17.619117
1512.000000	17.585498
1511.000000	17.552173
1510.000000	17.539372
1509.000000	17.529285
1508.000000	17.526427
1507.000000	17.515601
1506.000000	17.489843
1505.000000	17.482771
1504.000000	17.464550
1503.000000	17.457483
1502.000000	17.430166
1501.000000	17.428361
1500.000000	17.419604
1499.000000	17.419029
1498.000000	17.418785
1497.000000	17.414536
1496.000000	17.398295
1495.000000	17.399797
1494.000000	17.391326
1493.000000	17.399717
1492.000000	17.407783
1491.000000	17.397728
1490.000000	17.394064
1489.000000	17.400630
1488.000000	17.408481
1487.000000	17.429341
1486.000000	17.422177
1485.000000	17.425302
1484.000000	17.431180
1483.000000	17.456054
1482.000000	17.457208
1481.000000	17.459965
1480.000000	17.466756
1479.000000	17.479575
1478.000000	17.491472
1477.000000	17.473698
1476.000000	17.495158
1475.000000	17.506140
1474.000000	17.493752
1473.000000	17.514139
1472.000000	17.525319
1471.000000	17.507681
1470.000000	17.525234
