PE UV       SUBTECH     SPECTRUM    ASCII       PEDS        4.00        
   -1
TTms148352.Sample.asc
18/03/20
09:22:36.00
18/03/20
09:22:36.00
Administrator

200.000000
1
Lambda 750
750N8071901
PerkinElmer UV WinLab 6.0.4.0738 / 1.61.00 Lambda 900

0
0
3350/servo 860.8/2
0
0
UV/VIS
1
1
1
CommonBeamDepol,150mm sphere / downward view
0
0
0
0
Program
Program
3350/servo 860.8/2
3350/0.2 860.8/0.2
3350/0.2 860.8/0.2
0
1
 
 
 
0
 
860.8
319.2
860.8
Front
100
on
 
 
0
0
0
 
0
 
 
 
0
 
 
0
0
0
0
0
 
 
 
 
0
0


0
0
#HDR
-1
-1
#GR
nm
%T
1.0
0.0
2350.000000
-1.000000
2151
8
11.169333
-0.001533
#DATA
2350.000000	3.675917
2349.000000	3.940400
2348.000000	4.070201
2347.000000	4.705248
2346.000000	4.232549
2345.000000	4.022058
2344.000000	3.956948
2343.000000	3.887631
2342.000000	4.315822
2341.000000	4.307863
2340.000000	4.269878
2339.000000	4.354207
2338.000000	4.415644
2337.000000	4.766932
2336.000000	4.946235
2335.000000	4.462707
2334.000000	4.841242
2333.000000	5.196004
2332.000000	5.096854
2331.000000	5.090424
2330.000000	4.729299
2329.000000	4.654453
2328.000000	4.737602
2327.000000	4.690117
2326.000000	4.671408
2325.000000	4.556567
2324.000000	4.789125
2323.000000	4.806061
2322.000000	4.585439
2321.000000	4.497431
2320.000000	4.380281
2319.000000	4.471896
2318.000000	4.701372
2317.000000	4.693336
2316.000000	4.688961
2315.000000	4.446360
2314.000000	4.552376
2313.000000	4.421941
2312.000000	4.233548
2311.000000	4.215749
2310.000000	4.228972
2309.000000	4.298456
2308.000000	4.135053
2307.000000	4.212017
2306.000000	4.120412
2305.000000	4.123423
2304.000000	4.209801
2303.000000	4.317187
2302.000000	4.160739
2301.000000	4.179598
2300.000000	4.125823
2299.000000	3.881746
2298.000000	3.969459
2297.000000	4.034652
2296.000000	4.066776
2295.000000	3.860448
2294.000000	3.939086
2293.000000	4.027507
2292.000000	3.941945
2291.000000	4.053812
2290.000000	4.083499
2289.000000	4.118818
2288.000000	4.128822
2287.000000	4.116285
2286.000000	3.938443
2285.000000	3.931474
2284.000000	4.027382
2283.000000	3.977419
2282.000000	3.945920
2281.000000	3.882083
2280.000000	3.920090
2279.000000	4.028550
2278.000000	4.004415
2277.000000	4.119553
2276.000000	4.076901
2275.000000	4.126482
2274.000000	4.143678
2273.000000	4.222973
2272.000000	4.277823
2271.000000	4.096740
2270.000000	4.075967
2269.000000	4.080849
2268.000000	4.014970
2267.000000	4.005302
2266.000000	4.156864
2265.000000	4.089530
2264.000000	4.124942
2263.000000	4.381706
2262.000000	4.401355
2261.000000	4.536091
2260.000000	4.527671
2259.000000	4.441463
2258.000000	4.621281
2257.000000	4.636960
2256.000000	4.573433
2255.000000	4.669046
2254.000000	4.790862
2253.000000	4.821906
2252.000000	4.911711
2251.000000	4.823128
2250.000000	4.783211
2249.000000	5.044600
2248.000000	5.159040
2247.000000	5.160470
2246.000000	5.118485
2245.000000	5.237814
2244.000000	5.345412
2243.000000	5.439222
2242.000000	5.389592
2241.000000	5.357733
2240.000000	5.512208
2239.000000	5.532417
2238.000000	5.615194
2237.000000	5.582537
2236.000000	5.522401
2235.000000	5.572197
2234.000000	5.538674
2233.000000	5.479114
2232.000000	5.565676
2231.000000	5.750099
2230.000000	5.899830
2229.000000	5.880660
2228.000000	5.817981
2227.000000	5.754485
2226.000000	5.669550
2225.000000	5.678705
2224.000000	5.610777
2223.000000	5.524355
2222.000000	5.627196
2221.000000	5.652617
2220.000000	5.687772
2219.000000	5.667925
2218.000000	5.679367
2217.000000	5.660230
2216.000000	5.654916
2215.000000	5.632726
2214.000000	5.665333
2213.000000	5.617590
2212.000000	5.610624
2211.000000	5.603554
2210.000000	5.499300
2209.000000	5.485849
2208.000000	5.495412
2207.000000	5.509307
2206.000000	5.387148
2205.000000	5.373300
2204.000000	5.477619
2203.000000	5.442905
2202.000000	5.292222
2201.000000	5.295428
2200.000000	5.343512
2199.000000	5.332067
2198.000000	5.420865
2197.000000	5.413031
2196.000000	5.285111
2195.000000	5.228229
2194.000000	5.123406
2193.000000	5.174020
2192.000000	5.211230
2191.000000	5.118939
2190.000000	5.173411
2189.000000	5.102083
2188.000000	4.943352
2187.000000	5.104353
2186.000000	5.176204
2185.000000	5.153328
2184.000000	5.122736
2183.000000	5.103647
2182.000000	5.074842
2181.000000	4.998523
2180.000000	4.983292
2179.000000	4.969185
2178.000000	4.974449
2177.000000	4.989580
2176.000000	5.006007
2175.000000	5.067201
2174.000000	5.037042
2173.000000	5.019853
2172.000000	4.975621
2171.000000	5.201874
2170.000000	5.152181
2169.000000	5.102155
2168.000000	5.250684
2167.000000	5.154143
2166.000000	5.099701
2165.000000	5.104187
2164.000000	5.138256
2163.000000	5.162383
2162.000000	5.218903
2161.000000	5.211236
2160.000000	5.317461
2159.000000	5.336557
2158.000000	5.187321
2157.000000	5.244249
2156.000000	5.206199
2155.000000	5.288623
2154.000000	5.424825
2153.000000	5.558479
2152.000000	5.580578
2151.000000	5.603380
2150.000000	5.656863
2149.000000	5.653536
2148.000000	5.770673
2147.000000	5.644034
2146.000000	5.582413
2145.000000	5.800278
2144.000000	5.711510
2143.000000	5.650203
2142.000000	5.751260
2141.000000	5.912740
2140.000000	5.619947
2139.000000	5.908215
2138.000000	5.992550
2137.000000	5.844331
2136.000000	6.156510
2135.000000	6.165407
2134.000000	6.047930
2133.000000	5.778485
2132.000000	6.031633
2131.000000	6.164661
2130.000000	6.187188
2129.000000	6.171728
2128.000000	6.030584
2127.000000	5.996390
2126.000000	6.206486
2125.000000	6.110890
2124.000000	6.182222
2123.000000	6.136170
2122.000000	6.199897
2121.000000	6.162522
2120.000000	6.141330
2119.000000	6.050112
2118.000000	6.204346
2117.000000	6.201206
2116.000000	6.380642
2115.000000	6.307086
2114.000000	6.289188
2113.000000	6.129142
2112.000000	6.264593
2111.000000	6.281520
2110.000000	6.225193
2109.000000	6.159738
2108.000000	6.148088
2107.000000	6.259877
2106.000000	6.283568
2105.000000	6.251087
2104.000000	6.304636
2103.000000	6.293377
2102.000000	6.259040
2101.000000	6.405694
2100.000000	6.399207
2099.000000	6.222171
2098.000000	6.164132
2097.000000	6.281938
2096.000000	6.347271
2095.000000	6.290402
2094.000000	6.206126
2093.000000	6.229336
2092.000000	6.242297
2091.000000	6.199172
2090.000000	6.265900
2089.000000	6.343403
2088.000000	6.359627
2087.000000	6.282167
2086.000000	6.274307
2085.000000	6.353759
2084.000000	6.259213
2083.000000	6.210021
2082.000000	6.190047
2081.000000	6.111313
2080.000000	6.094674
2079.000000	6.091409
2078.000000	6.076232
2077.000000	6.029804
2076.000000	6.076094
2075.000000	6.003222
2074.000000	5.998250
2073.000000	5.905723
2072.000000	5.913943
2071.000000	5.929838
2070.000000	5.838381
2069.000000	5.763491
2068.000000	5.749113
2067.000000	5.765196
2066.000000	5.693244
2065.000000	5.674972
2064.000000	5.598927
2063.000000	5.522760
2062.000000	5.471112
2061.000000	5.463056
2060.000000	5.470071
2059.000000	5.395891
2058.000000	5.382764
2057.000000	5.347359
2056.000000	5.332461
2055.000000	5.311141
2054.000000	5.218078
2053.000000	5.181572
2052.000000	5.155669
2051.000000	5.050774
2050.000000	4.992213
2049.000000	4.978979
2048.000000	5.003698
2047.000000	4.944025
2046.000000	4.877423
2045.000000	4.889976
2044.000000	4.871574
2043.000000	4.830691
2042.000000	4.889388
2041.000000	4.929215
2040.000000	4.923814
2039.000000	4.862078
2038.000000	4.839351
2037.000000	4.899992
2036.000000	4.909778
2035.000000	4.944434
2034.000000	4.951014
2033.000000	4.989759
2032.000000	5.063521
2031.000000	5.083149
2030.000000	5.084553
2029.000000	5.075630
2028.000000	5.080556
2027.000000	5.105075
2026.000000	5.126199
2025.000000	5.196562
2024.000000	5.258753
2023.000000	5.245560
2022.000000	5.243341
2021.000000	5.218410
2020.000000	5.216260
2019.000000	5.213359
2018.000000	5.242091
2017.000000	5.281463
2016.000000	5.286646
2015.000000	5.268277
2014.000000	5.270057
2013.000000	5.280645
2012.000000	5.255063
2011.000000	5.259802
2010.000000	5.227546
2009.000000	5.178706
2008.000000	5.163455
2007.000000	5.164890
2006.000000	5.142227
2005.000000	5.127218
2004.000000	5.074771
2003.000000	5.034688
2002.000000	5.006115
2001.000000	4.978828
2000.000000	4.967318
1999.000000	4.970346
1998.000000	4.951201
1997.000000	4.897256
1996.000000	4.854209
1995.000000	4.797396
1994.000000	4.808280
1993.000000	4.787536
1992.000000	4.767305
1991.000000	4.708053
1990.000000	4.711376
1989.000000	4.683218
1988.000000	4.662922
1987.000000	4.645343
1986.000000	4.605376
1985.000000	4.581309
1984.000000	4.562063
1983.000000	4.542710
1982.000000	4.503991
1981.000000	4.491694
1980.000000	4.479527
1979.000000	4.448416
1978.000000	4.414550
1977.000000	4.347915
1976.000000	4.346708
1975.000000	4.350793
1974.000000	4.302231
1973.000000	4.293452
1972.000000	4.262825
1971.000000	4.227791
1970.000000	4.247866
1969.000000	4.250064
1968.000000	4.199566
1967.000000	4.209227
1966.000000	4.196164
1965.000000	4.167798
1964.000000	4.080438
1963.000000	4.049649
1962.000000	4.084924
1961.000000	4.042941
1960.000000	3.988963
1959.000000	4.011806
1958.000000	3.998577
1957.000000	3.990282
1956.000000	3.977464
1955.000000	3.960372
1954.000000	3.992461
1953.000000	3.982402
1952.000000	3.988210
1951.000000	3.948536
1950.000000	3.942618
1949.000000	3.952578
1948.000000	3.914366
1947.000000	3.878085
1946.000000	3.915467
1945.000000	3.908564
1944.000000	3.945189
1943.000000	3.966549
1942.000000	3.901307
1941.000000	3.940149
1940.000000	3.959843
1939.000000	3.978849
1938.000000	3.959150
1937.000000	4.035823
1936.000000	4.082810
1935.000000	4.088484
1934.000000	4.114535
1933.000000	4.152062
1932.000000	4.221700
1931.000000	4.253048
1930.000000	4.210482
1929.000000	4.304925
1928.000000	4.310838
1927.000000	4.370230
1926.000000	4.375958
1925.000000	4.518867
1924.000000	4.527969
1923.000000	4.593552
1922.000000	4.665417
1921.000000	4.710187
1920.000000	4.771674
1919.000000	4.893473
1918.000000	4.947147
1917.000000	5.044016
1916.000000	5.028262
1915.000000	5.176776
1914.000000	5.253554
1913.000000	5.378202
1912.000000	5.449757
1911.000000	5.555336
1910.000000	5.600594
1909.000000	5.783645
1908.000000	5.829917
1907.000000	5.977347
1906.000000	6.069455
1905.000000	6.259127
1904.000000	6.340756
1903.000000	6.493884
1902.000000	6.617751
1901.000000	6.725700
1900.000000	6.884129
1899.000000	6.970712
1898.000000	7.102679
1897.000000	7.246483
1896.000000	7.379882
1895.000000	7.494236
1894.000000	7.650131
1893.000000	7.781740
1892.000000	7.897737
1891.000000	8.011380
1890.000000	8.146562
1889.000000	8.297573
1888.000000	8.407050
1887.000000	8.530891
1886.000000	8.653644
1885.000000	8.793201
1884.000000	8.897611
1883.000000	8.954706
1882.000000	9.100490
1881.000000	9.163712
1880.000000	9.234363
1879.000000	9.343883
1878.000000	9.422056
1877.000000	9.498869
1876.000000	9.596433
1875.000000	9.654288
1874.000000	9.704302
1873.000000	9.798850
1872.000000	9.829221
1871.000000	9.864284
1870.000000	9.924629
1869.000000	9.947767
1868.000000	9.958905
1867.000000	9.964960
1866.000000	10.012025
1865.000000	10.025514
1864.000000	9.999797
1863.000000	10.048402
1862.000000	10.022076
1861.000000	10.034124
1860.000000	10.071213
1859.000000	10.083087
1858.000000	10.105603
1857.000000	10.083988
1856.000000	10.096862
1855.000000	10.116224
1854.000000	10.154583
1853.000000	10.184163
1852.000000	10.160169
1851.000000	10.149394
1850.000000	10.116649
1849.000000	10.122713
1848.000000	10.140232
1847.000000	10.145135
1846.000000	10.126406
1845.000000	10.133050
1844.000000	10.130123
1843.000000	10.098188
1842.000000	10.095286
1841.000000	10.101652
1840.000000	10.086146
1839.000000	10.076498
1838.000000	10.078474
1837.000000	10.020817
1836.000000	9.997717
1835.000000	9.978974
1834.000000	9.957242
1833.000000	9.961513
1832.000000	9.935430
1831.000000	9.906148
1830.000000	9.880269
1829.000000	9.877271
1828.000000	9.862060
1827.000000	9.864139
1826.000000	9.844463
1825.000000	9.817417
1824.000000	9.827639
1823.000000	9.813424
1822.000000	9.764720
1821.000000	9.746777
1820.000000	9.741430
1819.000000	9.722664
1818.000000	9.709021
1817.000000	9.679016
1816.000000	9.664966
1815.000000	9.687290
1814.000000	9.689112
1813.000000	9.676157
1812.000000	9.665087
1811.000000	9.649247
1810.000000	9.653584
1809.000000	9.647060
1808.000000	9.621646
1807.000000	9.606266
1806.000000	9.592529
1805.000000	9.600977
1804.000000	9.597883
1803.000000	9.576819
1802.000000	9.573332
1801.000000	9.564068
1800.000000	9.540384
1799.000000	9.546468
1798.000000	9.560137
1797.000000	9.547753
1796.000000	9.547045
1795.000000	9.555897
1794.000000	9.557948
1793.000000	9.540972
1792.000000	9.517906
1791.000000	9.521863
1790.000000	9.519349
1789.000000	9.521126
1788.000000	9.529109
1787.000000	9.527195
1786.000000	9.520226
1785.000000	9.502471
1784.000000	9.499473
1783.000000	9.501318
1782.000000	9.495230
1781.000000	9.484687
1780.000000	9.474013
1779.000000	9.477863
1778.000000	9.454531
1777.000000	9.441504
1776.000000	9.428434
1775.000000	9.390313
1774.000000	9.344640
1773.000000	9.326773
1772.000000	9.312121
1771.000000	9.306447
1770.000000	9.298265
1769.000000	9.288854
1768.000000	9.252229
1767.000000	9.237114
1766.000000	9.225056
1765.000000	9.201291
1764.000000	9.186278
1763.000000	9.171936
1762.000000	9.134527
1761.000000	9.117160
1760.000000	9.092480
1759.000000	9.087322
1758.000000	9.053902
1757.000000	9.046350
1756.000000	9.034645
1755.000000	9.004906
1754.000000	8.992874
1753.000000	8.994294
1752.000000	8.963485
1751.000000	8.922370
1750.000000	8.933835
1749.000000	8.927745
1748.000000	8.889583
1747.000000	8.884361
1746.000000	8.872404
1745.000000	8.839775
1744.000000	8.826568
1743.000000	8.809205
1742.000000	8.779656
1741.000000	8.761403
1740.000000	8.723024
1739.000000	8.693711
1738.000000	8.717202
1737.000000	8.698264
1736.000000	8.684462
1735.000000	8.682441
1734.000000	8.686904
1733.000000	8.671961
1732.000000	8.625595
1731.000000	8.633521
1730.000000	8.644653
1729.000000	8.645090
1728.000000	8.644419
1727.000000	8.641603
1726.000000	8.651972
1725.000000	8.696647
1724.000000	8.714091
1723.000000	8.727969
1722.000000	8.756868
1721.000000	8.773202
1720.000000	8.787059
1719.000000	8.845236
1718.000000	8.844921
1717.000000	8.846740
1716.000000	8.886793
1715.000000	8.916918
1714.000000	8.951427
1713.000000	8.957653
1712.000000	9.031623
1711.000000	9.035855
1710.000000	9.037743
1709.000000	9.037577
1708.000000	9.058647
1707.000000	9.089957
1706.000000	9.112906
1705.000000	9.109724
1704.000000	9.135982
1703.000000	9.108414
1702.000000	9.142371
1701.000000	9.127282
1700.000000	9.156794
1699.000000	9.126852
1698.000000	9.156002
1697.000000	9.190573
1696.000000	9.192481
1695.000000	9.194360
1694.000000	9.209738
1693.000000	9.206952
1692.000000	9.233775
1691.000000	9.256422
1690.000000	9.282111
1689.000000	9.294608
1688.000000	9.340162
1687.000000	9.356474
1686.000000	9.403502
1685.000000	9.424567
1684.000000	9.474317
1683.000000	9.517914
1682.000000	9.560430
1681.000000	9.597403
1680.000000	9.636058
1679.000000	9.684073
1678.000000	9.738166
1677.000000	9.774474
1676.000000	9.840011
1675.000000	9.880850
1674.000000	9.914469
1673.000000	9.940618
1672.000000	9.985197
1671.000000	10.067936
1670.000000	10.089574
1669.000000	10.103632
1668.000000	10.144727
1667.000000	10.180113
1666.000000	10.188418
1665.000000	10.194758
1664.000000	10.192417
1663.000000	10.218576
1662.000000	10.244469
1661.000000	10.270653
1660.000000	10.299839
1659.000000	10.328540
1658.000000	10.340332
1657.000000	10.340637
1656.000000	10.346446
1655.000000	10.361354
1654.000000	10.380639
1653.000000	10.380380
1652.000000	10.391209
1651.000000	10.397106
1650.000000	10.383386
1649.000000	10.357443
1648.000000	10.356516
1647.000000	10.352955
1646.000000	10.327190
1645.000000	10.324744
1644.000000	10.318344
1643.000000	10.319597
1642.000000	10.311577
1641.000000	10.310912
1640.000000	10.290383
1639.000000	10.284086
1638.000000	10.271831
1637.000000	10.268839
1636.000000	10.251553
1635.000000	10.236156
1634.000000	10.230774
1633.000000	10.216627
1632.000000	10.190845
1631.000000	10.171903
1630.000000	10.178690
1629.000000	10.164471
1628.000000	10.148111
1627.000000	10.132633
1626.000000	10.114648
1625.000000	10.113170
1624.000000	10.104361
1623.000000	10.078800
1622.000000	10.060811
1621.000000	10.034393
1620.000000	10.023333
1619.000000	10.012891
1618.000000	9.997084
1617.000000	9.987199
1616.000000	9.969999
1615.000000	9.958481
1614.000000	9.934536
1613.000000	9.909530
1612.000000	9.900464
1611.000000	9.890805
1610.000000	9.874093
1609.000000	9.852215
1608.000000	9.834149
1607.000000	9.823413
1606.000000	9.809307
1605.000000	9.787077
1604.000000	9.759489
1603.000000	9.744611
1602.000000	9.724897
1601.000000	9.708886
1600.000000	9.711423
1599.000000	9.698129
1598.000000	9.675607
1597.000000	9.665245
1596.000000	9.643734
1595.000000	9.624984
1594.000000	9.601130
1593.000000	9.596033
1592.000000	9.589337
1591.000000	9.567246
1590.000000	9.559587
1589.000000	9.541570
1588.000000	9.530605
1587.000000	9.527897
1586.000000	9.508315
1585.000000	9.493149
1584.000000	9.496462
1583.000000	9.487949
1582.000000	9.470523
1581.000000	9.460533
1580.000000	9.447099
1579.000000	9.425902
1578.000000	9.417311
1577.000000	9.401833
1576.000000	9.378250
1575.000000	9.362724
1574.000000	9.342218
1573.000000	9.325493
1572.000000	9.327951
1571.000000	9.310768
1570.000000	9.298124
1569.000000	9.287190
1568.000000	9.276200
1567.000000	9.270847
1566.000000	9.251603
1565.000000	9.240870
1564.000000	9.225470
1563.000000	9.219953
1562.000000	9.201176
1561.000000	9.186029
1560.000000	9.180541
1559.000000	9.177843
1558.000000	9.154691
1557.000000	9.141543
1556.000000	9.127071
1555.000000	9.129838
1554.000000	9.128054
1553.000000	9.122579
1552.000000	9.107303
1551.000000	9.085334
1550.000000	9.063448
1549.000000	9.053149
1548.000000	9.039670
1547.000000	9.028966
1546.000000	9.009411
1545.000000	8.965844
1544.000000	8.933844
1543.000000	8.918180
1542.000000	8.895519
1541.000000	8.872859
1540.000000	8.852263
1539.000000	8.823177
1538.000000	8.783407
1537.000000	8.771855
1536.000000	8.749134
1535.000000	8.714140
1534.000000	8.691776
1533.000000	8.666078
1532.000000	8.615312
1531.000000	8.602061
1530.000000	8.569905
1529.000000	8.554800
1528.000000	8.562875
1527.000000	8.627837
1526.000000	8.670479
1525.000000	8.660609
1524.000000	8.605993
1523.000000	8.546831
1522.000000	8.508158
1521.000000	8.472606
1520.000000	8.466656
1519.000000	8.464481
1518.000000	8.436287
1517.000000	8.416601
1516.000000	8.410352
1515.000000	8.411694
1514.000000	8.397770
1513.000000	8.369888
1512.000000	8.368446
1511.000000	8.364774
1510.000000	8.344245
1509.000000	8.321731
1508.000000	8.295518
1507.000000	8.278859
1506.000000	8.270686
1505.000000	8.260854
1504.000000	8.294000
1503.000000	8.296995
1502.000000	8.277320
1501.000000	8.254209
1500.000000	8.249793
1499.000000	8.260159
1498.000000	8.236423
1497.000000	8.247740
1496.000000	8.262974
1495.000000	8.256952
1494.000000	8.253819
1493.000000	8.250583
1492.000000	8.263243
1491.000000	8.266635
1490.000000	8.276436
1489.000000	8.265157
1488.000000	8.275655
1487.000000	8.287707
1486.000000	8.300714
1485.000000	8.300862
1484.000000	8.296325
1483.000000	8.323272
1482.000000	8.328434
1481.000000	8.344375
1480.000000	8.355692
1479.000000	8.381993
1478.000000	8.391407
1477.000000	8.393089
1476.000000	8.402569
1475.000000	8.418932
1474.000000	8.422139
1473.000000	8.423313
1472.000000	8.428899
1471.000000	8.443542
1470.000000	8.432710
1469.000000	8.458697
1468.000000	8.457739
1467.000000	8.460968
1466.000000	8.506211
1465.000000	8.510433
1464.000000	8.528637
1463.000000	8.514938
1462.000000	8.513029
1461.000000	8.568456
1460.000000	8.568525
1459.000000	8.566910
1458.000000	8.553142
1457.000000	8.567687
1456.000000	8.608343
1455.000000	8.612198
1454.000000	8.607386
1453.000000	8.605154
1452.000000	8.640128
1451.000000	8.677920
1450.000000	8.671856
1449.000000	8.681788
1448.000000	8.695568
1447.000000	8.706418
1446.000000	8.740438
1445.000000	8.747513
1444.000000	8.764177
1443.000000	8.769253
1442.000000	8.780507
1441.000000	8.784043
1440.000000	8.802039
1439.000000	8.844929
1438.000000	8.887427
1437.000000	8.909785
1436.000000	8.930152
1435.000000	8.961887
1434.000000	8.968457
1433.000000	8.987817
1432.000000	9.010660
1431.000000	9.036348
