PE UV       SUBTECH     SPECTRUM    ASCII       PEDS        4.00        
   -1
3C-H10-F021.Sample.Raw.asc
22/03/21
15:52:46.00
22/03/21
15:52:46.00
Administrator

250.000000
1
Lambda 750
750N8071901
PerkinElmer UV WinLab 6.0.4.0738 / 1.61.00 Lambda 900

0
0
3350/servo 860.8/2
0
0
UV/VIS
1
1
1
CommonBeamDepol,150mm sphere / downward view
0
0
0
0
Program
Program
3350/servo 860.8/2
3350/0.2 860.8/0.2
3350/0.2 860.8/0.2
0
1
 
 
 
0
 
860.8
319.2
860.8
Front
100
on
 
 
0
0
0
 
0
 
 
 
0
 
 
0
0
0
0
0
 
 
 
 
0
0


0
0
#HDR
-1
-1
#GR
nm
%R
1.0
0.0
2500.000000
-10.000000
226
8
43.366279
10.859199
#DATA
2500.000000	12.744119
2490.000000	10.859199
2480.000000	11.558480
2470.000000	15.362178
2460.000000	13.888116
2450.000000	15.591546
2440.000000	15.799381
2430.000000	17.081534
2420.000000	15.024018
2410.000000	16.735851
2400.000000	16.275189
2390.000000	13.940015
2380.000000	16.529376
2370.000000	16.882420
2360.000000	16.882116
2350.000000	17.088768
2340.000000	16.242300
2330.000000	15.067014
2320.000000	16.078354
2310.000000	16.808522
2300.000000	15.809037
2290.000000	16.053446
2280.000000	16.083790
2270.000000	16.302965
2260.000000	15.632282
2250.000000	17.172870
2240.000000	17.017925
2230.000000	18.098124
2220.000000	18.601825
2210.000000	18.707900
2200.000000	17.656252
2190.000000	17.879479
2180.000000	17.104133
2170.000000	17.356887
2160.000000	17.945325
2150.000000	17.387445
2140.000000	18.476323
2130.000000	18.995052
2120.000000	19.478999
2110.000000	19.497797
2100.000000	19.982466
2090.000000	19.913953
2080.000000	19.763792
2070.000000	19.005473
2060.000000	18.596998
2050.000000	18.238692
2040.000000	17.608935
2030.000000	18.064130
2020.000000	18.337692
2010.000000	18.405958
2000.000000	18.113793
1990.000000	17.890045
1980.000000	17.469171
1970.000000	17.000982
1960.000000	16.467470
1950.000000	15.991221
1940.000000	15.965575
1930.000000	16.538836
1920.000000	17.258640
1910.000000	18.458678
1900.000000	20.850977
1890.000000	23.522023
1880.000000	26.167303
1870.000000	28.261012
1860.000000	29.546616
1850.000000	29.954794
1840.000000	29.738976
1830.000000	29.711718
1820.000000	29.411998
1810.000000	29.194275
1800.000000	28.969910
1790.000000	28.631612
1780.000000	28.435856
1770.000000	28.091621
1760.000000	27.796809
1750.000000	27.392301
1740.000000	27.119791
1730.000000	26.926565
1720.000000	27.342408
1710.000000	27.993583
1700.000000	28.329328
1690.000000	28.702455
1680.000000	29.652588
1670.000000	31.004710
1660.000000	31.941462
1650.000000	32.275095
1640.000000	32.164827
1630.000000	31.968645
1620.000000	31.496317
1610.000000	31.034128
1600.000000	30.509683
1590.000000	30.010102
1580.000000	29.650463
1570.000000	29.302993
1560.000000	29.038456
1550.000000	28.806339
1540.000000	28.347122
1530.000000	27.758021
1520.000000	27.314974
1510.000000	27.057218
1500.000000	26.971031
1490.000000	26.990613
1480.000000	27.228679
1470.000000	27.527357
1460.000000	27.867873
1450.000000	28.339103
1440.000000	28.925018
1430.000000	29.685942
1420.000000	30.713130
1410.000000	32.308881
1400.000000	34.515283
1390.000000	36.578925
1380.000000	37.925921
1370.000000	38.635608
1360.000000	39.159541
1350.000000	39.577806
1340.000000	39.880435
1330.000000	40.275758
1320.000000	40.885151
1310.000000	41.427445
1300.000000	41.789929
1290.000000	41.893415
1280.000000	41.746337
1270.000000	41.602808
1260.000000	41.593932
1250.000000	41.622723
1240.000000	41.455345
1230.000000	41.192824
1220.000000	40.899080
1210.000000	40.464836
1200.000000	40.137437
1190.000000	39.972990
1180.000000	40.225171
1170.000000	40.866722
1160.000000	41.613081
1150.000000	42.266445
1140.000000	42.761517
1130.000000	43.146830
1120.000000	43.273206
1110.000000	43.241213
1100.000000	43.153478
1090.000000	43.105091
1080.000000	43.101912
1070.000000	42.994427
1060.000000	42.872458
1050.000000	42.796684
1040.000000	42.730155
1030.000000	42.694370
1020.000000	42.742680
1010.000000	42.901390
1000.000000	43.164444
990.000000	43.190211
980.000000	43.157417
970.000000	43.192895
960.000000	43.224271
950.000000	43.270426
940.000000	43.347410
930.000000	43.214180
920.000000	43.031379
910.000000	43.057549
900.000000	43.166023
890.000000	43.366279
880.000000	43.257629
870.000000	43.070650
860.000000	43.043804
850.000000	42.973881
840.000000	42.179622
830.000000	41.957672
820.000000	41.940859
810.000000	41.894169
800.000000	41.901281
790.000000	41.942741
780.000000	41.913285
770.000000	41.850053
760.000000	41.782715
750.000000	41.760696
740.000000	41.769459
730.000000	41.725211
720.000000	41.681892
710.000000	41.575480
700.000000	41.532919
690.000000	41.439557
680.000000	41.396650
670.000000	41.363808
660.000000	41.246066
650.000000	41.133145
640.000000	41.107519
630.000000	41.021763
620.000000	40.972362
610.000000	40.829372
600.000000	40.695587
590.000000	40.611784
580.000000	40.437178
570.000000	40.279777
560.000000	40.170350
550.000000	39.997820
540.000000	39.736373
530.000000	39.449754
520.000000	39.028409
510.000000	38.571515
500.000000	38.106411
490.000000	37.699110
480.000000	37.256324
470.000000	36.655874
460.000000	36.008290
450.000000	35.276563
440.000000	34.369951
430.000000	33.274404
420.000000	31.764262
410.000000	30.131031
400.000000	28.777558
390.000000	27.931594
380.000000	27.255686
370.000000	26.675707
360.000000	26.262173
350.000000	25.578439
340.000000	24.626092
330.000000	24.022680
320.000000	23.355213
310.000000	22.318378
300.000000	20.972806
290.000000	18.409986
280.000000	16.638292
270.000000	16.255920
260.000000	16.107525
250.000000	14.963130
