PE UV       SUBTECH     SPECTRUM    ASCII       PEDS        4.00        
   -1
3C-H10-F002.Sample.Raw.asc
22/02/28
14:59:10.00
22/02/28
14:59:10.00
Administrator

250.000000
1
Lambda 750
750N8071901
PerkinElmer UV WinLab 6.0.4.0738 / 1.61.00 Lambda 900

0
0
3350/servo 860.8/2
0
0
UV/VIS
1
1
1
CommonBeamDepol,150mm sphere / downward view
0
0
0
0
Program
Program
3350/servo 860.8/2
3350/0.2 860.8/0.2
3350/0.2 860.8/0.2
0
1
 
 
 
0
 
860.8
319.2
860.8
Front
100
on
 
 
0
0
0
 
0
 
 
 
0
 
 
0
0
0
0
0
 
 
 
 
0
0


0
0
#HDR
-1
-1
#GR
nm
%R
1.0
0.0
2500.000000
-10.000000
226
8
46.045519
6.386816
#DATA
2500.000000	6.386816
2490.000000	13.714538
2480.000000	12.132639
2470.000000	11.773508
2460.000000	16.109744
2450.000000	19.398550
2440.000000	10.694873
2430.000000	15.379474
2420.000000	9.185880
2410.000000	17.989439
2400.000000	19.833364
2390.000000	13.885162
2380.000000	18.075807
2370.000000	18.865873
2360.000000	17.789180
2350.000000	17.869053
2340.000000	13.032742
2330.000000	17.267614
2320.000000	19.456045
2310.000000	15.132002
2300.000000	17.351659
2290.000000	16.336621
2280.000000	15.366914
2270.000000	15.698004
2260.000000	16.230126
2250.000000	17.142785
2240.000000	18.649995
2230.000000	19.210536
2220.000000	19.373034
2210.000000	16.377563
2200.000000	17.004535
2190.000000	18.728780
2180.000000	17.352804
2170.000000	18.591357
2160.000000	19.227744
2150.000000	17.725660
2140.000000	18.599144
2130.000000	18.028976
2120.000000	18.982173
2110.000000	19.632069
2100.000000	20.992929
2090.000000	20.657982
2080.000000	20.428622
2070.000000	20.018754
2060.000000	19.441879
2050.000000	18.233699
2040.000000	17.793263
2030.000000	18.419567
2020.000000	18.554611
2010.000000	18.857376
2000.000000	18.658780
1990.000000	18.118253
1980.000000	18.209952
1970.000000	18.179933
1960.000000	17.023082
1950.000000	16.755603
1940.000000	16.491981
1930.000000	16.631868
1920.000000	18.170234
1910.000000	19.404049
1900.000000	21.960146
1890.000000	24.577890
1880.000000	26.714284
1870.000000	29.509246
1860.000000	30.666930
1850.000000	30.877698
1840.000000	30.700708
1830.000000	30.711245
1820.000000	30.474917
1810.000000	30.362146
1800.000000	30.029569
1790.000000	29.622578
1780.000000	29.335642
1770.000000	28.800613
1760.000000	28.616243
1750.000000	28.469348
1740.000000	27.986007
1730.000000	27.650752
1720.000000	28.198522
1710.000000	28.688056
1700.000000	29.172255
1690.000000	29.629368
1680.000000	30.743721
1670.000000	31.866905
1660.000000	32.760702
1650.000000	33.354503
1640.000000	33.201675
1630.000000	33.030741
1620.000000	32.598640
1610.000000	32.163030
1600.000000	31.590733
1590.000000	31.038405
1580.000000	30.471841
1570.000000	30.129043
1560.000000	29.943016
1550.000000	29.757108
1540.000000	29.230078
1530.000000	28.574541
1520.000000	28.213261
1510.000000	27.946670
1500.000000	27.821752
1490.000000	27.925120
1480.000000	28.144036
1470.000000	28.304355
1460.000000	28.640146
1450.000000	29.110545
1440.000000	29.672011
1430.000000	30.077282
1420.000000	30.590848
1410.000000	32.125311
1400.000000	34.785965
1390.000000	37.822238
1380.000000	39.702848
1370.000000	40.317111
1360.000000	40.308319
1350.000000	40.252161
1340.000000	40.440874
1330.000000	41.116810
1320.000000	42.503192
1310.000000	43.714397
1300.000000	44.483795
1290.000000	44.847836
1280.000000	44.522754
1270.000000	44.133039
1260.000000	43.770845
1250.000000	43.753411
1240.000000	43.731124
1230.000000	43.498540
1220.000000	42.989595
1210.000000	42.473764
1200.000000	42.179263
1190.000000	42.146452
1180.000000	42.584338
1170.000000	42.964797
1160.000000	43.799457
1150.000000	44.565400
1140.000000	45.256647
1130.000000	45.584666
1120.000000	45.407537
1110.000000	45.438293
1100.000000	45.553301
1090.000000	45.462671
1080.000000	45.275969
1070.000000	45.273054
1060.000000	45.182048
1050.000000	45.073488
1040.000000	44.995425
1030.000000	44.882698
1020.000000	44.762467
1010.000000	45.118476
1000.000000	45.736226
990.000000	46.045519
980.000000	45.867319
970.000000	45.756232
960.000000	45.656410
950.000000	45.676659
940.000000	45.765859
930.000000	45.709732
920.000000	45.371155
910.000000	45.404105
900.000000	45.617349
890.000000	45.428870
880.000000	44.552121
870.000000	44.429456
860.000000	44.612035
850.000000	45.046635
840.000000	45.988079
830.000000	45.844608
820.000000	45.762133
810.000000	45.672487
800.000000	45.585739
790.000000	45.622629
780.000000	45.624102
770.000000	45.477744
760.000000	45.486333
750.000000	45.513923
740.000000	45.313945
730.000000	45.156924
720.000000	45.184026
710.000000	45.138347
700.000000	45.051951
690.000000	44.889740
680.000000	44.804471
670.000000	44.764109
660.000000	44.555121
650.000000	44.556265
640.000000	44.490452
630.000000	44.338191
620.000000	44.229287
610.000000	44.079185
600.000000	43.866727
590.000000	43.763527
580.000000	43.553120
570.000000	43.282602
560.000000	43.092447
550.000000	42.886533
540.000000	42.549207
530.000000	42.229379
520.000000	41.983069
510.000000	41.676442
500.000000	41.315960
490.000000	40.838009
480.000000	40.238275
470.000000	39.502071
460.000000	38.760307
450.000000	37.862858
440.000000	36.825670
430.000000	35.459707
420.000000	33.864750
410.000000	32.078690
400.000000	30.570011
390.000000	29.628960
380.000000	28.739929
370.000000	27.673593
360.000000	26.602390
350.000000	25.959118
340.000000	25.292372
330.000000	24.432190
320.000000	23.463666
310.000000	22.298985
300.000000	21.141686
290.000000	18.553603
280.000000	16.802231
270.000000	16.391088
260.000000	16.326728
250.000000	15.033999
