PE UV       SUBTECH     SPECTRUM    ASCII       PEDS        4.00        
   -1
3C-H10-006.Sample.Raw.asc
22/02/23
17:03:09.00
22/02/23
17:03:09.00
Administrator

250.000000
1
Lambda 750
750N8071901
PerkinElmer UV WinLab 6.0.4.0738 / 1.61.00 Lambda 900

0
0
3350/servo 860.8/2
0
0
UV/VIS
1
1
1
CommonBeamDepol,150mm sphere / downward view
0
0
0
0
Program
Program
3350/servo 860.8/2
3350/0.2 860.8/0.2
3350/0.2 860.8/0.2
0
1
 
 
 
0
 
860.8
319.2
860.8
Front
100
on
 
 
0
0
0
 
0
 
 
 
0
 
 
0
0
0
0
0
 
 
 
 
0
0


0
0
#HDR
-1
-1
#GR
nm
%R
1.0
0.0
2500.000000
-10.000000
226
8
47.981039
8.591828
#DATA
2500.000000	8.591828
2490.000000	12.898019
2480.000000	14.505613
2470.000000	13.805180
2460.000000	16.473162
2450.000000	14.022182
2440.000000	16.132812
2430.000000	11.888319
2420.000000	12.893208
2410.000000	17.741914
2400.000000	18.582100
2390.000000	17.334182
2380.000000	15.060072
2370.000000	14.376787
2360.000000	17.260131
2350.000000	22.422360
2340.000000	19.656131
2330.000000	17.596130
2320.000000	16.553871
2310.000000	19.322266
2300.000000	17.453690
2290.000000	19.128834
2280.000000	15.245237
2270.000000	17.445965
2260.000000	15.081851
2250.000000	16.805786
2240.000000	20.307141
2230.000000	18.040699
2220.000000	20.669466
2210.000000	19.559247
2200.000000	18.154671
2190.000000	19.298526
2180.000000	16.184087
2170.000000	17.621299
2160.000000	19.217054
2150.000000	18.167238
2140.000000	19.650491
2130.000000	20.039416
2120.000000	19.601932
2110.000000	20.655267
2100.000000	20.871864
2090.000000	20.889433
2080.000000	21.424204
2070.000000	20.946676
2060.000000	20.416639
2050.000000	19.302398
2040.000000	18.919279
2030.000000	18.739044
2020.000000	19.006524
2010.000000	19.343438
2000.000000	18.926113
1990.000000	18.814115
1980.000000	18.454100
1970.000000	17.727870
1960.000000	17.253483
1950.000000	16.495559
1940.000000	16.440017
1930.000000	16.897709
1920.000000	18.167031
1910.000000	19.176912
1900.000000	21.345938
1890.000000	24.770442
1880.000000	27.707098
1870.000000	30.256605
1860.000000	31.191687
1850.000000	31.075588
1840.000000	31.510804
1830.000000	31.567070
1820.000000	31.465929
1810.000000	31.261707
1800.000000	30.831359
1790.000000	30.575173
1780.000000	30.221446
1770.000000	30.029174
1760.000000	29.544221
1750.000000	29.142961
1740.000000	28.842903
1730.000000	28.503496
1720.000000	28.950248
1710.000000	29.510640
1700.000000	30.186120
1690.000000	30.677836
1680.000000	31.703854
1670.000000	32.939230
1660.000000	33.745065
1650.000000	34.153189
1640.000000	34.173085
1630.000000	34.019504
1620.000000	33.513993
1610.000000	32.924492
1600.000000	32.411387
1590.000000	31.822718
1580.000000	31.302651
1570.000000	30.879461
1560.000000	30.699789
1550.000000	30.386449
1540.000000	29.843365
1530.000000	29.143783
1520.000000	28.635184
1510.000000	28.481220
1500.000000	28.289839
1490.000000	28.261743
1480.000000	28.399207
1470.000000	28.703011
1460.000000	29.081439
1450.000000	29.537364
1440.000000	30.344496
1430.000000	31.003052
1420.000000	32.186722
1410.000000	33.403576
1400.000000	35.682115
1390.000000	38.734800
1380.000000	40.503868
1370.000000	41.260739
1360.000000	41.640950
1350.000000	41.709671
1340.000000	41.444993
1330.000000	41.336212
1320.000000	41.958773
1310.000000	43.439836
1300.000000	44.949019
1290.000000	45.850750
1280.000000	45.968832
1270.000000	45.494129
1260.000000	44.915356
1250.000000	44.451046
1240.000000	44.151706
1230.000000	44.149369
1220.000000	44.194975
1210.000000	43.735869
1200.000000	43.331873
1190.000000	43.133424
1180.000000	43.333600
1170.000000	43.979819
1160.000000	44.766806
1150.000000	45.540117
1140.000000	46.087261
1130.000000	46.493721
1120.000000	46.960988
1110.000000	46.710002
1100.000000	46.751185
1090.000000	46.823529
1080.000000	46.695628
1070.000000	46.647465
1060.000000	46.588867
1050.000000	46.618531
1040.000000	46.545793
1030.000000	46.443485
1020.000000	46.633825
1010.000000	47.192538
1000.000000	47.893282
990.000000	47.969420
980.000000	47.716318
970.000000	47.733457
960.000000	47.869817
950.000000	47.880416
940.000000	47.731031
930.000000	47.720409
920.000000	47.723515
910.000000	47.714382
900.000000	47.687748
890.000000	47.821780
880.000000	47.981039
870.000000	47.414696
860.000000	47.257288
850.000000	47.072227
840.000000	46.944624
830.000000	47.037659
820.000000	47.067139
810.000000	47.080086
800.000000	47.149598
790.000000	47.195695
780.000000	46.992422
770.000000	47.033437
760.000000	47.119098
750.000000	47.215480
740.000000	47.184129
730.000000	46.915155
720.000000	46.889849
710.000000	46.953861
700.000000	46.908863
690.000000	46.851843
680.000000	46.726732
670.000000	46.675464
660.000000	46.623898
650.000000	46.656161
640.000000	46.491527
630.000000	46.368701
620.000000	46.314300
610.000000	46.140753
600.000000	46.009288
590.000000	45.893462
580.000000	45.716182
570.000000	45.535598
560.000000	45.296191
550.000000	44.998506
540.000000	44.737286
530.000000	44.408087
520.000000	44.108095
510.000000	43.666351
500.000000	43.188173
490.000000	42.598352
480.000000	41.886244
470.000000	41.053929
460.000000	40.192495
450.000000	39.044835
440.000000	37.785375
430.000000	36.431577
420.000000	34.710142
410.000000	32.897536
400.000000	31.340484
390.000000	30.199998
380.000000	29.101286
370.000000	28.063880
360.000000	27.113309
350.000000	26.158078
340.000000	25.063299
330.000000	24.117343
320.000000	23.375648
310.000000	22.167189
300.000000	20.877067
290.000000	18.436960
280.000000	16.692879
270.000000	16.412556
260.000000	16.399084
250.000000	15.193804
