PE UV       SUBTECH     SPECTRUM    ASCII       PEDS        4.00        
   -1
3C-H10-F007.Sample.Raw.asc
22/02/28
15:20:57.00
22/02/28
15:20:57.00
Administrator

250.000000
1
Lambda 750
750N8071901
PerkinElmer UV WinLab 6.0.4.0738 / 1.61.00 Lambda 900

0
0
3350/servo 860.8/2
0
0
UV/VIS
1
1
1
CommonBeamDepol,150mm sphere / downward view
0
0
0
0
Program
Program
3350/servo 860.8/2
3350/0.2 860.8/0.2
3350/0.2 860.8/0.2
0
1
 
 
 
0
 
860.8
319.2
860.8
Front
100
on
 
 
0
0
0
 
0
 
 
 
0
 
 
0
0
0
0
0
 
 
 
 
0
0


0
0
#HDR
-1
-1
#GR
nm
%R
1.0
0.0
2500.000000
-10.000000
226
8
44.601262
9.223084
#DATA
2500.000000	16.596243
2490.000000	14.186853
2480.000000	15.171493
2470.000000	12.807388
2460.000000	15.092807
2450.000000	15.351277
2440.000000	9.223084
2430.000000	10.709676
2420.000000	14.901884
2410.000000	16.293909
2400.000000	18.845332
2390.000000	10.947115
2380.000000	18.280269
2370.000000	14.106738
2360.000000	18.592220
2350.000000	20.124994
2340.000000	16.528910
2330.000000	17.314850
2320.000000	13.995332
2310.000000	13.595745
2300.000000	15.302076
2290.000000	17.475151
2280.000000	17.547131
2270.000000	15.069211
2260.000000	12.984230
2250.000000	15.521119
2240.000000	18.584981
2230.000000	17.146145
2220.000000	18.493720
2210.000000	16.800066
2200.000000	16.663437
2190.000000	17.490816
2180.000000	16.285549
2170.000000	16.866991
2160.000000	17.652664
2150.000000	17.405992
2140.000000	17.940579
2130.000000	18.192847
2120.000000	17.401707
2110.000000	18.471213
2100.000000	20.787701
2090.000000	18.989876
2080.000000	18.731623
2070.000000	18.676996
2060.000000	17.988780
2050.000000	18.192528
2040.000000	17.414777
2030.000000	17.045029
2020.000000	18.152404
2010.000000	18.079877
2000.000000	17.892935
1990.000000	17.552038
1980.000000	17.090284
1970.000000	16.964783
1960.000000	15.845183
1950.000000	15.526329
1940.000000	15.700856
1930.000000	15.869547
1920.000000	16.096482
1910.000000	18.116007
1900.000000	20.412596
1890.000000	23.283611
1880.000000	26.261152
1870.000000	28.607077
1860.000000	29.938512
1850.000000	29.951079
1840.000000	30.209722
1830.000000	29.792399
1820.000000	29.347466
1810.000000	29.242180
1800.000000	29.241499
1790.000000	28.799711
1780.000000	28.144927
1770.000000	27.805092
1760.000000	27.581929
1750.000000	27.361448
1740.000000	26.950627
1730.000000	26.525114
1720.000000	27.169894
1710.000000	27.477920
1700.000000	28.145515
1690.000000	28.666829
1680.000000	29.580452
1670.000000	30.972679
1660.000000	31.912994
1650.000000	32.197203
1640.000000	32.317468
1630.000000	32.243320
1620.000000	31.813616
1610.000000	31.103218
1600.000000	30.471131
1590.000000	29.934963
1580.000000	29.569972
1570.000000	29.154936
1560.000000	28.987921
1550.000000	28.687000
1540.000000	28.125421
1530.000000	27.534477
1520.000000	27.179763
1510.000000	26.863775
1500.000000	26.719906
1490.000000	26.823641
1480.000000	26.986189
1470.000000	27.295866
1460.000000	27.673625
1450.000000	28.145434
1440.000000	28.744359
1430.000000	29.040845
1420.000000	29.574037
1410.000000	31.098890
1400.000000	33.682179
1390.000000	36.862572
1380.000000	38.765785
1370.000000	39.416199
1360.000000	39.424760
1350.000000	39.368061
1340.000000	39.333222
1330.000000	39.930754
1320.000000	41.265655
1310.000000	42.440148
1300.000000	43.299352
1290.000000	43.634832
1280.000000	43.438474
1270.000000	43.014842
1260.000000	42.828036
1250.000000	42.757908
1240.000000	42.638252
1230.000000	42.336740
1220.000000	41.931641
1210.000000	41.448253
1200.000000	41.111975
1190.000000	41.041728
1180.000000	41.389438
1170.000000	41.745151
1160.000000	42.572182
1150.000000	43.264756
1140.000000	43.755500
1130.000000	44.115456
1120.000000	44.208275
1110.000000	44.136870
1100.000000	44.273030
1090.000000	44.193470
1080.000000	44.076104
1070.000000	43.960313
1060.000000	43.801234
1050.000000	43.546785
1040.000000	43.247405
1030.000000	43.198857
1020.000000	43.348327
1010.000000	43.791849
1000.000000	44.486101
990.000000	44.601262
980.000000	44.288632
970.000000	44.204860
960.000000	44.162543
950.000000	44.115232
940.000000	44.115329
930.000000	43.909547
920.000000	43.578309
910.000000	43.557830
900.000000	43.815226
890.000000	43.505646
880.000000	43.289728
870.000000	43.479368
860.000000	43.327177
850.000000	43.571969
840.000000	44.157417
830.000000	44.091898
820.000000	44.058622
810.000000	43.859132
800.000000	43.738060
790.000000	43.766588
780.000000	43.708921
770.000000	43.722633
760.000000	43.780166
750.000000	43.662507
740.000000	43.524290
730.000000	43.473273
720.000000	43.458493
710.000000	43.391638
700.000000	43.303749
690.000000	43.280677
680.000000	43.194770
670.000000	43.130879
660.000000	42.956114
650.000000	42.877931
640.000000	42.754651
630.000000	42.663632
620.000000	42.532702
610.000000	42.349618
600.000000	42.198677
590.000000	42.016253
580.000000	41.764992
570.000000	41.536796
560.000000	41.372326
550.000000	41.133578
540.000000	40.845019
530.000000	40.568745
520.000000	40.310429
510.000000	40.006649
500.000000	39.670226
490.000000	39.208271
480.000000	38.618228
470.000000	37.864830
460.000000	37.136474
450.000000	36.302369
440.000000	35.261864
430.000000	33.865992
420.000000	32.355016
410.000000	30.556365
400.000000	29.083263
390.000000	28.247658
380.000000	27.451567
370.000000	26.587344
360.000000	25.687323
350.000000	25.037533
340.000000	23.939035
330.000000	22.985076
320.000000	22.444650
310.000000	21.708979
300.000000	19.895709
290.000000	17.816445
280.000000	16.234951
270.000000	15.886718
260.000000	15.872811
250.000000	14.767495
