PE UV       SUBTECH     SPECTRUM    ASCII       PEDS        4.00        
   -1
3C-H10-C019.Sample.Raw.asc
22/03/18
16:23:59.00
22/03/18
16:23:59.00
Administrator

250.000000
1
Lambda 750
750N8071901
PerkinElmer UV WinLab 6.0.4.0738 / 1.61.00 Lambda 900

0
0
3350/servo 860.8/2
0
0
UV/VIS
1
1
1
CommonBeamDepol,150mm sphere / downward view
0
0
0
0
Program
Program
3350/servo 860.8/2
3350/0.2 860.8/0.2
3350/0.2 860.8/0.2
0
1
 
 
 
0
 
860.8
319.2
860.8
Front
100
on
 
 
0
0
0
 
0
 
 
 
0
 
 
0
0
0
0
0
 
 
 
 
0
0


0
0
#HDR
-1
-1
#GR
nm
%R
1.0
0.0
2500.000000
-10.000000
226
8
49.816874
11.695583
#DATA
2500.000000	15.041770
2490.000000	14.457130
2480.000000	11.695583
2470.000000	15.819684
2460.000000	15.804362
2450.000000	15.715836
2440.000000	16.785012
2430.000000	17.994349
2420.000000	18.776014
2410.000000	18.089136
2400.000000	17.389711
2390.000000	17.261331
2380.000000	18.933876
2370.000000	18.388908
2360.000000	17.862110
2350.000000	20.426179
2340.000000	19.641955
2330.000000	18.832461
2320.000000	18.832752
2310.000000	16.967873
2300.000000	18.650388
2290.000000	17.417667
2280.000000	17.561743
2270.000000	18.024553
2260.000000	17.566788
2250.000000	18.608868
2240.000000	19.252377
2230.000000	19.961642
2220.000000	20.702812
2210.000000	20.619028
2200.000000	19.920338
2190.000000	19.760756
2180.000000	19.511693
2170.000000	19.654586
2160.000000	19.851706
2150.000000	20.272112
2140.000000	20.131988
2130.000000	21.779047
2120.000000	21.629236
2110.000000	21.872203
2100.000000	22.290829
2090.000000	21.805835
2080.000000	21.595358
2070.000000	21.729564
2060.000000	20.990144
2050.000000	20.557931
2040.000000	19.726052
2030.000000	19.925581
2020.000000	20.561682
2010.000000	20.520743
2000.000000	20.162548
1990.000000	19.906548
1980.000000	19.414746
1970.000000	18.785472
1960.000000	18.250002
1950.000000	17.819937
1940.000000	17.513097
1930.000000	18.096484
1920.000000	18.899810
1910.000000	19.984289
1900.000000	22.729696
1890.000000	26.023111
1880.000000	28.964164
1870.000000	31.470779
1860.000000	32.686755
1850.000000	33.148707
1840.000000	33.071325
1830.000000	32.897998
1820.000000	32.636936
1810.000000	32.359591
1800.000000	31.977451
1790.000000	31.745281
1780.000000	31.471898
1770.000000	31.193881
1760.000000	30.816833
1750.000000	30.458395
1740.000000	30.072508
1730.000000	29.860940
1720.000000	30.178295
1710.000000	31.059578
1700.000000	31.349283
1690.000000	31.839366
1680.000000	32.912957
1670.000000	34.317776
1660.000000	35.323844
1650.000000	35.793784
1640.000000	35.571708
1630.000000	35.243221
1620.000000	34.764677
1610.000000	34.201149
1600.000000	33.689226
1590.000000	33.207103
1580.000000	32.815160
1570.000000	32.368529
1560.000000	32.011757
1550.000000	31.695143
1540.000000	31.185764
1530.000000	30.543361
1520.000000	30.059209
1510.000000	29.822667
1500.000000	29.690358
1490.000000	29.765876
1480.000000	30.009416
1470.000000	30.274011
1460.000000	30.578494
1450.000000	31.116624
1440.000000	31.854220
1430.000000	32.770343
1420.000000	33.934574
1410.000000	35.604224
1400.000000	37.859907
1390.000000	40.195133
1380.000000	41.832268
1370.000000	42.658179
1360.000000	43.157465
1350.000000	43.565448
1340.000000	43.874769
1330.000000	44.187197
1320.000000	44.776527
1310.000000	45.433298
1300.000000	45.868076
1290.000000	46.051765
1280.000000	46.000271
1270.000000	45.836480
1260.000000	45.839199
1250.000000	45.835683
1240.000000	45.671043
1230.000000	45.375564
1220.000000	45.037864
1210.000000	44.613677
1200.000000	44.234706
1190.000000	44.131655
1180.000000	44.472377
1170.000000	45.185887
1160.000000	46.071396
1150.000000	46.813433
1140.000000	47.442653
1130.000000	47.804310
1120.000000	47.927526
1110.000000	47.966225
1100.000000	48.032080
1090.000000	48.067117
1080.000000	48.064332
1070.000000	47.981106
1060.000000	47.926999
1050.000000	47.853860
1040.000000	47.791549
1030.000000	47.797361
1020.000000	47.914306
1010.000000	48.254120
1000.000000	48.644476
990.000000	48.762672
980.000000	48.780970
970.000000	48.887199
960.000000	49.036674
950.000000	49.148811
940.000000	49.146306
930.000000	49.088834
920.000000	49.073744
910.000000	49.170088
900.000000	49.320378
890.000000	49.561049
880.000000	49.631558
870.000000	49.517213
860.000000	49.528429
850.000000	49.578057
840.000000	49.655029
830.000000	49.816874
820.000000	49.743927
810.000000	49.725691
800.000000	49.783403
790.000000	49.749636
780.000000	49.661563
770.000000	49.700780
760.000000	49.777305
750.000000	49.772242
740.000000	49.654329
730.000000	49.650384
720.000000	49.731032
710.000000	49.661306
700.000000	49.504377
690.000000	49.375908
680.000000	49.397039
670.000000	49.497338
660.000000	49.469683
650.000000	49.465208
640.000000	49.406392
630.000000	49.375118
620.000000	49.318723
610.000000	49.254693
600.000000	49.182206
590.000000	49.095021
580.000000	48.997875
570.000000	48.891097
560.000000	48.768390
550.000000	48.600745
540.000000	48.323881
530.000000	47.977379
520.000000	47.600459
510.000000	47.066513
500.000000	46.450995
490.000000	45.822066
480.000000	45.224883
470.000000	44.568604
460.000000	43.721885
450.000000	42.680366
440.000000	41.549153
430.000000	40.088160
420.000000	38.360556
410.000000	36.549756
400.000000	34.965880
390.000000	33.821997
380.000000	32.723364
370.000000	31.590863
360.000000	30.494987
350.000000	29.555320
340.000000	28.535594
330.000000	27.457578
320.000000	26.635532
310.000000	25.560694
300.000000	23.742205
290.000000	20.908311
280.000000	18.968468
270.000000	18.778649
260.000000	18.681627
250.000000	17.280879
