PE UV       SUBTECH     SPECTRUM    ASCII       PEDS        4.00        
   -1
3C-H10-F003.Sample.Raw.asc
22/02/28
15:02:17.00
22/02/28
15:02:17.00
Administrator

250.000000
1
Lambda 750
750N8071901
PerkinElmer UV WinLab 6.0.4.0738 / 1.61.00 Lambda 900

0
0
3350/servo 860.8/2
0
0
UV/VIS
1
1
1
CommonBeamDepol,150mm sphere / downward view
0
0
0
0
Program
Program
3350/servo 860.8/2
3350/0.2 860.8/0.2
3350/0.2 860.8/0.2
0
1
 
 
 
0
 
860.8
319.2
860.8
Front
100
on
 
 
0
0
0
 
0
 
 
 
0
 
 
0
0
0
0
0
 
 
 
 
0
0


0
0
#HDR
-1
-1
#GR
nm
%R
1.0
0.0
2500.000000
-10.000000
226
8
47.207631
10.052405
#DATA
2500.000000	12.793376
2490.000000	14.980667
2480.000000	14.140193
2470.000000	10.052405
2460.000000	17.543227
2450.000000	12.225044
2440.000000	15.091740
2430.000000	12.506962
2420.000000	16.030354
2410.000000	16.884756
2400.000000	18.497389
2390.000000	15.930888
2380.000000	17.266088
2370.000000	16.200277
2360.000000	16.940755
2350.000000	20.898177
2340.000000	14.631447
2330.000000	17.290917
2320.000000	16.029874
2310.000000	16.728767
2300.000000	16.422684
2290.000000	16.172238
2280.000000	15.988675
2270.000000	16.644938
2260.000000	15.193692
2250.000000	17.226174
2240.000000	19.142329
2230.000000	18.974696
2220.000000	19.516282
2210.000000	18.079683
2200.000000	19.265605
2190.000000	19.009503
2180.000000	17.947750
2170.000000	17.780596
2160.000000	19.355004
2150.000000	18.995577
2140.000000	18.795964
2130.000000	18.523129
2120.000000	19.626609
2110.000000	19.229723
2100.000000	20.734218
2090.000000	20.627323
2080.000000	20.001521
2070.000000	19.940716
2060.000000	19.658619
2050.000000	18.465524
2040.000000	18.672388
2030.000000	18.237522
2020.000000	18.903106
2010.000000	18.962443
2000.000000	18.575745
1990.000000	18.047234
1980.000000	17.906938
1970.000000	18.115125
1960.000000	16.835792
1950.000000	16.962543
1940.000000	16.767834
1930.000000	17.098887
1920.000000	17.750438
1910.000000	19.319368
1900.000000	21.618216
1890.000000	24.271888
1880.000000	27.310779
1870.000000	29.752383
1860.000000	30.864024
1850.000000	31.119424
1840.000000	31.183406
1830.000000	31.454861
1820.000000	30.779857
1810.000000	30.636527
1800.000000	30.266118
1790.000000	30.107909
1780.000000	29.590195
1770.000000	29.133955
1760.000000	28.767308
1750.000000	28.630930
1740.000000	28.241008
1730.000000	27.922722
1720.000000	28.357463
1710.000000	28.903876
1700.000000	29.437924
1690.000000	30.027483
1680.000000	31.086275
1670.000000	32.394204
1660.000000	33.254556
1650.000000	33.799718
1640.000000	33.635763
1630.000000	33.396925
1620.000000	33.126468
1610.000000	32.490655
1600.000000	31.902553
1590.000000	31.273618
1580.000000	30.877746
1570.000000	30.567134
1560.000000	30.293539
1550.000000	29.887343
1540.000000	29.372573
1530.000000	28.759741
1520.000000	28.479804
1510.000000	28.241947
1500.000000	27.998432
1490.000000	28.012519
1480.000000	28.162690
1470.000000	28.551828
1460.000000	29.034696
1450.000000	29.466045
1440.000000	30.059658
1430.000000	30.286116
1420.000000	30.885239
1410.000000	32.434785
1400.000000	35.054835
1390.000000	38.255304
1380.000000	40.298174
1370.000000	40.894258
1360.000000	40.989995
1350.000000	40.928689
1340.000000	41.071245
1330.000000	41.765505
1320.000000	43.322843
1310.000000	44.577305
1300.000000	45.305601
1290.000000	45.678061
1280.000000	45.335310
1270.000000	44.900175
1260.000000	44.666286
1250.000000	44.611156
1240.000000	44.539549
1230.000000	44.277843
1220.000000	43.831297
1210.000000	43.355821
1200.000000	43.074930
1190.000000	42.966066
1180.000000	43.361446
1170.000000	43.841498
1160.000000	44.632688
1150.000000	45.460639
1140.000000	46.179688
1130.000000	46.450266
1120.000000	46.378767
1110.000000	46.312316
1100.000000	46.448210
1090.000000	46.479692
1080.000000	46.401360
1070.000000	46.243009
1060.000000	46.083572
1050.000000	45.962430
1040.000000	45.808854
1030.000000	45.690312
1020.000000	45.598638
1010.000000	45.901424
1000.000000	46.628281
990.000000	46.871606
980.000000	46.650164
970.000000	46.633041
960.000000	46.553961
950.000000	46.552971
940.000000	46.591124
930.000000	46.373470
920.000000	46.119031
910.000000	46.476001
900.000000	46.661558
890.000000	46.188706
880.000000	45.592773
870.000000	45.967196
860.000000	46.175639
850.000000	45.889383
840.000000	47.204976
830.000000	47.207631
820.000000	47.197630
810.000000	47.143700
800.000000	47.088605
790.000000	46.802990
780.000000	46.669884
770.000000	46.777604
760.000000	46.776038
750.000000	46.698298
740.000000	46.578192
730.000000	46.566238
720.000000	46.555324
710.000000	46.452950
700.000000	46.394561
690.000000	46.317638
680.000000	46.183777
670.000000	46.208725
660.000000	46.028165
650.000000	45.931949
640.000000	45.927167
630.000000	45.827368
620.000000	45.683590
610.000000	45.488393
600.000000	45.293084
590.000000	45.112695
580.000000	44.913242
570.000000	44.668297
560.000000	44.492631
550.000000	44.189684
540.000000	43.880719
530.000000	43.592549
520.000000	43.300435
510.000000	42.964227
500.000000	42.597649
490.000000	42.103233
480.000000	41.429650
470.000000	40.656384
460.000000	39.820027
450.000000	38.792290
440.000000	37.725285
430.000000	36.416301
420.000000	34.824219
410.000000	32.977639
400.000000	31.288878
390.000000	30.243341
380.000000	29.339251
370.000000	28.468004
360.000000	27.301838
350.000000	26.395658
340.000000	25.523886
330.000000	24.563491
320.000000	23.707594
310.000000	22.880107
300.000000	20.927287
290.000000	18.579689
280.000000	16.930986
270.000000	16.601632
260.000000	16.589862
250.000000	15.301831
