PE UV       SUBTECH     SPECTRUM    ASCII       PEDS        4.00        
   -1
3C-H10-C028.Sample.Raw.asc
22/03/18
16:51:22.00
22/03/18
16:51:22.00
Administrator

250.000000
1
Lambda 750
750N8071901
PerkinElmer UV WinLab 6.0.4.0738 / 1.61.00 Lambda 900

0
0
3350/servo 860.8/2
0
0
UV/VIS
1
1
1
CommonBeamDepol,150mm sphere / downward view
0
0
0
0
Program
Program
3350/servo 860.8/2
3350/0.2 860.8/0.2
3350/0.2 860.8/0.2
0
1
 
 
 
0
 
860.8
319.2
860.8
Front
100
on
 
 
0
0
0
 
0
 
 
 
0
 
 
0
0
0
0
0
 
 
 
 
0
0


0
0
#HDR
-1
-1
#GR
nm
%R
1.0
0.0
2500.000000
-10.000000
226
8
40.737162
8.268948
#DATA
2500.000000	12.476375
2490.000000	9.542440
2480.000000	8.268948
2470.000000	12.163779
2460.000000	12.037556
2450.000000	11.947972
2440.000000	12.503970
2430.000000	12.899180
2420.000000	13.668381
2410.000000	13.891271
2400.000000	13.450448
2390.000000	13.500721
2380.000000	15.694644
2370.000000	13.042160
2360.000000	14.249086
2350.000000	15.573223
2340.000000	16.199867
2330.000000	14.372637
2320.000000	14.230931
2310.000000	14.689779
2300.000000	14.693019
2290.000000	13.941615
2280.000000	12.989294
2270.000000	12.514346
2260.000000	13.987833
2250.000000	14.561755
2240.000000	15.370987
2230.000000	15.765794
2220.000000	15.668299
2210.000000	16.038882
2200.000000	15.543451
2190.000000	15.319767
2180.000000	14.877971
2170.000000	15.261135
2160.000000	15.262387
2150.000000	15.473458
2140.000000	15.732230
2130.000000	17.263980
2120.000000	17.095057
2110.000000	17.260375
2100.000000	17.563024
2090.000000	17.372304
2080.000000	17.311793
2070.000000	16.953518
2060.000000	16.274537
2050.000000	15.797890
2040.000000	15.161300
2030.000000	15.418959
2020.000000	15.845515
2010.000000	15.914892
2000.000000	15.549440
1990.000000	15.153378
1980.000000	14.809500
1970.000000	14.217818
1960.000000	13.934554
1950.000000	13.550704
1940.000000	13.146535
1930.000000	13.750268
1920.000000	14.249166
1910.000000	15.438088
1900.000000	17.581352
1890.000000	20.329789
1880.000000	22.800910
1870.000000	24.978742
1860.000000	26.175373
1850.000000	26.535051
1840.000000	26.522802
1830.000000	26.308819
1820.000000	26.063192
1810.000000	25.869682
1800.000000	25.526359
1790.000000	25.319641
1780.000000	25.123567
1770.000000	24.951574
1760.000000	24.709742
1750.000000	24.341461
1740.000000	24.065600
1730.000000	23.768597
1720.000000	24.023724
1710.000000	24.617045
1700.000000	24.973927
1690.000000	25.251745
1680.000000	26.140182
1670.000000	27.309718
1660.000000	28.140799
1650.000000	28.543370
1640.000000	28.343138
1630.000000	28.109643
1620.000000	27.765178
1610.000000	27.282474
1600.000000	26.799400
1590.000000	26.482544
1580.000000	26.130962
1570.000000	25.759998
1560.000000	25.487675
1550.000000	25.192666
1540.000000	24.760163
1530.000000	24.226476
1520.000000	23.785020
1510.000000	23.598642
1500.000000	23.446778
1490.000000	23.465599
1480.000000	23.618717
1470.000000	23.831326
1460.000000	24.110717
1450.000000	24.541634
1440.000000	25.113838
1430.000000	25.840084
1420.000000	26.731490
1410.000000	28.079794
1400.000000	29.935160
1390.000000	31.885310
1380.000000	33.253189
1370.000000	33.935864
1360.000000	34.277244
1350.000000	34.507015
1340.000000	34.672169
1330.000000	34.804282
1320.000000	35.230355
1310.000000	35.869031
1300.000000	36.379716
1290.000000	36.651444
1280.000000	36.637127
1270.000000	36.474318
1260.000000	36.403951
1250.000000	36.351544
1240.000000	36.203571
1230.000000	35.977727
1220.000000	35.753425
1210.000000	35.507008
1200.000000	35.231944
1190.000000	35.140506
1180.000000	35.385331
1170.000000	35.901729
1160.000000	36.575405
1150.000000	37.160506
1140.000000	37.603090
1130.000000	37.897646
1120.000000	38.019887
1110.000000	38.140946
1100.000000	38.203901
1090.000000	38.246005
1080.000000	38.189621
1070.000000	38.109679
1060.000000	38.058780
1050.000000	38.015827
1040.000000	38.041128
1030.000000	38.073088
1020.000000	38.220706
1010.000000	38.592737
1000.000000	38.980378
990.000000	39.121443
980.000000	39.134064
970.000000	39.188591
960.000000	39.267253
950.000000	39.393758
940.000000	39.459495
930.000000	39.433189
920.000000	39.436869
910.000000	39.436970
900.000000	39.397184
890.000000	39.564217
880.000000	39.707194
870.000000	39.784623
860.000000	40.031235
850.000000	40.206784
840.000000	40.470136
830.000000	40.737162
820.000000	40.613801
810.000000	40.493174
800.000000	40.578012
790.000000	40.571214
780.000000	40.575727
770.000000	40.490742
760.000000	40.504863
750.000000	40.571456
740.000000	40.527012
730.000000	40.414945
720.000000	40.475748
710.000000	40.441973
700.000000	40.332198
690.000000	40.275734
680.000000	40.310887
670.000000	40.339881
660.000000	40.264560
650.000000	40.194425
640.000000	40.134518
630.000000	40.106916
620.000000	40.058755
610.000000	40.005942
600.000000	39.924913
590.000000	39.841756
580.000000	39.730741
570.000000	39.650995
560.000000	39.576247
550.000000	39.401476
540.000000	39.095034
530.000000	38.800583
520.000000	38.413501
510.000000	37.952671
500.000000	37.502830
490.000000	37.045105
480.000000	36.508485
470.000000	35.933400
460.000000	35.177964
450.000000	34.336803
440.000000	33.395967
430.000000	32.154626
420.000000	30.710343
410.000000	29.095130
400.000000	27.667760
390.000000	26.571939
380.000000	25.611851
370.000000	24.790815
360.000000	24.068353
350.000000	23.090776
340.000000	22.246790
330.000000	21.341612
320.000000	20.460623
310.000000	20.659386
300.000000	21.041764
290.000000	18.413476
280.000000	16.588163
270.000000	16.497687
260.000000	16.478341
250.000000	15.350003
