PE UV       SUBTECH     SPECTRUM    ASCII       PEDS        4.00        
   -1
3C-N10-F001.Sample.Raw.asc
22/03/02
15:39:10.00
22/03/02
15:39:10.00
Administrator

250.000000
1
Lambda 750
750N8071901
PerkinElmer UV WinLab 6.0.4.0738 / 1.61.00 Lambda 900

0
0
3350/servo 860.8/2
0
0
UV/VIS
1
1
1
CommonBeamDepol,150mm sphere / downward view
0
0
0
0
Program
Program
3350/servo 860.8/2
3350/0.2 860.8/0.2
3350/0.2 860.8/0.2
0
1
 
 
 
0
 
860.8
319.2
860.8
Front
100
on
 
 
0
0
0
 
0
 
 
 
0
 
 
0
0
0
0
0
 
 
 
 
0
0


0
0
#HDR
-1
-1
#GR
nm
%R
1.0
0.0
2500.000000
-10.000000
226
8
43.294727
3.467539
#DATA
2500.000000	7.292038
2490.000000	8.159452
2480.000000	10.068524
2470.000000	3.467539
2460.000000	11.688720
2450.000000	16.456024
2440.000000	15.577259
2430.000000	11.717329
2420.000000	17.152711
2410.000000	15.151023
2400.000000	19.136577
2390.000000	14.574240
2380.000000	16.567116
2370.000000	15.976417
2360.000000	19.694946
2350.000000	18.271257
2340.000000	17.441389
2330.000000	14.301873
2320.000000	14.008230
2310.000000	14.514228
2300.000000	14.639917
2290.000000	15.352622
2280.000000	12.888189
2270.000000	13.323969
2260.000000	14.397512
2250.000000	15.746613
2240.000000	16.340376
2230.000000	16.298403
2220.000000	17.905937
2210.000000	15.377582
2200.000000	15.457202
2190.000000	18.912407
2180.000000	16.171005
2170.000000	16.786146
2160.000000	16.101100
2150.000000	14.859534
2140.000000	17.165693
2130.000000	16.712135
2120.000000	18.606848
2110.000000	18.133712
2100.000000	18.725076
2090.000000	17.448505
2080.000000	18.461789
2070.000000	17.856352
2060.000000	16.572176
2050.000000	15.901197
2040.000000	16.430112
2030.000000	16.103162
2020.000000	16.859778
2010.000000	16.667860
2000.000000	16.144680
1990.000000	16.599528
1980.000000	15.653998
1970.000000	15.235136
1960.000000	14.476282
1950.000000	15.236615
1940.000000	14.398983
1930.000000	14.293713
1920.000000	15.319126
1910.000000	16.366893
1900.000000	18.871134
1890.000000	22.003729
1880.000000	24.451012
1870.000000	26.158945
1860.000000	28.252365
1850.000000	27.959463
1840.000000	28.092065
1830.000000	28.214148
1820.000000	28.106778
1810.000000	27.695832
1800.000000	27.505339
1790.000000	26.903738
1780.000000	26.717744
1770.000000	25.955183
1760.000000	25.785873
1750.000000	25.515184
1740.000000	25.591712
1730.000000	25.057134
1720.000000	25.519995
1710.000000	26.492299
1700.000000	26.879937
1690.000000	27.252058
1680.000000	27.839550
1670.000000	29.181887
1660.000000	29.800496
1650.000000	30.281959
1640.000000	30.254487
1630.000000	29.930544
1620.000000	29.694573
1610.000000	29.021738
1600.000000	28.321471
1590.000000	27.947538
1580.000000	27.477745
1570.000000	27.389254
1560.000000	27.089163
1550.000000	26.886309
1540.000000	26.437680
1530.000000	25.775547
1520.000000	25.303304
1510.000000	25.032918
1500.000000	24.961958
1490.000000	24.943007
1480.000000	25.138760
1470.000000	25.435540
1460.000000	25.780096
1450.000000	26.258344
1440.000000	26.691737
1430.000000	26.971799
1420.000000	27.397197
1410.000000	28.925122
1400.000000	31.840944
1390.000000	34.624446
1380.000000	36.207698
1370.000000	36.608561
1360.000000	36.729600
1350.000000	36.711018
1340.000000	36.857016
1330.000000	37.319416
1320.000000	38.331796
1310.000000	39.506847
1300.000000	40.242123
1290.000000	40.538381
1280.000000	40.378449
1270.000000	39.802093
1260.000000	39.486103
1250.000000	39.373704
1240.000000	39.355046
1230.000000	39.355525
1220.000000	39.127976
1210.000000	38.797970
1200.000000	38.397785
1190.000000	38.343523
1180.000000	38.687858
1170.000000	39.272621
1160.000000	39.990583
1150.000000	40.481760
1140.000000	41.031855
1130.000000	41.396310
1120.000000	41.563098
1110.000000	41.699659
1100.000000	41.849488
1090.000000	41.868567
1080.000000	41.687269
1070.000000	41.570448
1060.000000	41.623745
1050.000000	41.582153
1040.000000	41.587993
1030.000000	41.562047
1020.000000	41.553967
1010.000000	42.041080
1000.000000	42.843044
990.000000	43.009600
980.000000	42.846568
970.000000	42.679177
960.000000	42.652656
950.000000	42.826581
940.000000	42.667663
930.000000	42.651395
920.000000	42.683612
910.000000	42.632778
900.000000	42.605295
890.000000	43.115279
880.000000	43.254239
870.000000	42.565155
860.000000	42.307446
850.000000	42.404790
840.000000	42.663185
830.000000	42.814139
820.000000	43.075203
810.000000	42.971319
800.000000	42.915436
790.000000	42.978283
780.000000	42.901868
770.000000	43.019999
760.000000	43.147684
750.000000	43.210945
740.000000	43.220843
730.000000	43.233092
720.000000	43.205516
710.000000	43.228354
700.000000	43.294727
690.000000	43.215630
680.000000	43.192809
670.000000	43.198215
660.000000	43.223606
650.000000	43.178421
640.000000	43.133600
630.000000	43.211840
620.000000	43.117792
610.000000	43.029955
600.000000	42.928733
590.000000	42.871279
580.000000	42.775192
570.000000	42.619597
560.000000	42.559457
550.000000	42.411138
540.000000	42.235569
530.000000	42.055606
520.000000	41.782253
510.000000	41.377614
500.000000	41.008105
490.000000	40.604187
480.000000	40.047241
470.000000	39.450052
460.000000	38.756928
450.000000	37.898079
440.000000	36.821409
430.000000	35.360884
420.000000	33.571548
410.000000	31.483712
400.000000	29.626095
390.000000	28.624576
380.000000	27.968114
370.000000	27.234286
360.000000	26.464302
350.000000	25.435748
340.000000	24.557921
330.000000	23.745386
320.000000	22.816264
310.000000	21.476985
300.000000	19.753062
290.000000	17.453805
280.000000	15.816566
270.000000	15.575462
260.000000	15.570366
250.000000	14.482179
