PE UV       SUBTECH     SPECTRUM    ASCII       PEDS        4.00        
   -1
3C-N10-F008.Sample.Raw.asc
22/03/02
16:07:17.00
22/03/02
16:07:17.00
Administrator

250.000000
1
Lambda 750
750N8071901
PerkinElmer UV WinLab 6.0.4.0738 / 1.61.00 Lambda 900

0
0
3350/servo 860.8/2
0
0
UV/VIS
1
1
1
CommonBeamDepol,150mm sphere / downward view
0
0
0
0
Program
Program
3350/servo 860.8/2
3350/0.2 860.8/0.2
3350/0.2 860.8/0.2
0
1
 
 
 
0
 
860.8
319.2
860.8
Front
100
on
 
 
0
0
0
 
0
 
 
 
0
 
 
0
0
0
0
0
 
 
 
 
0
0


0
0
#HDR
-1
-1
#GR
nm
%R
1.0
0.0
2500.000000
-10.000000
226
8
42.925089
8.687419
#DATA
2500.000000	10.171482
2490.000000	12.819260
2480.000000	11.673469
2470.000000	8.687419
2460.000000	14.865422
2450.000000	15.609036
2440.000000	15.159760
2430.000000	14.162410
2420.000000	12.996128
2410.000000	10.973530
2400.000000	16.338010
2390.000000	12.741161
2380.000000	12.719616
2370.000000	13.139207
2360.000000	16.278437
2350.000000	17.510219
2340.000000	16.494852
2330.000000	14.606698
2320.000000	15.561135
2310.000000	13.571470
2300.000000	13.805535
2290.000000	15.602947
2280.000000	14.068282
2270.000000	13.729196
2260.000000	14.075463
2250.000000	15.213318
2240.000000	17.004471
2230.000000	17.518532
2220.000000	17.277602
2210.000000	15.643336
2200.000000	16.014417
2190.000000	17.881744
2180.000000	16.489574
2170.000000	16.627057
2160.000000	16.400785
2150.000000	16.420700
2140.000000	16.181550
2130.000000	19.247681
2120.000000	18.832421
2110.000000	17.137512
2100.000000	19.159043
2090.000000	18.890305
2080.000000	17.767511
2070.000000	18.374777
2060.000000	16.090012
2050.000000	15.594059
2040.000000	15.843138
2030.000000	15.750999
2020.000000	17.010180
2010.000000	16.712131
2000.000000	16.306812
1990.000000	16.224297
1980.000000	15.113247
1970.000000	15.000965
1960.000000	14.420058
1950.000000	14.256276
1940.000000	13.948680
1930.000000	14.143744
1920.000000	15.813655
1910.000000	16.259933
1900.000000	19.277479
1890.000000	21.616459
1880.000000	24.501144
1870.000000	26.367561
1860.000000	28.333892
1850.000000	27.938432
1840.000000	28.126652
1830.000000	27.768061
1820.000000	27.778250
1810.000000	27.649099
1800.000000	27.367154
1790.000000	27.020179
1780.000000	26.612363
1770.000000	26.287306
1760.000000	26.192485
1750.000000	25.757235
1740.000000	25.676337
1730.000000	25.192539
1720.000000	25.484361
1710.000000	26.292777
1700.000000	26.735124
1690.000000	27.109049
1680.000000	27.824391
1670.000000	28.915797
1660.000000	29.615539
1650.000000	30.050392
1640.000000	29.901948
1630.000000	29.882485
1620.000000	29.608509
1610.000000	29.059874
1600.000000	28.293739
1590.000000	27.894045
1580.000000	27.707557
1570.000000	27.574628
1560.000000	27.284039
1550.000000	26.882364
1540.000000	26.343072
1530.000000	25.677638
1520.000000	25.440736
1510.000000	25.107971
1500.000000	24.994236
1490.000000	24.943007
1480.000000	25.041974
1470.000000	25.254092
1460.000000	25.654100
1450.000000	26.198618
1440.000000	26.643744
1430.000000	26.957307
1420.000000	27.335624
1410.000000	28.789967
1400.000000	31.728932
1390.000000	34.505004
1380.000000	35.985015
1370.000000	36.371631
1360.000000	36.487868
1350.000000	36.407007
1340.000000	36.538042
1330.000000	37.006535
1320.000000	38.104875
1310.000000	39.298369
1300.000000	39.972428
1290.000000	40.181833
1280.000000	40.100750
1270.000000	39.589476
1260.000000	39.395195
1250.000000	39.309468
1240.000000	39.380501
1230.000000	39.405028
1220.000000	39.025510
1210.000000	38.639896
1200.000000	38.222704
1190.000000	38.220574
1180.000000	38.612333
1170.000000	39.151745
1160.000000	39.769080
1150.000000	40.265730
1140.000000	40.595515
1130.000000	41.109234
1120.000000	41.540729
1110.000000	41.602325
1100.000000	41.756790
1090.000000	41.600897
1080.000000	41.297466
1070.000000	41.385942
1060.000000	41.409786
1050.000000	41.344518
1040.000000	41.351327
1030.000000	41.279912
1020.000000	41.377205
1010.000000	41.927075
1000.000000	42.646928
990.000000	42.790833
980.000000	42.712439
970.000000	42.778737
960.000000	42.643863
950.000000	42.624530
940.000000	42.424299
930.000000	42.474850
920.000000	42.605223
910.000000	42.362523
900.000000	42.359616
890.000000	42.725520
880.000000	42.717958
870.000000	42.627891
860.000000	42.807397
850.000000	42.785097
840.000000	42.668625
830.000000	42.627876
820.000000	42.360068
810.000000	42.258212
800.000000	42.506169
790.000000	42.481294
780.000000	42.367079
770.000000	42.560325
760.000000	42.666354
750.000000	42.692253
740.000000	42.754063
730.000000	42.749297
720.000000	42.836765
710.000000	42.850904
700.000000	42.821943
690.000000	42.779020
680.000000	42.822601
670.000000	42.858125
660.000000	42.925089
650.000000	42.840078
640.000000	42.793970
630.000000	42.734797
620.000000	42.724630
610.000000	42.671669
600.000000	42.504893
590.000000	42.496624
580.000000	42.410983
570.000000	42.270540
560.000000	42.165141
550.000000	41.973110
540.000000	41.810913
530.000000	41.625841
520.000000	41.400342
510.000000	41.111878
500.000000	40.730703
490.000000	40.350220
480.000000	39.814195
470.000000	39.206739
460.000000	38.530081
450.000000	37.603009
440.000000	36.522609
430.000000	35.174193
420.000000	33.434688
410.000000	31.287260
400.000000	29.414880
390.000000	28.461888
380.000000	27.733729
370.000000	26.888534
360.000000	25.924651
350.000000	25.142616
340.000000	24.045206
330.000000	23.040515
320.000000	21.892413
310.000000	20.634435
300.000000	19.131934
290.000000	16.702918
280.000000	15.090956
270.000000	14.958674
260.000000	15.050518
250.000000	14.010207
