PE UV       SUBTECH     SPECTRUM    ASCII       PEDS        4.00        
   -1
3C-N10-C028.Sample.Raw.asc
22/03/22
17:59:37.00
22/03/22
17:59:37.00
Administrator

250.000000
1
Lambda 750
750N8071901
PerkinElmer UV WinLab 6.0.4.0738 / 1.61.00 Lambda 900

0
0
3350/servo 860.8/2
0
0
UV/VIS
1
1
1
CommonBeamDepol,150mm sphere / downward view
0
0
0
0
Program
Program
3350/servo 860.8/2
3350/0.2 860.8/0.2
3350/0.2 860.8/0.2
0
1
 
 
 
0
 
860.8
319.2
860.8
Front
100
on
 
 
0
0
0
 
0
 
 
 
0
 
 
0
0
0
0
0
 
 
 
 
0
0


0
0
#HDR
-1
-1
#GR
nm
%R
1.0
0.0
2500.000000
-10.000000
226
8
49.541864
11.753066
#DATA
2500.000000	11.815733
2490.000000	13.357742
2480.000000	12.074565
2470.000000	13.817465
2460.000000	14.262604
2450.000000	11.753066
2440.000000	15.019271
2430.000000	16.359565
2420.000000	16.553765
2410.000000	18.100880
2400.000000	17.365586
2390.000000	16.428791
2380.000000	17.823563
2370.000000	17.902835
2360.000000	16.455918
2350.000000	17.121231
2340.000000	15.153401
2330.000000	17.657808
2320.000000	16.865309
2310.000000	16.287507
2300.000000	15.722989
2290.000000	16.213862
2280.000000	16.301021
2270.000000	15.761650
2260.000000	16.164032
2250.000000	17.340748
2240.000000	17.494973
2230.000000	17.416409
2220.000000	18.838016
2210.000000	18.505097
2200.000000	18.051003
2190.000000	17.775626
2180.000000	18.021678
2170.000000	17.452848
2160.000000	17.795190
2150.000000	18.250029
2140.000000	18.572907
2130.000000	19.271139
2120.000000	19.558284
2110.000000	19.805890
2100.000000	20.600688
2090.000000	20.221221
2080.000000	20.425161
2070.000000	19.463147
2060.000000	18.661202
2050.000000	18.471985
2040.000000	17.923102
2030.000000	18.099579
2020.000000	18.303716
2010.000000	18.597307
2000.000000	18.215920
1990.000000	17.739832
1980.000000	17.446423
1970.000000	16.648406
1960.000000	16.236499
1950.000000	15.773288
1940.000000	15.679897
1930.000000	15.969706
1920.000000	17.011284
1910.000000	18.340009
1900.000000	21.192544
1890.000000	24.420092
1880.000000	27.510751
1870.000000	30.164096
1860.000000	31.483507
1850.000000	31.865014
1840.000000	31.975311
1830.000000	31.784675
1820.000000	31.486848
1810.000000	31.272114
1800.000000	30.892351
1790.000000	30.491708
1780.000000	30.209895
1770.000000	29.728945
1760.000000	29.459153
1750.000000	29.160257
1740.000000	28.769992
1730.000000	28.588321
1720.000000	28.936503
1710.000000	29.724337
1700.000000	30.137837
1690.000000	30.586244
1680.000000	31.563853
1670.000000	32.964884
1660.000000	33.963894
1650.000000	34.482706
1640.000000	34.338948
1630.000000	34.129066
1620.000000	33.662943
1610.000000	33.126649
1600.000000	32.481531
1590.000000	31.928200
1580.000000	31.411610
1570.000000	31.009705
1560.000000	30.788608
1550.000000	30.524380
1540.000000	30.010598
1530.000000	29.352819
1520.000000	28.815455
1510.000000	28.517385
1500.000000	28.292663
1490.000000	28.294510
1480.000000	28.529875
1470.000000	28.839531
1460.000000	29.241300
1450.000000	29.740578
1440.000000	30.427627
1430.000000	31.307855
1420.000000	32.500512
1410.000000	34.242786
1400.000000	36.586933
1390.000000	38.974126
1380.000000	40.600652
1370.000000	41.332960
1360.000000	41.794908
1350.000000	42.335843
1340.000000	42.817390
1330.000000	43.381962
1320.000000	44.179326
1310.000000	44.905682
1300.000000	45.381962
1290.000000	45.544685
1280.000000	45.510640
1270.000000	45.419227
1260.000000	45.409403
1250.000000	45.343479
1240.000000	45.184938
1230.000000	45.002681
1220.000000	44.756519
1210.000000	44.388871
1200.000000	44.003209
1190.000000	43.876974
1180.000000	44.073794
1170.000000	44.603450
1160.000000	45.482685
1150.000000	46.211424
1140.000000	46.896628
1130.000000	47.344205
1120.000000	47.484343
1110.000000	47.446044
1100.000000	47.455305
1090.000000	47.459931
1080.000000	47.428485
1070.000000	47.385944
1060.000000	47.285828
1050.000000	47.216074
1040.000000	47.190203
1030.000000	47.151094
1020.000000	47.170367
1010.000000	47.409645
1000.000000	47.653291
990.000000	47.751441
980.000000	47.814049
970.000000	47.899832
960.000000	48.002946
950.000000	48.160827
940.000000	48.254263
930.000000	48.161722
920.000000	48.081586
910.000000	48.212180
900.000000	48.332554
890.000000	48.551250
880.000000	48.636030
870.000000	48.462590
860.000000	48.495120
850.000000	48.735580
840.000000	49.126145
830.000000	49.185128
820.000000	49.273915
810.000000	49.251457
800.000000	49.284654
790.000000	49.317852
780.000000	49.357362
770.000000	49.425684
760.000000	49.541864
750.000000	49.392100
740.000000	49.345715
730.000000	49.415861
720.000000	49.454197
710.000000	49.495819
700.000000	49.519440
690.000000	49.443247
680.000000	49.428453
670.000000	49.425394
660.000000	49.382816
650.000000	49.348272
640.000000	49.314054
630.000000	49.241270
620.000000	49.149765
610.000000	49.130875
600.000000	49.073178
590.000000	48.988965
580.000000	48.798175
570.000000	48.630536
560.000000	48.469870
550.000000	48.268863
540.000000	48.040908
530.000000	47.833314
520.000000	47.740453
510.000000	47.594187
500.000000	47.221448
490.000000	46.678839
480.000000	46.007537
470.000000	45.220530
460.000000	44.404026
450.000000	43.347616
440.000000	42.020571
430.000000	40.461278
420.000000	38.494399
410.000000	36.295200
400.000000	34.376730
390.000000	33.018104
380.000000	32.062025
370.000000	30.799611
360.000000	29.297044
350.000000	28.112728
340.000000	26.856258
330.000000	25.626458
320.000000	24.463997
310.000000	22.982895
300.000000	21.098360
290.000000	18.845395
280.000000	17.523657
270.000000	17.498867
260.000000	17.449888
250.000000	16.132501
