PE UV       SUBTECH     SPECTRUM    ASCII       PEDS        4.00        
   -1
3C-N10-F010.Sample.Raw.asc
22/03/02
16:14:14.00
22/03/02
16:14:14.00
Administrator

250.000000
1
Lambda 750
750N8071901
PerkinElmer UV WinLab 6.0.4.0738 / 1.61.00 Lambda 900

0
0
3350/servo 860.8/2
0
0
UV/VIS
1
1
1
CommonBeamDepol,150mm sphere / downward view
0
0
0
0
Program
Program
3350/servo 860.8/2
3350/0.2 860.8/0.2
3350/0.2 860.8/0.2
0
1
 
 
 
0
 
860.8
319.2
860.8
Front
100
on
 
 
0
0
0
 
0
 
 
 
0
 
 
0
0
0
0
0
 
 
 
 
0
0


0
0
#HDR
-1
-1
#GR
nm
%R
1.0
0.0
2500.000000
-10.000000
226
8
41.558921
4.462426
#DATA
2500.000000	8.301595
2490.000000	4.884314
2480.000000	10.842157
2470.000000	4.462426
2460.000000	16.622691
2450.000000	16.615583
2440.000000	15.507676
2430.000000	12.669052
2420.000000	17.200441
2410.000000	13.820775
2400.000000	13.478332
2390.000000	17.241535
2380.000000	16.779606
2370.000000	15.192925
2360.000000	13.868645
2350.000000	16.289639
2340.000000	16.437545
2330.000000	13.430213
2320.000000	12.859282
2310.000000	13.382790
2300.000000	13.172828
2290.000000	15.867502
2280.000000	13.821149
2270.000000	10.970928
2260.000000	13.884715
2250.000000	13.505333
2240.000000	15.631965
2230.000000	17.085688
2220.000000	18.503338
2210.000000	15.040126
2200.000000	15.717626
2190.000000	16.756625
2180.000000	16.450245
2170.000000	17.142635
2160.000000	16.287022
2150.000000	15.151848
2140.000000	16.087822
2130.000000	16.016305
2120.000000	17.538110
2110.000000	16.234849
2100.000000	17.301327
2090.000000	18.054863
2080.000000	17.477307
2070.000000	16.828620
2060.000000	15.550249
2050.000000	15.465113
2040.000000	15.462799
2030.000000	15.654008
2020.000000	16.349834
2010.000000	16.169817
2000.000000	15.258225
1990.000000	15.337149
1980.000000	14.935202
1970.000000	14.655029
1960.000000	13.915383
1950.000000	13.792781
1940.000000	12.907564
1930.000000	13.823810
1920.000000	14.891462
1910.000000	15.874745
1900.000000	17.930195
1890.000000	20.576980
1880.000000	23.576324
1870.000000	25.705402
1860.000000	27.323353
1850.000000	26.602303
1840.000000	27.283524
1830.000000	26.712127
1820.000000	26.555107
1810.000000	26.594001
1800.000000	26.334407
1790.000000	25.904730
1780.000000	25.510833
1770.000000	25.039531
1760.000000	25.030644
1750.000000	24.772499
1740.000000	24.213915
1730.000000	23.783670
1720.000000	24.252343
1710.000000	25.125277
1700.000000	25.427199
1690.000000	25.966297
1680.000000	26.951088
1670.000000	27.807416
1660.000000	28.263574
1650.000000	28.867560
1640.000000	28.894409
1630.000000	28.650054
1620.000000	28.360915
1610.000000	27.784280
1600.000000	27.126388
1590.000000	26.803722
1580.000000	26.470006
1570.000000	26.342316
1560.000000	26.221435
1550.000000	25.790290
1540.000000	25.379910
1530.000000	24.713667
1520.000000	24.398488
1510.000000	24.143470
1500.000000	24.027878
1490.000000	24.042326
1480.000000	24.215669
1470.000000	24.346854
1460.000000	24.714375
1450.000000	25.105176
1440.000000	25.620123
1430.000000	25.907261
1420.000000	26.271013
1410.000000	27.613987
1400.000000	30.444752
1390.000000	33.180640
1380.000000	34.619440
1370.000000	34.916582
1360.000000	35.006682
1350.000000	34.888924
1340.000000	34.957701
1330.000000	35.464624
1320.000000	36.657090
1310.000000	37.725129
1300.000000	38.208368
1290.000000	38.460867
1280.000000	38.370159
1270.000000	38.081102
1260.000000	37.915269
1250.000000	37.692874
1240.000000	37.429161
1230.000000	37.500502
1220.000000	37.516468
1210.000000	37.220547
1200.000000	36.845364
1190.000000	36.836724
1180.000000	37.167319
1170.000000	37.571064
1160.000000	38.225190
1150.000000	38.868825
1140.000000	39.279211
1130.000000	39.565625
1120.000000	39.810386
1110.000000	39.981849
1100.000000	40.033003
1090.000000	39.920093
1080.000000	39.728446
1070.000000	39.739736
1060.000000	39.776807
1050.000000	39.828462
1040.000000	39.949434
1030.000000	39.875036
1020.000000	39.854476
1010.000000	40.518020
1000.000000	41.346068
990.000000	41.553690
980.000000	41.336986
970.000000	41.318731
960.000000	41.219365
950.000000	41.162635
940.000000	41.089845
930.000000	41.214877
920.000000	41.132502
910.000000	41.080653
900.000000	41.102638
890.000000	41.130117
880.000000	41.373959
870.000000	40.964498
860.000000	40.531459
850.000000	40.530422
840.000000	41.104180
830.000000	41.008586
820.000000	40.971863
810.000000	41.041594
800.000000	41.169837
790.000000	41.174646
780.000000	40.944225
770.000000	41.061173
760.000000	41.375825
750.000000	41.395214
740.000000	41.331408
730.000000	41.306619
720.000000	41.375466
710.000000	41.422832
700.000000	41.543051
690.000000	41.541854
680.000000	41.519669
670.000000	41.495268
660.000000	41.558921
650.000000	41.509222
640.000000	41.444834
630.000000	41.433258
620.000000	41.413883
610.000000	41.280344
600.000000	41.177277
590.000000	41.152345
580.000000	41.000143
570.000000	40.858815
560.000000	40.843935
550.000000	40.724793
540.000000	40.484096
530.000000	40.295824
520.000000	40.127304
510.000000	39.742951
500.000000	39.386521
490.000000	39.042927
480.000000	38.443709
470.000000	37.825232
460.000000	37.176539
450.000000	36.274883
440.000000	35.183908
430.000000	33.889685
420.000000	32.131732
410.000000	30.074566
400.000000	28.289223
390.000000	27.245101
380.000000	26.525181
370.000000	25.816944
360.000000	25.043635
350.000000	23.999930
340.000000	22.911596
330.000000	21.840252
320.000000	21.095990
310.000000	20.378987
300.000000	18.776500
290.000000	16.500242
280.000000	15.086109
270.000000	14.870766
260.000000	14.925168
250.000000	13.912889
