PE UV       SUBTECH     SPECTRUM    ASCII       PEDS        4.00        
   -1
3G-H10-C010.Sample.Raw.asc
22/03/04
15:45:27.00
22/03/04
15:45:27.00
Administrator

250.000000
1
Lambda 750
750N8071901
PerkinElmer UV WinLab 6.0.4.0738 / 1.61.00 Lambda 900

0
0
3350/servo 860.8/2
0
0
UV/VIS
1
1
1
CommonBeamDepol,150mm sphere / downward view
0
0
0
0
Program
Program
3350/servo 860.8/2
3350/0.2 860.8/0.2
3350/0.2 860.8/0.2
0
1
 
 
 
0
 
860.8
319.2
860.8
Front
100
on
 
 
0
0
0
 
0
 
 
 
0
 
 
0
0
0
0
0
 
 
 
 
0
0


0
0
#HDR
-1
-1
#GR
nm
%R
1.0
0.0
2500.000000
-10.000000
226
8
65.751360
16.746581
#DATA
2500.000000	26.758534
2490.000000	28.236660
2480.000000	19.272862
2470.000000	27.618324
2460.000000	27.709518
2450.000000	21.294734
2440.000000	25.903029
2430.000000	32.393948
2420.000000	31.217445
2410.000000	32.737531
2400.000000	29.067635
2390.000000	32.343419
2380.000000	33.340073
2370.000000	30.964683
2360.000000	28.507052
2350.000000	30.009865
2340.000000	31.295675
2330.000000	29.639853
2320.000000	26.669939
2310.000000	30.125014
2300.000000	29.639613
2290.000000	31.779015
2280.000000	30.743465
2270.000000	29.355039
2260.000000	30.877790
2250.000000	32.400043
2240.000000	32.540527
2230.000000	32.358871
2220.000000	32.405328
2210.000000	34.522161
2200.000000	32.115288
2190.000000	31.880401
2180.000000	33.123579
2170.000000	34.270101
2160.000000	33.044082
2150.000000	32.993067
2140.000000	33.635891
2130.000000	33.490024
2120.000000	34.606064
2110.000000	36.008870
2100.000000	36.242915
2090.000000	36.116244
2080.000000	35.602039
2070.000000	35.245963
2060.000000	34.859828
2050.000000	34.142832
2040.000000	32.725982
2030.000000	32.778195
2020.000000	33.454771
2010.000000	34.133704
2000.000000	33.004838
1990.000000	32.894229
1980.000000	31.902806
1970.000000	30.650197
1960.000000	30.297867
1950.000000	29.770699
1940.000000	29.434341
1930.000000	30.372469
1920.000000	31.752753
1910.000000	33.752687
1900.000000	36.980142
1890.000000	40.840398
1880.000000	44.279321
1870.000000	47.182035
1860.000000	48.588540
1850.000000	48.810225
1840.000000	48.616659
1830.000000	48.226264
1820.000000	48.210968
1810.000000	48.099007
1800.000000	47.634265
1790.000000	47.169823
1780.000000	47.026059
1770.000000	46.532440
1760.000000	46.062043
1750.000000	45.603310
1740.000000	45.174393
1730.000000	44.976269
1720.000000	45.657674
1710.000000	46.268513
1700.000000	46.657168
1690.000000	47.262568
1680.000000	48.407383
1670.000000	50.098149
1660.000000	51.031506
1650.000000	51.303581
1640.000000	51.185427
1630.000000	50.940433
1620.000000	50.668523
1610.000000	49.987224
1600.000000	49.350865
1590.000000	48.947951
1580.000000	48.416843
1570.000000	47.931750
1560.000000	47.555956
1550.000000	47.271100
1540.000000	46.861765
1530.000000	46.187931
1520.000000	45.483318
1510.000000	45.313848
1500.000000	45.170166
1490.000000	45.209172
1480.000000	45.509721
1470.000000	45.991000
1460.000000	46.469366
1450.000000	46.886201
1440.000000	47.655800
1430.000000	48.390367
1420.000000	49.205469
1410.000000	50.575349
1400.000000	53.095921
1390.000000	56.022450
1380.000000	57.832875
1370.000000	58.606913
1360.000000	58.768506
1350.000000	59.151701
1340.000000	59.852095
1330.000000	60.813023
1320.000000	61.836591
1310.000000	62.432359
1300.000000	62.591496
1290.000000	62.466732
1280.000000	62.322800
1270.000000	62.074706
1260.000000	62.052064
1250.000000	62.004056
1240.000000	61.869936
1230.000000	61.609081
1220.000000	61.484168
1210.000000	61.083342
1200.000000	60.716487
1190.000000	60.526607
1180.000000	60.775233
1170.000000	61.557049
1160.000000	62.431903
1150.000000	63.160342
1140.000000	63.749194
1130.000000	64.144138
1120.000000	64.409828
1110.000000	64.382446
1100.000000	64.537042
1090.000000	64.726082
1080.000000	64.571676
1070.000000	64.321621
1060.000000	64.125401
1050.000000	64.083234
1040.000000	64.237782
1030.000000	64.182569
1020.000000	64.315049
1010.000000	64.653249
1000.000000	65.004281
990.000000	65.094614
980.000000	65.184249
970.000000	65.247448
960.000000	65.218508
950.000000	65.296386
940.000000	65.273353
930.000000	65.328044
920.000000	65.387969
910.000000	65.296623
900.000000	65.448116
890.000000	65.621699
880.000000	65.325966
870.000000	65.496614
860.000000	65.751360
850.000000	65.352619
840.000000	65.061638
830.000000	65.054212
820.000000	64.898702
810.000000	64.580277
800.000000	64.547004
790.000000	64.509125
780.000000	64.508530
770.000000	64.410561
760.000000	64.435412
750.000000	64.308608
740.000000	64.229815
730.000000	64.105792
720.000000	63.737069
710.000000	63.583857
700.000000	63.270338
690.000000	63.044696
680.000000	62.660531
670.000000	62.408713
660.000000	62.321486
650.000000	62.009137
640.000000	61.604450
630.000000	61.207725
620.000000	60.970772
610.000000	60.674834
600.000000	60.201964
590.000000	59.791966
580.000000	59.476689
570.000000	58.983336
560.000000	58.383539
550.000000	57.868606
540.000000	57.368176
530.000000	56.762821
520.000000	56.146124
510.000000	55.464469
500.000000	54.797645
490.000000	54.076759
480.000000	53.176945
470.000000	52.261495
460.000000	51.249190
450.000000	50.018225
440.000000	48.729567
430.000000	47.295566
420.000000	45.757705
410.000000	44.272963
400.000000	42.972379
390.000000	41.840617
380.000000	40.810342
370.000000	39.388816
360.000000	37.745715
350.000000	36.380976
340.000000	35.484071
330.000000	33.685691
320.000000	31.832994
310.000000	30.370286
300.000000	27.793293
290.000000	23.136481
280.000000	19.651823
270.000000	18.723772
260.000000	18.301930
250.000000	16.746581
