PE UV       SUBTECH     SPECTRUM    ASCII       PEDS        4.00        
   -1
3G-H10-F014.Sample.Cycle1.Raw.asc
22/04/19
17:16:50.00
22/04/19
17:16:50.00
Administrator

250.000000
1
Lambda 750
750N8071901
PerkinElmer UV WinLab 6.0.4.0738 / 1.61.00 Lambda 900

0
0
3350/servo 860.8/2
0
0
UV/VIS
1
1
1
CommonBeamDepol,150mm sphere / downward view
0
0
0
0
Program
Program
3350/servo 860.8/2
3350/0.2 860.8/0.2
3350/0.2 860.8/0.2
0
1
 
 
 
0
 
860.8
319.2
860.8
Front
100
on
 
 
0
0
0
 
0
 
 
 
0
 
 
0
0
0
0
0
 
 
 
 
0
0


0
0
#HDR
-1
-1
#GR
nm
%R
1.0
0.0
2500.000000
-10.000000
226
8
66.719634
13.842184
#DATA
2500.000000	14.867097
2490.000000	15.474724
2480.000000	13.842184
2470.000000	17.088410
2460.000000	15.942011
2450.000000	14.799677
2440.000000	13.865242
2430.000000	15.613235
2420.000000	20.802911
2410.000000	19.962770
2400.000000	19.437017
2390.000000	19.261052
2380.000000	16.362273
2370.000000	18.907131
2360.000000	19.048307
2350.000000	17.710046
2340.000000	20.852157
2330.000000	19.890013
2320.000000	17.140577
2310.000000	16.832531
2300.000000	16.350859
2290.000000	17.305483
2280.000000	16.458483
2270.000000	18.898331
2260.000000	15.201701
2250.000000	19.359381
2240.000000	20.391641
2230.000000	21.013736
2220.000000	20.900287
2210.000000	19.617047
2200.000000	19.911518
2190.000000	20.051476
2180.000000	18.784438
2170.000000	18.196810
2160.000000	20.351962
2150.000000	21.490114
2140.000000	22.343713
2130.000000	21.466066
2120.000000	22.804057
2110.000000	22.478971
2100.000000	23.311486
2090.000000	23.175982
2080.000000	22.722592
2070.000000	22.009140
2060.000000	21.385296
2050.000000	20.234515
2040.000000	20.082341
2030.000000	20.325674
2020.000000	20.791953
2010.000000	21.238121
2000.000000	21.293332
1990.000000	20.382017
1980.000000	19.806698
1970.000000	19.616264
1960.000000	18.663147
1950.000000	17.882633
1940.000000	17.536895
1930.000000	17.806119
1920.000000	19.746122
1910.000000	21.376573
1900.000000	24.782228
1890.000000	28.683362
1880.000000	33.114465
1870.000000	36.578971
1860.000000	38.854162
1850.000000	39.070974
1840.000000	39.188679
1830.000000	38.647325
1820.000000	38.435074
1810.000000	38.212373
1800.000000	37.515662
1790.000000	37.167012
1780.000000	36.530219
1770.000000	35.762967
1760.000000	35.274102
1750.000000	34.664581
1740.000000	33.990853
1730.000000	33.728836
1720.000000	34.318322
1710.000000	35.353561
1700.000000	36.082421
1690.000000	36.977749
1680.000000	38.979311
1670.000000	40.950811
1660.000000	42.356860
1650.000000	43.081049
1640.000000	42.988185
1630.000000	42.461568
1620.000000	41.779799
1610.000000	40.871555
1600.000000	39.961641
1590.000000	39.404934
1580.000000	38.660601
1570.000000	37.980971
1560.000000	37.428148
1550.000000	36.914198
1540.000000	36.266990
1530.000000	35.294609
1520.000000	34.662038
1510.000000	34.139636
1500.000000	33.807675
1490.000000	34.024056
1480.000000	34.432567
1470.000000	35.038644
1460.000000	35.534282
1450.000000	36.192740
1440.000000	37.235240
1430.000000	38.472248
1420.000000	40.024575
1410.000000	42.497622
1400.000000	46.316861
1390.000000	50.395015
1380.000000	53.109146
1370.000000	54.444835
1360.000000	55.222174
1350.000000	56.108609
1340.000000	56.707470
1330.000000	57.547115
1320.000000	59.076470
1310.000000	60.584188
1300.000000	61.316929
1290.000000	61.585964
1280.000000	61.213185
1270.000000	60.949199
1260.000000	60.879604
1250.000000	60.791895
1240.000000	60.430559
1230.000000	59.747276
1220.000000	59.208438
1210.000000	58.562487
1200.000000	57.964146
1190.000000	57.720156
1180.000000	58.127686
1170.000000	59.650470
1160.000000	61.415351
1150.000000	62.694868
1140.000000	63.785200
1130.000000	64.503464
1120.000000	64.552016
1110.000000	64.661152
1100.000000	65.001217
1090.000000	65.237139
1080.000000	65.024665
1070.000000	64.756607
1060.000000	64.486177
1050.000000	64.396677
1040.000000	64.404618
1030.000000	64.242799
1020.000000	64.374953
1010.000000	64.827859
1000.000000	65.476563
990.000000	65.596313
980.000000	65.478673
970.000000	65.706413
960.000000	65.731660
950.000000	65.981444
940.000000	66.172602
930.000000	66.041868
920.000000	65.885645
910.000000	66.045680
900.000000	66.443250
890.000000	66.408307
880.000000	66.719634
870.000000	65.949825
860.000000	65.480547
850.000000	66.398174
840.000000	65.979977
830.000000	65.801264
820.000000	65.660980
810.000000	65.346241
800.000000	65.407874
790.000000	65.300292
780.000000	65.122032
770.000000	65.120176
760.000000	65.129008
750.000000	64.846802
740.000000	64.658377
730.000000	64.418574
720.000000	64.305959
710.000000	63.829954
700.000000	63.401915
690.000000	62.958220
680.000000	62.542221
670.000000	62.176103
660.000000	61.735127
650.000000	61.059542
640.000000	60.440134
630.000000	59.632471
620.000000	58.866747
610.000000	58.066120
600.000000	57.364313
590.000000	56.748210
580.000000	56.045392
570.000000	55.257683
560.000000	54.499065
550.000000	53.649998
540.000000	52.716609
530.000000	51.782927
520.000000	50.787148
510.000000	49.709999
500.000000	48.394371
490.000000	46.973116
480.000000	45.446765
470.000000	43.778660
460.000000	41.909588
450.000000	39.701776
440.000000	37.327695
430.000000	35.036651
420.000000	32.706705
410.000000	31.051052
400.000000	30.233977
390.000000	29.676211
380.000000	28.796175
370.000000	27.727321
360.000000	26.743112
350.000000	25.772358
340.000000	24.987066
330.000000	23.915014
320.000000	22.693187
310.000000	22.113357
300.000000	20.949408
290.000000	18.201161
280.000000	16.624843
270.000000	16.205796
260.000000	16.116870
250.000000	15.526444
