PE UV       SUBTECH     SPECTRUM    ASCII       PEDS        4.00        
   -1
3G-H10-F016.Sample.Cycle1.Raw.asc
22/04/19
17:23:06.00
22/04/19
17:23:06.00
Administrator

250.000000
1
Lambda 750
750N8071901
PerkinElmer UV WinLab 6.0.4.0738 / 1.61.00 Lambda 900

0
0
3350/servo 860.8/2
0
0
UV/VIS
1
1
1
CommonBeamDepol,150mm sphere / downward view
0
0
0
0
Program
Program
3350/servo 860.8/2
3350/0.2 860.8/0.2
3350/0.2 860.8/0.2
0
1
 
 
 
0
 
860.8
319.2
860.8
Front
100
on
 
 
0
0
0
 
0
 
 
 
0
 
 
0
0
0
0
0
 
 
 
 
0
0


0
0
#HDR
-1
-1
#GR
nm
%R
1.0
0.0
2500.000000
-10.000000
226
8
65.604342
10.547152
#DATA
2500.000000	10.547152
2490.000000	13.737714
2480.000000	11.647183
2470.000000	13.922511
2460.000000	14.179265
2450.000000	15.450028
2440.000000	13.172698
2430.000000	13.580526
2420.000000	18.355404
2410.000000	16.176910
2400.000000	18.348160
2390.000000	19.616315
2380.000000	13.449916
2370.000000	15.950989
2360.000000	18.065315
2350.000000	16.370783
2340.000000	17.859182
2330.000000	17.191806
2320.000000	15.526601
2310.000000	16.344669
2300.000000	14.832533
2290.000000	17.152959
2280.000000	15.010587
2270.000000	17.312822
2260.000000	15.149328
2250.000000	18.367450
2240.000000	19.011550
2230.000000	17.849316
2220.000000	18.847305
2210.000000	19.294083
2200.000000	18.343608
2190.000000	18.589614
2180.000000	18.037592
2170.000000	15.925725
2160.000000	18.778693
2150.000000	17.678356
2140.000000	18.997786
2130.000000	19.008148
2120.000000	21.209034
2110.000000	21.115717
2100.000000	22.071161
2090.000000	21.587674
2080.000000	21.302549
2070.000000	21.156323
2060.000000	20.048519
2050.000000	18.954477
2040.000000	18.720547
2030.000000	19.102192
2020.000000	19.156038
2010.000000	19.903692
2000.000000	19.668999
1990.000000	19.174896
1980.000000	17.989706
1970.000000	17.588429
1960.000000	16.989310
1950.000000	17.104074
1940.000000	16.408251
1930.000000	16.464585
1920.000000	17.805771
1910.000000	19.939793
1900.000000	23.282583
1890.000000	27.354738
1880.000000	31.417212
1870.000000	35.291742
1860.000000	37.058084
1850.000000	37.999808
1840.000000	37.701854
1830.000000	37.177524
1820.000000	36.725754
1810.000000	36.755717
1800.000000	36.333105
1790.000000	35.586973
1780.000000	35.134160
1770.000000	34.496509
1760.000000	33.943876
1750.000000	33.510215
1740.000000	32.630467
1730.000000	32.314177
1720.000000	32.898161
1710.000000	33.805305
1700.000000	34.433611
1690.000000	35.508268
1680.000000	37.411544
1670.000000	39.531393
1660.000000	40.891378
1650.000000	41.690570
1640.000000	41.574637
1630.000000	40.930068
1620.000000	40.231116
1610.000000	39.304144
1600.000000	38.577883
1590.000000	37.789993
1580.000000	37.061261
1570.000000	36.600465
1560.000000	35.938910
1550.000000	35.449211
1540.000000	34.677792
1530.000000	33.701782
1520.000000	33.014496
1510.000000	32.631762
1500.000000	32.433652
1490.000000	32.485247
1480.000000	32.815933
1470.000000	33.320056
1460.000000	33.797199
1450.000000	34.621908
1440.000000	35.717272
1430.000000	36.984588
1420.000000	38.524866
1410.000000	41.041981
1400.000000	44.904062
1390.000000	49.002355
1380.000000	51.767344
1370.000000	53.041977
1360.000000	53.936274
1350.000000	54.745865
1340.000000	55.389247
1330.000000	56.282968
1320.000000	57.629581
1310.000000	59.114639
1300.000000	59.914071
1290.000000	60.277723
1280.000000	60.022445
1270.000000	59.587536
1260.000000	59.493589
1250.000000	59.412934
1240.000000	59.092950
1230.000000	58.571967
1220.000000	57.915946
1210.000000	57.088412
1200.000000	56.438195
1190.000000	56.243466
1180.000000	56.786702
1170.000000	58.080296
1160.000000	59.767163
1150.000000	61.099833
1140.000000	62.352729
1130.000000	63.284453
1120.000000	63.673692
1110.000000	63.739035
1100.000000	63.657968
1090.000000	63.879045
1080.000000	63.896841
1070.000000	63.676631
1060.000000	63.288390
1050.000000	63.152622
1040.000000	63.159124
1030.000000	63.027292
1020.000000	63.254074
1010.000000	63.694064
1000.000000	64.247430
990.000000	64.485369
980.000000	64.475953
970.000000	64.697961
960.000000	64.781821
950.000000	65.097981
940.000000	65.150335
930.000000	64.945616
920.000000	64.694647
910.000000	64.827196
900.000000	65.191320
890.000000	65.087649
880.000000	65.073536
870.000000	64.445042
860.000000	64.817124
850.000000	65.604342
840.000000	64.242940
830.000000	64.436247
820.000000	64.454855
810.000000	64.224005
800.000000	63.866912
790.000000	63.676951
780.000000	63.691458
770.000000	63.765344
760.000000	63.591152
750.000000	63.299289
740.000000	63.192869
730.000000	62.938591
720.000000	62.785088
710.000000	62.373438
700.000000	61.983141
690.000000	61.476331
680.000000	61.080980
670.000000	60.704436
660.000000	60.238742
650.000000	59.524590
640.000000	58.744087
630.000000	57.903457
620.000000	57.147194
610.000000	56.346132
600.000000	55.636560
590.000000	54.895618
580.000000	54.078250
570.000000	53.370263
560.000000	52.670383
550.000000	51.635412
540.000000	50.657220
530.000000	49.713201
520.000000	48.733261
510.000000	47.641945
500.000000	46.263915
490.000000	44.775510
480.000000	43.140285
470.000000	41.448859
460.000000	39.518457
450.000000	37.218206
440.000000	34.843833
430.000000	32.428578
420.000000	30.082991
410.000000	28.402242
400.000000	27.632088
390.000000	27.062663
380.000000	26.230126
370.000000	25.313127
360.000000	24.556374
350.000000	23.705082
340.000000	22.586308
330.000000	21.779542
320.000000	20.955773
310.000000	20.001912
300.000000	18.535165
290.000000	16.380750
280.000000	15.039098
270.000000	14.763465
260.000000	14.737560
250.000000	14.084481
