PE UV       SUBTECH     SPECTRUM    ASCII       PEDS        4.00        
   -1
3G-H10-F019.Sample.Cycle1.Raw.asc
22/04/19
17:31:58.00
22/04/19
17:31:58.00
Administrator

250.000000
1
Lambda 750
750N8071901
PerkinElmer UV WinLab 6.0.4.0738 / 1.61.00 Lambda 900

0
0
3350/servo 860.8/2
0
0
UV/VIS
1
1
1
CommonBeamDepol,150mm sphere / downward view
0
0
0
0
Program
Program
3350/servo 860.8/2
3350/0.2 860.8/0.2
3350/0.2 860.8/0.2
0
1
 
 
 
0
 
860.8
319.2
860.8
Front
100
on
 
 
0
0
0
 
0
 
 
 
0
 
 
0
0
0
0
0
 
 
 
 
0
0


0
0
#HDR
-1
-1
#GR
nm
%R
1.0
0.0
2500.000000
-10.000000
226
8
66.511493
6.726829
#DATA
2500.000000	11.236753
2490.000000	6.726829
2480.000000	15.313394
2470.000000	13.713800
2460.000000	17.203558
2450.000000	14.921424
2440.000000	15.626000
2430.000000	18.530289
2420.000000	21.701265
2410.000000	23.237499
2400.000000	21.211175
2390.000000	19.401237
2380.000000	15.887937
2370.000000	15.397612
2360.000000	18.588865
2350.000000	22.277869
2340.000000	17.949163
2330.000000	17.201851
2320.000000	17.981136
2310.000000	17.267195
2300.000000	17.778924
2290.000000	17.555649
2280.000000	17.133218
2270.000000	21.592333
2260.000000	19.194855
2250.000000	18.607382
2240.000000	20.505482
2230.000000	19.383425
2220.000000	19.379298
2210.000000	20.651173
2200.000000	20.847866
2190.000000	19.671113
2180.000000	19.997184
2170.000000	19.527630
2160.000000	21.192346
2150.000000	21.564953
2140.000000	23.170655
2130.000000	21.742573
2120.000000	23.687210
2110.000000	22.673081
2100.000000	23.641074
2090.000000	23.039026
2080.000000	23.322068
2070.000000	22.690890
2060.000000	21.638574
2050.000000	21.863653
2040.000000	21.254117
2030.000000	21.654944
2020.000000	21.750741
2010.000000	21.771892
2000.000000	21.771303
1990.000000	20.834849
1980.000000	20.561238
1970.000000	19.234868
1960.000000	19.047060
1950.000000	18.492254
1940.000000	18.452650
1930.000000	18.699602
1920.000000	20.226029
1910.000000	21.760694
1900.000000	25.582842
1890.000000	29.413340
1880.000000	33.342569
1870.000000	37.266818
1860.000000	39.240450
1850.000000	39.619682
1840.000000	39.506781
1830.000000	39.476639
1820.000000	39.064958
1810.000000	38.788365
1800.000000	38.297144
1790.000000	37.692833
1780.000000	37.001373
1770.000000	36.372362
1760.000000	35.844841
1750.000000	35.392362
1740.000000	34.417107
1730.000000	34.501582
1720.000000	35.013268
1710.000000	36.296006
1700.000000	36.775474
1690.000000	37.636215
1680.000000	39.535781
1670.000000	41.422240
1660.000000	43.013401
1650.000000	43.804587
1640.000000	43.568646
1630.000000	42.939761
1620.000000	42.275505
1610.000000	41.627947
1600.000000	40.750705
1590.000000	39.860545
1580.000000	39.175457
1570.000000	38.538842
1560.000000	38.208532
1550.000000	37.643796
1540.000000	36.974229
1530.000000	35.997251
1520.000000	35.364639
1510.000000	34.941217
1500.000000	34.656204
1490.000000	34.659314
1480.000000	35.033087
1470.000000	35.471022
1460.000000	36.013588
1450.000000	36.957276
1440.000000	37.917039
1430.000000	39.042690
1420.000000	40.635064
1410.000000	43.094112
1400.000000	46.827970
1390.000000	50.939885
1380.000000	53.691871
1370.000000	54.887305
1360.000000	55.740239
1350.000000	56.540401
1340.000000	57.134846
1330.000000	58.134640
1320.000000	59.419307
1310.000000	60.852027
1300.000000	61.656739
1290.000000	61.939489
1280.000000	61.660120
1270.000000	61.259229
1260.000000	61.060558
1250.000000	60.955655
1240.000000	60.593207
1230.000000	60.241425
1220.000000	59.682028
1210.000000	58.901614
1200.000000	58.219227
1190.000000	58.124071
1180.000000	58.663819
1170.000000	59.881511
1160.000000	61.419223
1150.000000	62.723869
1140.000000	63.842499
1130.000000	64.592785
1120.000000	65.037051
1110.000000	65.420921
1100.000000	65.493165
1090.000000	65.540359
1080.000000	65.333299
1070.000000	64.959620
1060.000000	64.793563
1050.000000	64.713081
1040.000000	64.614831
1030.000000	64.610351
1020.000000	64.786151
1010.000000	65.097182
1000.000000	65.703230
990.000000	65.901058
980.000000	65.779924
970.000000	66.016086
960.000000	66.201326
950.000000	66.385929
940.000000	66.442426
930.000000	66.247415
920.000000	66.107056
910.000000	66.279980
900.000000	66.340918
890.000000	66.511493
880.000000	66.154652
870.000000	65.728344
860.000000	66.164847
850.000000	66.409239
840.000000	65.901259
830.000000	66.033421
820.000000	65.769356
810.000000	65.449214
800.000000	65.181828
790.000000	65.138955
780.000000	65.103185
770.000000	65.187089
760.000000	65.174275
750.000000	64.902347
740.000000	64.679330
730.000000	64.477413
720.000000	64.366866
710.000000	63.832371
700.000000	63.333031
690.000000	62.977551
680.000000	62.620307
670.000000	62.224593
660.000000	61.712684
650.000000	61.210610
640.000000	60.642956
630.000000	59.898286
620.000000	59.287527
610.000000	58.530523
600.000000	57.762466
590.000000	57.166224
580.000000	56.502698
570.000000	55.736644
560.000000	55.057173
550.000000	54.187261
540.000000	53.230242
530.000000	52.259190
520.000000	51.305725
510.000000	50.281270
500.000000	49.053442
490.000000	47.637652
480.000000	46.155456
470.000000	44.484697
460.000000	42.617775
450.000000	40.452822
440.000000	38.183153
430.000000	35.959611
420.000000	33.666956
410.000000	31.941251
400.000000	31.132679
390.000000	30.541374
380.000000	29.549910
370.000000	28.436680
360.000000	27.394039
350.000000	26.415916
340.000000	25.579408
330.000000	24.612393
320.000000	23.580068
310.000000	22.543506
300.000000	20.936336
290.000000	18.305579
280.000000	16.761235
270.000000	16.441327
260.000000	16.376372
250.000000	15.593566
