PE UV       SUBTECH     SPECTRUM    ASCII       PEDS        4.00        
   -1
3G-H10-F011.Sample.Cycle1.Raw.asc
22/04/19
17:07:23.00
22/04/19
17:07:23.00
Administrator

250.000000
1
Lambda 750
750N8071901
PerkinElmer UV WinLab 6.0.4.0738 / 1.61.00 Lambda 900

0
0
3350/servo 860.8/2
0
0
UV/VIS
1
1
1
CommonBeamDepol,150mm sphere / downward view
0
0
0
0
Program
Program
3350/servo 860.8/2
3350/0.2 860.8/0.2
3350/0.2 860.8/0.2
0
1
 
 
 
0
 
860.8
319.2
860.8
Front
100
on
 
 
0
0
0
 
0
 
 
 
0
 
 
0
0
0
0
0
 
 
 
 
0
0


0
0
#HDR
-1
-1
#GR
nm
%R
1.0
0.0
2500.000000
-10.000000
226
8
66.872919
11.916493
#DATA
2500.000000	11.981423
2490.000000	11.916493
2480.000000	12.368487
2470.000000	18.610541
2460.000000	19.047408
2450.000000	16.571837
2440.000000	18.300133
2430.000000	15.041192
2420.000000	24.046767
2410.000000	21.021143
2400.000000	19.816212
2390.000000	22.302877
2380.000000	18.477215
2370.000000	13.302641
2360.000000	18.953402
2350.000000	19.664748
2340.000000	19.292062
2330.000000	19.682217
2320.000000	18.164197
2310.000000	18.159230
2300.000000	18.348216
2290.000000	17.821131
2280.000000	19.828920
2270.000000	19.581291
2260.000000	18.443743
2250.000000	19.569006
2240.000000	20.198301
2230.000000	21.315079
2220.000000	22.086055
2210.000000	21.220358
2200.000000	21.973996
2190.000000	20.717111
2180.000000	20.692833
2170.000000	20.049219
2160.000000	21.328300
2150.000000	21.938519
2140.000000	22.861021
2130.000000	23.847991
2120.000000	23.656647
2110.000000	23.667335
2100.000000	25.301498
2090.000000	23.644549
2080.000000	23.473043
2070.000000	23.090471
2060.000000	22.665510
2050.000000	21.881458
2040.000000	21.692425
2030.000000	22.602623
2020.000000	22.453300
2010.000000	22.612678
2000.000000	22.766223
1990.000000	21.545608
1980.000000	21.473948
1970.000000	20.115264
1960.000000	20.007170
1950.000000	19.721316
1940.000000	19.031711
1930.000000	19.498104
1920.000000	20.676792
1910.000000	22.762861
1900.000000	26.232350
1890.000000	30.226198
1880.000000	34.539796
1870.000000	38.477121
1860.000000	40.090283
1850.000000	40.615936
1840.000000	40.614059
1830.000000	40.392712
1820.000000	39.746000
1810.000000	39.672236
1800.000000	39.076043
1790.000000	38.332710
1780.000000	37.883739
1770.000000	37.628514
1760.000000	36.869475
1750.000000	36.189300
1740.000000	35.691983
1730.000000	35.276261
1720.000000	35.777128
1710.000000	37.019382
1700.000000	37.675993
1690.000000	38.610076
1680.000000	40.365019
1670.000000	42.425389
1660.000000	43.967668
1650.000000	44.789241
1640.000000	44.395305
1630.000000	43.826824
1620.000000	43.192530
1610.000000	42.331001
1600.000000	41.633092
1590.000000	40.764680
1580.000000	40.117534
1570.000000	39.552157
1560.000000	39.037891
1550.000000	38.492421
1540.000000	37.784887
1530.000000	36.960655
1520.000000	36.250442
1510.000000	35.774991
1500.000000	35.634333
1490.000000	35.689272
1480.000000	36.142630
1470.000000	36.531728
1460.000000	37.054551
1450.000000	37.859942
1440.000000	38.878633
1430.000000	40.090755
1420.000000	41.532691
1410.000000	43.994022
1400.000000	47.700657
1390.000000	51.735048
1380.000000	54.383857
1370.000000	55.515841
1360.000000	56.365622
1350.000000	57.096021
1340.000000	57.633128
1330.000000	58.636942
1320.000000	60.059787
1310.000000	61.322205
1300.000000	62.028448
1290.000000	62.252500
1280.000000	62.085525
1270.000000	61.619956
1260.000000	61.539210
1250.000000	61.479426
1240.000000	61.122786
1230.000000	60.624537
1220.000000	60.063620
1210.000000	59.324716
1200.000000	58.727446
1190.000000	58.639678
1180.000000	59.162307
1170.000000	60.378442
1160.000000	61.906452
1150.000000	63.028053
1140.000000	64.091009
1130.000000	65.008547
1120.000000	65.278927
1110.000000	65.459422
1100.000000	65.672521
1090.000000	65.732271
1080.000000	65.726281
1070.000000	65.456651
1060.000000	65.259722
1050.000000	65.175956
1040.000000	65.111009
1030.000000	64.981685
1020.000000	65.107932
1010.000000	65.497087
1000.000000	66.067023
990.000000	66.272622
980.000000	66.152755
970.000000	66.364234
960.000000	66.493014
950.000000	66.733157
940.000000	66.872919
930.000000	66.731920
920.000000	66.768856
910.000000	66.801585
900.000000	66.767603
890.000000	66.660341
880.000000	66.812032
870.000000	66.615436
860.000000	66.391594
850.000000	66.790139
840.000000	65.779975
830.000000	65.750061
820.000000	65.832285
810.000000	65.549279
800.000000	65.223775
790.000000	65.391227
780.000000	65.218620
770.000000	65.312032
760.000000	65.217158
750.000000	64.890402
740.000000	64.661969
730.000000	64.507433
720.000000	64.388576
710.000000	64.101201
700.000000	63.682891
690.000000	63.149723
680.000000	62.856382
670.000000	62.530685
660.000000	62.094818
650.000000	61.538228
640.000000	60.825738
630.000000	60.167743
620.000000	59.616015
610.000000	58.867609
600.000000	58.183647
590.000000	57.619376
580.000000	56.884996
570.000000	56.123078
560.000000	55.442764
550.000000	54.554320
540.000000	53.681948
530.000000	52.818708
520.000000	51.841630
510.000000	50.752757
500.000000	49.472058
490.000000	48.126008
480.000000	46.620324
470.000000	45.049404
460.000000	43.248572
450.000000	41.039271
440.000000	38.741324
430.000000	36.522124
420.000000	34.316216
410.000000	32.622667
400.000000	31.727587
390.000000	31.056738
380.000000	30.057382
370.000000	29.025537
360.000000	28.138549
350.000000	27.345631
340.000000	26.007243
330.000000	24.878116
320.000000	24.241594
310.000000	22.875942
300.000000	21.781471
290.000000	18.994144
280.000000	17.150027
270.000000	16.901879
260.000000	16.929695
250.000000	16.192177
