PE UV       SUBTECH     SPECTRUM    ASCII       PEDS        4.00        
   -1
3G-N10-F028.Sample.Raw.asc
22/04/20
16:49:36.00
22/04/20
16:49:36.00
Administrator

250.000000
1
Lambda 750
750N8071901
PerkinElmer UV WinLab 6.0.4.0738 / 1.61.00 Lambda 900

0
0
3350/servo 860.8/2
0
0
UV/VIS
1
1
1
CommonBeamDepol,150mm sphere / downward view
0
0
0
0
Program
Program
3350/servo 860.8/2
3350/0.2 860.8/0.2
3350/0.2 860.8/0.2
0
1
 
 
 
0
 
860.8
319.2
860.8
Front
100
on
 
 
0
0
0
 
0
 
 
 
0
 
 
0
0
0
0
0
 
 
 
 
0
0


0
0
#HDR
-1
-1
#GR
nm
%R
1.0
0.0
2500.000000
-10.000000
226
8
63.522813
7.511674
#DATA
2500.000000	7.511674
2490.000000	11.888074
2480.000000	13.396319
2470.000000	16.129740
2460.000000	18.005640
2450.000000	21.295324
2440.000000	14.496538
2430.000000	12.869466
2420.000000	18.147319
2410.000000	15.139876
2400.000000	23.922616
2390.000000	17.511207
2380.000000	15.711490
2370.000000	17.219886
2360.000000	15.477683
2350.000000	19.923811
2340.000000	18.583655
2330.000000	19.146214
2320.000000	17.976455
2310.000000	17.483929
2300.000000	17.251600
2290.000000	16.408612
2280.000000	17.630616
2270.000000	19.294311
2260.000000	18.109570
2250.000000	18.291693
2240.000000	18.057432
2230.000000	20.785404
2220.000000	21.732099
2210.000000	21.052031
2200.000000	20.189771
2190.000000	21.984673
2180.000000	19.859436
2170.000000	18.039190
2160.000000	20.671213
2150.000000	20.281540
2140.000000	22.229307
2130.000000	23.118973
2120.000000	22.577876
2110.000000	22.945422
2100.000000	24.303693
2090.000000	23.334092
2080.000000	22.916667
2070.000000	21.705591
2060.000000	21.341802
2050.000000	20.837870
2040.000000	19.856687
2030.000000	20.574148
2020.000000	21.150849
2010.000000	21.522387
2000.000000	20.756921
1990.000000	20.909015
1980.000000	19.564628
1970.000000	18.994087
1960.000000	18.135143
1950.000000	17.584106
1940.000000	17.766517
1930.000000	18.169752
1920.000000	19.828692
1910.000000	21.045969
1900.000000	25.784973
1890.000000	30.279526
1880.000000	34.609111
1870.000000	38.280181
1860.000000	40.504801
1850.000000	40.825130
1840.000000	40.970104
1830.000000	40.830071
1820.000000	40.175046
1810.000000	39.932060
1800.000000	39.242875
1790.000000	38.785107
1780.000000	38.612380
1770.000000	37.531604
1760.000000	36.941145
1750.000000	36.540574
1740.000000	35.721875
1730.000000	35.404675
1720.000000	36.295839
1710.000000	37.173990
1700.000000	37.942700
1690.000000	38.656197
1680.000000	40.393348
1670.000000	42.393735
1660.000000	43.852836
1650.000000	44.493746
1640.000000	44.320523
1630.000000	43.803542
1620.000000	43.206670
1610.000000	42.201576
1600.000000	41.491313
1590.000000	40.620224
1580.000000	40.015219
1570.000000	39.584969
1560.000000	39.110545
1550.000000	38.583756
1540.000000	37.686871
1530.000000	36.904349
1520.000000	36.057377
1510.000000	35.695035
1500.000000	35.464674
1490.000000	35.492894
1480.000000	35.800651
1470.000000	36.373454
1460.000000	36.923552
1450.000000	37.646332
1440.000000	38.854752
1430.000000	40.002060
1420.000000	41.382829
1410.000000	43.730510
1400.000000	47.144163
1390.000000	50.772603
1380.000000	53.016932
1370.000000	54.018711
1360.000000	54.696490
1350.000000	55.193988
1340.000000	55.500847
1330.000000	56.146820
1320.000000	57.573119
1310.000000	58.910192
1300.000000	59.688089
1290.000000	60.004441
1280.000000	59.585036
1270.000000	59.158254
1260.000000	59.067695
1250.000000	58.954319
1240.000000	58.864600
1230.000000	58.548750
1220.000000	57.912133
1210.000000	57.344488
1200.000000	56.912102
1190.000000	56.903474
1180.000000	57.421641
1170.000000	58.217637
1160.000000	59.309899
1150.000000	60.346474
1140.000000	61.019277
1130.000000	61.605206
1120.000000	61.877112
1110.000000	62.024245
1100.000000	62.275253
1090.000000	62.374861
1080.000000	62.090957
1070.000000	61.802014
1060.000000	61.686428
1050.000000	61.719221
1040.000000	61.566989
1030.000000	61.608040
1020.000000	61.827054
1010.000000	62.234199
1000.000000	62.857697
990.000000	63.016947
980.000000	62.884264
970.000000	62.959151
960.000000	63.115210
950.000000	63.058711
940.000000	63.093600
930.000000	63.103438
920.000000	62.891245
910.000000	62.865135
900.000000	63.022014
890.000000	63.316949
880.000000	63.393173
870.000000	62.952837
860.000000	61.703866
850.000000	61.943774
840.000000	63.522813
830.000000	63.105844
820.000000	62.943858
810.000000	62.959952
800.000000	63.028730
790.000000	62.995888
780.000000	62.993062
770.000000	62.963117
760.000000	62.784629
750.000000	62.671042
740.000000	62.574222
730.000000	62.572881
720.000000	62.316288
710.000000	62.114869
700.000000	61.890210
690.000000	61.756794
680.000000	61.583766
670.000000	61.354854
660.000000	61.053472
650.000000	60.621291
640.000000	60.255205
630.000000	59.968734
620.000000	59.488697
610.000000	58.980760
600.000000	58.535562
590.000000	58.046162
580.000000	57.545124
570.000000	56.945574
560.000000	56.357190
550.000000	55.657107
540.000000	54.882036
530.000000	54.128063
520.000000	53.312822
510.000000	52.398658
500.000000	51.326657
490.000000	50.075493
480.000000	48.768787
470.000000	47.247476
460.000000	45.521454
450.000000	43.541194
440.000000	41.360001
430.000000	39.008086
420.000000	36.671533
410.000000	34.599074
400.000000	33.108954
390.000000	31.887087
380.000000	30.538135
370.000000	28.792391
360.000000	27.198595
350.000000	26.213302
340.000000	25.048044
330.000000	24.147714
320.000000	23.465119
310.000000	21.963961
300.000000	19.849693
290.000000	17.270225
280.000000	15.993214
270.000000	15.898357
260.000000	15.930154
250.000000	15.423579
