PE UV       SUBTECH     SPECTRUM    ASCII       PEDS        4.00        
   -1
3G-N10-F004.Sample.Raw.asc
22/03/09
16:51:22.00
22/03/09
16:51:22.00
Administrator

250.000000
1
Lambda 750
750N8071901
PerkinElmer UV WinLab 6.0.4.0738 / 1.61.00 Lambda 900

0
0
3350/servo 860.8/2
0
0
UV/VIS
1
1
1
CommonBeamDepol,150mm sphere / downward view
0
0
0
0
Program
Program
3350/servo 860.8/2
3350/0.2 860.8/0.2
3350/0.2 860.8/0.2
0
1
 
 
 
0
 
860.8
319.2
860.8
Front
100
on
 
 
0
0
0
 
0
 
 
 
0
 
 
0
0
0
0
0
 
 
 
 
0
0


0
0
#HDR
-1
-1
#GR
nm
%R
1.0
0.0
2500.000000
-10.000000
226
8
65.811191
8.558690
#DATA
2500.000000	8.558690
2490.000000	14.229982
2480.000000	19.526591
2470.000000	20.347746
2460.000000	14.737613
2450.000000	14.343198
2440.000000	10.206535
2430.000000	15.877600
2420.000000	18.925425
2410.000000	19.807970
2400.000000	22.321349
2390.000000	20.868852
2380.000000	15.572699
2370.000000	21.522509
2360.000000	19.384774
2350.000000	22.988764
2340.000000	20.277796
2330.000000	19.817333
2320.000000	17.104385
2310.000000	18.882919
2300.000000	18.286491
2290.000000	17.906241
2280.000000	19.836189
2270.000000	16.134468
2260.000000	17.810605
2250.000000	19.621756
2240.000000	19.489153
2230.000000	19.980583
2220.000000	20.890619
2210.000000	22.449457
2200.000000	22.218409
2190.000000	20.412568
2180.000000	21.525177
2170.000000	21.257962
2160.000000	21.799910
2150.000000	24.036654
2140.000000	22.695285
2130.000000	25.329770
2120.000000	25.002332
2110.000000	23.749624
2100.000000	26.268138
2090.000000	25.774366
2080.000000	24.936312
2070.000000	24.065876
2060.000000	22.165573
2050.000000	21.808318
2040.000000	21.862876
2030.000000	21.819125
2020.000000	22.207011
2010.000000	22.801125
2000.000000	22.226320
1990.000000	21.635014
1980.000000	20.429340
1970.000000	19.994537
1960.000000	19.082808
1950.000000	18.579155
1940.000000	17.843103
1930.000000	18.819463
1920.000000	20.731973
1910.000000	22.967176
1900.000000	27.452619
1890.000000	32.084742
1880.000000	36.308291
1870.000000	39.965245
1860.000000	42.092249
1850.000000	42.798675
1840.000000	43.014962
1830.000000	42.435169
1820.000000	42.255522
1810.000000	41.508963
1800.000000	41.237290
1790.000000	40.533372
1780.000000	39.893427
1770.000000	39.492797
1760.000000	38.608184
1750.000000	38.045999
1740.000000	37.266010
1730.000000	37.132616
1720.000000	37.744747
1710.000000	38.903949
1700.000000	39.710107
1690.000000	40.342334
1680.000000	42.129374
1670.000000	44.411218
1660.000000	45.821534
1650.000000	46.429607
1640.000000	46.357659
1630.000000	45.829015
1620.000000	45.232356
1610.000000	44.400273
1600.000000	43.388963
1590.000000	42.620689
1580.000000	42.038419
1570.000000	41.417592
1560.000000	40.938353
1550.000000	40.356586
1540.000000	39.623745
1530.000000	38.711560
1520.000000	37.950854
1510.000000	37.444100
1500.000000	37.219894
1490.000000	37.278524
1480.000000	37.633152
1470.000000	38.193735
1460.000000	38.935401
1450.000000	39.553034
1440.000000	40.505078
1430.000000	41.393240
1420.000000	42.554452
1410.000000	44.864844
1400.000000	48.580072
1390.000000	52.649957
1380.000000	55.334622
1370.000000	56.272354
1360.000000	56.756155
1350.000000	57.019323
1340.000000	57.894840
1330.000000	59.397611
1320.000000	60.641621
1310.000000	61.342343
1300.000000	61.663772
1290.000000	61.709097
1280.000000	61.518712
1270.000000	61.443256
1260.000000	61.460003
1250.000000	61.385918
1240.000000	61.002427
1230.000000	60.618043
1220.000000	60.191980
1210.000000	59.664906
1200.000000	59.052876
1190.000000	58.846345
1180.000000	59.323939
1170.000000	60.357724
1160.000000	61.632656
1150.000000	62.465302
1140.000000	63.156224
1130.000000	64.007943
1120.000000	64.263319
1110.000000	64.340840
1100.000000	64.447863
1090.000000	64.438566
1080.000000	64.366956
1070.000000	64.341844
1060.000000	64.245789
1050.000000	64.194917
1040.000000	64.039317
1030.000000	63.853269
1020.000000	63.800210
1010.000000	64.176331
1000.000000	65.014762
990.000000	65.351862
980.000000	65.306422
970.000000	65.300333
960.000000	65.423239
950.000000	65.613082
940.000000	65.524304
930.000000	65.353345
920.000000	65.128725
910.000000	64.923374
900.000000	65.406898
890.000000	65.811191
880.000000	65.647154
870.000000	65.753359
860.000000	65.574131
850.000000	65.139512
840.000000	65.323912
830.000000	64.877287
820.000000	64.900608
810.000000	64.884892
800.000000	65.147012
790.000000	65.183672
780.000000	65.046506
770.000000	65.137571
760.000000	64.877443
750.000000	64.562932
740.000000	64.462810
730.000000	64.277441
720.000000	63.974066
710.000000	63.968955
700.000000	63.662693
690.000000	63.448398
680.000000	63.252633
670.000000	62.917599
660.000000	62.541149
650.000000	62.178575
640.000000	61.847814
630.000000	61.468279
620.000000	60.952949
610.000000	60.410054
600.000000	59.939668
590.000000	59.447345
580.000000	58.877826
570.000000	58.257757
560.000000	57.644997
550.000000	56.925236
540.000000	56.087064
530.000000	55.201043
520.000000	54.354526
510.000000	53.368822
500.000000	52.234203
490.000000	50.979390
480.000000	49.530353
470.000000	47.983345
460.000000	46.202406
450.000000	44.189706
440.000000	41.963626
430.000000	39.485673
420.000000	36.971996
410.000000	34.986107
400.000000	33.551308
390.000000	32.237628
380.000000	30.773445
370.000000	29.314091
360.000000	27.959343
350.000000	26.498851
340.000000	25.178042
330.000000	24.071586
320.000000	22.708528
310.000000	21.749214
300.000000	19.753618
290.000000	17.274668
280.000000	15.806839
270.000000	15.706918
260.000000	15.774675
250.000000	15.081306
