PE UV       SUBTECH     SPECTRUM    ASCII       PEDS        4.00        
   -1
3G-N10-F001.Sample.Raw.asc
22/03/09
16:40:35.00
22/03/09
16:40:35.00
Administrator

250.000000
1
Lambda 750
750N8071901
PerkinElmer UV WinLab 6.0.4.0738 / 1.61.00 Lambda 900

0
0
3350/servo 860.8/2
0
0
UV/VIS
1
1
1
CommonBeamDepol,150mm sphere / downward view
0
0
0
0
Program
Program
3350/servo 860.8/2
3350/0.2 860.8/0.2
3350/0.2 860.8/0.2
0
1
 
 
 
0
 
860.8
319.2
860.8
Front
100
on
 
 
0
0
0
 
0
 
 
 
0
 
 
0
0
0
0
0
 
 
 
 
0
0


0
0
#HDR
-1
-1
#GR
nm
%R
1.0
0.0
2500.000000
-10.000000
226
8
65.878664
9.785436
#DATA
2500.000000	9.785436
2490.000000	14.197419
2480.000000	16.359660
2470.000000	21.035601
2460.000000	17.559270
2450.000000	16.247853
2440.000000	17.414450
2430.000000	20.694062
2420.000000	20.157952
2410.000000	15.658218
2400.000000	20.162684
2390.000000	19.586081
2380.000000	17.950136
2370.000000	18.229536
2360.000000	18.014893
2350.000000	20.179408
2340.000000	19.791816
2330.000000	22.170780
2320.000000	17.668415
2310.000000	17.756512
2300.000000	20.016775
2290.000000	17.615278
2280.000000	20.086814
2270.000000	18.906076
2260.000000	17.316450
2250.000000	20.124232
2240.000000	20.737552
2230.000000	21.834404
2220.000000	23.086159
2210.000000	21.920470
2200.000000	22.511392
2190.000000	20.483010
2180.000000	22.579109
2170.000000	21.466418
2160.000000	20.762909
2150.000000	22.422071
2140.000000	23.524938
2130.000000	25.157550
2120.000000	23.934221
2110.000000	23.716298
2100.000000	26.368952
2090.000000	25.642090
2080.000000	24.076190
2070.000000	24.119001
2060.000000	21.789896
2050.000000	20.929375
2040.000000	21.576120
2030.000000	21.648340
2020.000000	22.799146
2010.000000	22.818907
2000.000000	22.472620
1990.000000	21.827384
1980.000000	21.082625
1970.000000	20.666751
1960.000000	19.752345
1950.000000	18.474740
1940.000000	18.462855
1930.000000	19.631747
1920.000000	20.635747
1910.000000	23.169321
1900.000000	27.367095
1890.000000	31.958965
1880.000000	36.801662
1870.000000	40.013588
1860.000000	41.992163
1850.000000	42.847133
1840.000000	43.177155
1830.000000	42.679470
1820.000000	42.228681
1810.000000	41.465655
1800.000000	41.053247
1790.000000	40.684177
1780.000000	40.160189
1770.000000	39.427551
1760.000000	38.629960
1750.000000	38.268000
1740.000000	37.439714
1730.000000	37.371346
1720.000000	38.083462
1710.000000	39.042781
1700.000000	39.871816
1690.000000	40.572662
1680.000000	42.183269
1670.000000	44.551866
1660.000000	46.100757
1650.000000	46.496849
1640.000000	46.448299
1630.000000	45.885432
1620.000000	45.347302
1610.000000	44.444298
1600.000000	43.600205
1590.000000	42.639175
1580.000000	42.067585
1570.000000	41.467903
1560.000000	40.969355
1550.000000	40.420356
1540.000000	39.753194
1530.000000	38.903062
1520.000000	38.052010
1510.000000	37.599763
1500.000000	37.271377
1490.000000	37.347179
1480.000000	37.764570
1470.000000	38.210863
1460.000000	38.894000
1450.000000	39.698998
1440.000000	40.697414
1430.000000	41.480227
1420.000000	42.738155
1410.000000	45.016003
1400.000000	48.673053
1390.000000	52.756544
1380.000000	55.440374
1370.000000	56.262510
1360.000000	56.638292
1350.000000	57.025864
1340.000000	57.995465
1330.000000	59.322784
1320.000000	60.685781
1310.000000	61.474888
1300.000000	61.702947
1290.000000	61.715648
1280.000000	61.556045
1270.000000	61.362225
1260.000000	61.323267
1250.000000	61.211597
1240.000000	60.974874
1230.000000	60.686018
1220.000000	60.316027
1210.000000	59.876203
1200.000000	59.323984
1190.000000	59.031133
1180.000000	59.457870
1170.000000	60.388293
1160.000000	61.628111
1150.000000	62.619659
1140.000000	63.383658
1130.000000	63.962664
1120.000000	64.359642
1110.000000	64.607363
1100.000000	64.602994
1090.000000	64.641786
1080.000000	64.571996
1070.000000	64.375953
1060.000000	64.183468
1050.000000	64.121765
1040.000000	63.911722
1030.000000	63.773844
1020.000000	63.835411
1010.000000	64.315371
1000.000000	65.037177
990.000000	65.499658
980.000000	65.421957
970.000000	65.513425
960.000000	65.688873
950.000000	65.811340
940.000000	65.790052
930.000000	65.451609
920.000000	65.261900
910.000000	64.960571
900.000000	65.187951
890.000000	65.693817
880.000000	65.848413
870.000000	65.878664
860.000000	65.821127
850.000000	65.597894
840.000000	64.724107
830.000000	64.743809
820.000000	64.876204
810.000000	64.854041
800.000000	64.597690
790.000000	64.674880
780.000000	64.873997
770.000000	64.879309
760.000000	64.707780
750.000000	64.465247
740.000000	64.385819
730.000000	64.107313
720.000000	63.868225
710.000000	63.761423
700.000000	63.643831
690.000000	63.384948
680.000000	63.106553
670.000000	62.876038
660.000000	62.574803
650.000000	62.435592
640.000000	62.049385
630.000000	61.516266
620.000000	61.103694
610.000000	60.617972
600.000000	60.190846
590.000000	59.638213
580.000000	59.074871
570.000000	58.522069
560.000000	57.943106
550.000000	57.205918
540.000000	56.388441
530.000000	55.571566
520.000000	54.726262
510.000000	53.744365
500.000000	52.615644
490.000000	51.415159
480.000000	49.967075
470.000000	48.403468
460.000000	46.626777
450.000000	44.621081
440.000000	42.435847
430.000000	40.044697
420.000000	37.667176
410.000000	35.592343
400.000000	34.008994
390.000000	32.682446
380.000000	31.258598
370.000000	29.798997
360.000000	28.132275
350.000000	26.768704
340.000000	25.545669
330.000000	24.192563
320.000000	23.405444
310.000000	22.228017
300.000000	19.978795
290.000000	17.522043
280.000000	16.076239
270.000000	15.836345
260.000000	15.902790
250.000000	15.286750
