PE UV       SUBTECH     SPECTRUM    ASCII       PEDS        4.00        
   -1
3G-N10-F015.Sample.Raw.asc
22/04/20
16:06:42.00
22/04/20
16:06:42.00
Administrator

250.000000
1
Lambda 750
750N8071901
PerkinElmer UV WinLab 6.0.4.0738 / 1.61.00 Lambda 900

0
0
3350/servo 860.8/2
0
0
UV/VIS
1
1
1
CommonBeamDepol,150mm sphere / downward view
0
0
0
0
Program
Program
3350/servo 860.8/2
3350/0.2 860.8/0.2
3350/0.2 860.8/0.2
0
1
 
 
 
0
 
860.8
319.2
860.8
Front
100
on
 
 
0
0
0
 
0
 
 
 
0
 
 
0
0
0
0
0
 
 
 
 
0
0


0
0
#HDR
-1
-1
#GR
nm
%R
1.0
0.0
2500.000000
-10.000000
226
8
64.591016
10.568893
#DATA
2500.000000	10.568893
2490.000000	14.629139
2480.000000	12.190991
2470.000000	15.151331
2460.000000	15.680087
2450.000000	20.145485
2440.000000	18.165676
2430.000000	13.297572
2420.000000	15.266269
2410.000000	21.814661
2400.000000	22.215875
2390.000000	17.580517
2380.000000	18.293230
2370.000000	19.223067
2360.000000	19.553923
2350.000000	20.902929
2340.000000	18.754699
2330.000000	16.434817
2320.000000	17.432773
2310.000000	19.897321
2300.000000	16.931958
2290.000000	15.025501
2280.000000	17.427208
2270.000000	21.097780
2260.000000	18.377234
2250.000000	20.767645
2240.000000	19.476902
2230.000000	22.432441
2220.000000	22.553893
2210.000000	19.399997
2200.000000	21.372666
2190.000000	21.529804
2180.000000	19.559759
2170.000000	18.817208
2160.000000	21.323197
2150.000000	20.808870
2140.000000	22.192692
2130.000000	23.022991
2120.000000	24.327453
2110.000000	24.125684
2100.000000	24.531888
2090.000000	23.394785
2080.000000	23.748993
2070.000000	22.214013
2060.000000	22.059566
2050.000000	21.470894
2040.000000	21.015484
2030.000000	21.278685
2020.000000	21.947807
2010.000000	22.215364
2000.000000	21.066507
1990.000000	21.084791
1980.000000	20.181792
1970.000000	19.084850
1960.000000	19.088460
1950.000000	18.086845
1940.000000	17.586945
1930.000000	18.551026
1920.000000	19.535698
1910.000000	21.366920
1900.000000	26.388142
1890.000000	30.601587
1880.000000	35.113857
1870.000000	39.277993
1860.000000	40.951979
1850.000000	41.754755
1840.000000	41.657133
1830.000000	41.624495
1820.000000	40.851881
1810.000000	40.605692
1800.000000	40.078461
1790.000000	39.640338
1780.000000	39.254199
1770.000000	38.572541
1760.000000	37.797949
1750.000000	37.119557
1740.000000	36.673600
1730.000000	36.401391
1720.000000	37.100168
1710.000000	38.134154
1700.000000	38.865173
1690.000000	39.483855
1680.000000	41.178246
1670.000000	43.259791
1660.000000	44.657841
1650.000000	45.337449
1640.000000	45.148332
1630.000000	44.793152
1620.000000	44.131473
1610.000000	43.236614
1600.000000	42.353221
1590.000000	41.582352
1580.000000	40.986387
1570.000000	40.397014
1560.000000	40.020332
1550.000000	39.509658
1540.000000	38.630455
1530.000000	37.710107
1520.000000	37.000167
1510.000000	36.407726
1500.000000	36.164101
1490.000000	36.210241
1480.000000	36.656676
1470.000000	37.166697
1460.000000	37.738760
1450.000000	38.494738
1440.000000	39.452507
1430.000000	40.646569
1420.000000	42.203666
1410.000000	44.576299
1400.000000	48.102978
1390.000000	51.890970
1380.000000	54.286208
1370.000000	55.328979
1360.000000	55.984129
1350.000000	56.556398
1340.000000	56.855517
1330.000000	57.576598
1320.000000	59.055489
1310.000000	60.430116
1300.000000	61.037141
1290.000000	61.166836
1280.000000	60.894934
1270.000000	60.562251
1260.000000	60.385153
1250.000000	60.293849
1240.000000	60.141599
1230.000000	59.846462
1220.000000	59.317179
1210.000000	58.693192
1200.000000	58.098459
1190.000000	57.984369
1180.000000	58.505657
1170.000000	59.438584
1160.000000	60.665547
1150.000000	61.589780
1140.000000	62.175875
1130.000000	62.929897
1120.000000	63.535578
1110.000000	63.762829
1100.000000	63.618766
1090.000000	63.530331
1080.000000	63.335163
1070.000000	63.310173
1060.000000	63.268409
1050.000000	63.213617
1040.000000	63.054237
1030.000000	63.116406
1020.000000	63.284723
1010.000000	63.573465
1000.000000	64.201892
990.000000	64.323508
980.000000	64.224755
970.000000	64.298470
960.000000	64.456194
950.000000	64.591016
940.000000	64.582989
930.000000	64.543102
920.000000	64.117540
910.000000	64.160250
900.000000	64.377154
890.000000	64.125079
880.000000	64.330224
870.000000	64.500686
860.000000	64.281645
850.000000	64.396924
840.000000	64.203955
830.000000	63.964621
820.000000	63.776200
810.000000	64.013778
800.000000	63.948004
790.000000	63.864818
780.000000	63.795092
770.000000	63.762898
760.000000	63.416440
750.000000	63.422696
740.000000	63.391788
730.000000	63.258531
720.000000	63.032372
710.000000	62.899390
700.000000	62.752773
690.000000	62.565041
680.000000	62.374123
670.000000	62.087504
660.000000	61.860553
650.000000	61.569756
640.000000	61.142316
630.000000	60.761983
620.000000	60.322157
610.000000	59.762543
600.000000	59.251598
590.000000	58.822421
580.000000	58.330043
570.000000	57.720744
560.000000	57.130021
550.000000	56.455536
540.000000	55.623734
530.000000	54.805117
520.000000	53.941824
510.000000	52.939775
500.000000	51.832737
490.000000	50.549573
480.000000	49.147764
470.000000	47.639764
460.000000	45.843838
450.000000	43.856662
440.000000	41.588742
430.000000	39.159816
420.000000	36.790754
410.000000	34.712079
400.000000	33.093753
390.000000	31.639281
380.000000	30.067634
370.000000	28.454802
360.000000	26.870179
350.000000	25.717538
340.000000	24.463385
330.000000	23.107994
320.000000	22.085081
310.000000	20.510316
300.000000	18.965060
290.000000	16.724152
280.000000	15.449941
270.000000	15.198468
260.000000	15.260752
250.000000	14.783132
