PE UV       SUBTECH     SPECTRUM    ASCII       PEDS        4.00        
   -1
3S-H10-F028.Sample.Raw.asc
22/03/29
15:38:15.00
22/03/29
15:38:15.00
Administrator

250.000000
1
Lambda 750
750N8071901
PerkinElmer UV WinLab 6.0.4.0738 / 1.61.00 Lambda 900

0
0
3350/servo 860.8/2
0
0
UV/VIS
1
1
1
CommonBeamDepol,150mm sphere / downward view
0
0
0
0
Program
Program
3350/servo 860.8/2
3350/0.2 860.8/0.2
3350/0.2 860.8/0.2
0
1
 
 
 
0
 
860.8
319.2
860.8
Front
100
on
 
 
0
0
0
 
0
 
 
 
0
 
 
0
0
0
0
0
 
 
 
 
0
0


0
0
#HDR
-1
-1
#GR
nm
%R
1.0
0.0
2500.000000
-10.000000
226
8
43.596431
4.361384
#DATA
2500.000000	4.524117
2490.000000	5.109060
2480.000000	5.460927
2470.000000	4.361384
2460.000000	5.896949
2450.000000	6.571833
2440.000000	7.013071
2430.000000	6.903606
2420.000000	7.099018
2410.000000	6.849580
2400.000000	8.857128
2390.000000	6.919097
2380.000000	7.298238
2370.000000	6.607758
2360.000000	7.788581
2350.000000	8.890944
2340.000000	7.572712
2330.000000	8.309616
2320.000000	6.835270
2310.000000	6.934370
2300.000000	6.862734
2290.000000	6.504037
2280.000000	6.685441
2270.000000	7.634349
2260.000000	7.683723
2250.000000	8.962027
2240.000000	9.150398
2230.000000	10.643830
2220.000000	10.982698
2210.000000	10.747045
2200.000000	9.873951
2190.000000	9.733854
2180.000000	9.779281
2170.000000	9.256613
2160.000000	9.468272
2150.000000	10.461906
2140.000000	10.659634
2130.000000	10.495594
2120.000000	11.924716
2110.000000	12.025094
2100.000000	12.245569
2090.000000	12.014462
2080.000000	12.179937
2070.000000	11.733122
2060.000000	10.998797
2050.000000	9.973238
2040.000000	9.681344
2030.000000	9.727770
2020.000000	10.400529
2010.000000	10.448165
2000.000000	10.124156
1990.000000	9.803253
1980.000000	9.071518
1970.000000	8.692153
1960.000000	8.265517
1950.000000	7.831194
1940.000000	7.681932
1930.000000	7.879705
1920.000000	8.923343
1910.000000	10.258938
1900.000000	13.018841
1890.000000	16.681715
1880.000000	20.074334
1870.000000	22.799503
1860.000000	24.042151
1850.000000	24.516878
1840.000000	24.499725
1830.000000	24.210804
1820.000000	23.690126
1810.000000	23.388094
1800.000000	22.974385
1790.000000	22.724165
1780.000000	22.236488
1770.000000	21.532762
1760.000000	20.819039
1750.000000	20.562507
1740.000000	20.118085
1730.000000	19.446699
1720.000000	19.815980
1710.000000	20.816139
1700.000000	21.950678
1690.000000	22.886584
1680.000000	24.517398
1670.000000	26.327509
1660.000000	27.559066
1650.000000	28.098049
1640.000000	27.988835
1630.000000	27.649207
1620.000000	27.111599
1610.000000	26.532076
1600.000000	25.896617
1590.000000	25.341798
1580.000000	24.807604
1570.000000	24.361687
1560.000000	24.003544
1550.000000	23.560271
1540.000000	22.925110
1530.000000	22.123610
1520.000000	21.565332
1510.000000	21.279303
1500.000000	21.057167
1490.000000	21.018317
1480.000000	21.246602
1470.000000	21.500939
1460.000000	21.832469
1450.000000	22.354459
1440.000000	23.138221
1430.000000	24.237025
1420.000000	25.682737
1410.000000	27.656557
1400.000000	30.098701
1390.000000	32.540226
1380.000000	34.351414
1370.000000	35.455642
1360.000000	36.261051
1350.000000	36.900693
1340.000000	37.293747
1330.000000	37.519929
1320.000000	37.838629
1310.000000	38.342606
1300.000000	38.788481
1290.000000	38.987313
1280.000000	38.970696
1270.000000	38.849553
1260.000000	38.768321
1250.000000	38.646963
1240.000000	38.284181
1230.000000	37.661479
1220.000000	36.992251
1210.000000	36.458936
1200.000000	36.233125
1190.000000	36.418510
1180.000000	36.972794
1170.000000	37.927016
1160.000000	38.988091
1150.000000	39.896633
1140.000000	40.572382
1130.000000	41.056130
1120.000000	41.407588
1110.000000	41.566414
1100.000000	41.602434
1090.000000	41.545300
1080.000000	41.502397
1070.000000	41.504056
1060.000000	41.534473
1050.000000	41.494486
1040.000000	41.484956
1030.000000	41.563301
1020.000000	41.730896
1010.000000	42.153526
1000.000000	42.556582
990.000000	42.658263
980.000000	42.719818
970.000000	42.874144
960.000000	42.930493
950.000000	43.031423
940.000000	43.028292
930.000000	42.996254
920.000000	43.078218
910.000000	43.100616
900.000000	43.274309
890.000000	43.572723
880.000000	43.596431
870.000000	43.562890
860.000000	43.497290
850.000000	42.719077
840.000000	41.668947
830.000000	41.514433
820.000000	41.531240
810.000000	41.558418
800.000000	41.651256
790.000000	41.565960
780.000000	41.485571
770.000000	41.439582
760.000000	41.340033
750.000000	41.246577
740.000000	41.109293
730.000000	41.030395
720.000000	40.939617
710.000000	40.805518
700.000000	40.653820
690.000000	40.459571
680.000000	40.237281
670.000000	39.926980
660.000000	39.691687
650.000000	39.447370
640.000000	39.094830
630.000000	38.761163
620.000000	38.387375
610.000000	37.998250
600.000000	37.633528
590.000000	37.294161
580.000000	36.969437
570.000000	36.569127
560.000000	36.167655
550.000000	35.709080
540.000000	35.099415
530.000000	34.410481
520.000000	33.649587
510.000000	32.754145
500.000000	31.793214
490.000000	30.776056
480.000000	29.709056
470.000000	28.519713
460.000000	27.025858
450.000000	25.252196
440.000000	23.250136
430.000000	21.013744
420.000000	18.798793
410.000000	17.040861
400.000000	15.940642
390.000000	14.982356
380.000000	13.871043
370.000000	12.829626
360.000000	11.909983
350.000000	11.040298
340.000000	10.191110
330.000000	9.483176
320.000000	8.930448
310.000000	8.308281
300.000000	7.752948
290.000000	7.218544
280.000000	6.885242
270.000000	6.723125
260.000000	6.772590
250.000000	6.875573
