PE UV       SUBTECH     SPECTRUM    ASCII       PEDS        4.00        
   -1
3S-H10-F018.Sample.Raw.asc
22/03/29
15:07:47.00
22/03/29
15:07:47.00
Administrator

250.000000
1
Lambda 750
750N8071901
PerkinElmer UV WinLab 6.0.4.0738 / 1.61.00 Lambda 900

0
0
3350/servo 860.8/2
0
0
UV/VIS
1
1
1
CommonBeamDepol,150mm sphere / downward view
0
0
0
0
Program
Program
3350/servo 860.8/2
3350/0.2 860.8/0.2
3350/0.2 860.8/0.2
0
1
 
 
 
0
 
860.8
319.2
860.8
Front
100
on
 
 
0
0
0
 
0
 
 
 
0
 
 
0
0
0
0
0
 
 
 
 
0
0


0
0
#HDR
-1
-1
#GR
nm
%R
1.0
0.0
2500.000000
-10.000000
226
8
43.411881
4.295797
#DATA
2500.000000	5.096365
2490.000000	7.118516
2480.000000	4.295797
2470.000000	5.286209
2460.000000	5.595541
2450.000000	5.004773
2440.000000	5.747621
2430.000000	5.662394
2420.000000	7.835702
2410.000000	6.983607
2400.000000	8.595885
2390.000000	7.693039
2380.000000	7.771058
2370.000000	7.240959
2360.000000	7.176436
2350.000000	7.646814
2340.000000	7.314008
2330.000000	7.554155
2320.000000	8.089071
2310.000000	7.301164
2300.000000	6.482372
2290.000000	6.043499
2280.000000	7.077123
2270.000000	7.599427
2260.000000	8.075479
2250.000000	8.838301
2240.000000	9.781945
2230.000000	10.022951
2220.000000	10.395050
2210.000000	9.926921
2200.000000	9.503638
2190.000000	9.732931
2180.000000	9.668179
2170.000000	8.789136
2160.000000	9.991204
2150.000000	10.620427
2140.000000	10.653440
2130.000000	10.753042
2120.000000	11.743310
2110.000000	12.202241
2100.000000	12.177951
2090.000000	11.824726
2080.000000	12.026348
2070.000000	11.630152
2060.000000	10.784253
2050.000000	10.414035
2040.000000	9.744132
2030.000000	9.799857
2020.000000	10.449144
2010.000000	10.538486
2000.000000	10.019516
1990.000000	9.734353
1980.000000	9.093640
1970.000000	8.593986
1960.000000	8.078004
1950.000000	7.625665
1940.000000	7.579307
1930.000000	8.020285
1920.000000	8.775308
1910.000000	10.235800
1900.000000	12.990025
1890.000000	16.859072
1880.000000	20.176202
1870.000000	22.642399
1860.000000	23.928473
1850.000000	24.537843
1840.000000	24.326958
1830.000000	24.212872
1820.000000	23.626791
1810.000000	23.226119
1800.000000	22.916118
1790.000000	22.579561
1780.000000	22.109951
1770.000000	21.391863
1760.000000	20.796044
1750.000000	20.490712
1740.000000	19.955225
1730.000000	19.338386
1720.000000	19.530304
1710.000000	20.595335
1700.000000	21.684739
1690.000000	22.701253
1680.000000	24.264226
1670.000000	26.198583
1660.000000	27.379373
1650.000000	27.903415
1640.000000	27.795586
1630.000000	27.457719
1620.000000	26.970973
1610.000000	26.387658
1600.000000	25.769166
1590.000000	25.216770
1580.000000	24.709838
1570.000000	24.199568
1560.000000	23.849530
1550.000000	23.419912
1540.000000	22.759489
1530.000000	21.944998
1520.000000	21.433805
1510.000000	21.161072
1500.000000	20.983267
1490.000000	20.945745
1480.000000	21.165028
1470.000000	21.395852
1460.000000	21.718300
1450.000000	22.219705
1440.000000	23.042772
1430.000000	24.100490
1420.000000	25.552615
1410.000000	27.468207
1400.000000	29.828571
1390.000000	32.229018
1380.000000	34.050382
1370.000000	35.126104
1360.000000	35.946956
1350.000000	36.568582
1340.000000	36.979456
1330.000000	37.191680
1320.000000	37.452311
1310.000000	37.941885
1300.000000	38.396588
1290.000000	38.595890
1280.000000	38.548922
1270.000000	38.447447
1260.000000	38.341727
1250.000000	38.239184
1240.000000	37.888868
1230.000000	37.291829
1220.000000	36.587580
1210.000000	36.055414
1200.000000	35.844447
1190.000000	36.023332
1180.000000	36.602764
1170.000000	37.511126
1160.000000	38.550099
1150.000000	39.433689
1140.000000	40.103313
1130.000000	40.637171
1120.000000	40.976846
1110.000000	41.078366
1100.000000	41.123626
1090.000000	41.110055
1080.000000	41.089444
1070.000000	41.100270
1060.000000	41.116958
1050.000000	41.122540
1040.000000	41.117526
1030.000000	41.245236
1020.000000	41.452601
1010.000000	41.820601
1000.000000	42.194924
990.000000	42.318542
980.000000	42.353659
970.000000	42.457614
960.000000	42.593650
950.000000	42.712981
940.000000	42.683235
930.000000	42.618412
920.000000	42.638429
910.000000	42.767935
900.000000	42.955801
890.000000	43.318402
880.000000	43.395591
870.000000	43.333102
860.000000	43.411881
850.000000	42.677309
840.000000	41.477793
830.000000	41.483675
820.000000	41.565721
810.000000	41.492440
800.000000	41.458264
790.000000	41.417703
780.000000	41.399712
770.000000	41.298586
760.000000	41.235927
750.000000	41.215942
740.000000	41.048250
730.000000	40.921742
720.000000	40.828931
710.000000	40.697155
700.000000	40.560117
690.000000	40.359944
680.000000	40.118899
670.000000	39.846228
660.000000	39.578277
650.000000	39.326222
640.000000	38.995347
630.000000	38.652792
620.000000	38.301627
610.000000	37.876516
600.000000	37.539571
590.000000	37.260744
580.000000	36.919192
570.000000	36.492208
560.000000	36.053478
550.000000	35.596521
540.000000	35.015895
530.000000	34.347043
520.000000	33.556124
510.000000	32.675313
500.000000	31.758001
490.000000	30.749437
480.000000	29.623802
470.000000	28.387307
460.000000	26.908567
450.000000	25.128295
440.000000	23.147725
430.000000	20.919969
420.000000	18.662141
410.000000	16.934262
400.000000	15.878457
390.000000	14.936531
380.000000	13.821593
370.000000	12.810821
360.000000	11.978818
350.000000	11.131107
340.000000	10.369823
330.000000	9.405659
320.000000	8.780826
310.000000	8.521352
300.000000	7.815539
290.000000	7.273256
280.000000	6.985832
270.000000	6.867390
260.000000	6.920116
250.000000	6.978900
