PE UV       SUBTECH     SPECTRUM    ASCII       PEDS        4.00        
   -1
3S-H10-F001.Sample.Cycle1.Raw.asc
22/03/03
15:19:42.00
22/03/03
15:19:42.00
Administrator

250.000000
1
Lambda 750
750N8071901
PerkinElmer UV WinLab 6.0.4.0738 / 1.61.00 Lambda 900

0
0
3350/servo 860.8/2
0
0
UV/VIS
1
1
1
CommonBeamDepol,150mm sphere / downward view
0
0
0
0
Program
Program
3350/servo 860.8/2
3350/0.2 860.8/0.2
3350/0.2 860.8/0.2
0
1
 
 
 
0
 
860.8
319.2
860.8
Front
100
on
 
 
0
0
0
 
0
 
 
 
0
 
 
0
0
0
0
0
 
 
 
 
0
0


0
0
#HDR
-1
-1
#GR
nm
%R
1.0
0.0
2500.000000
-10.000000
226
8
56.453069
5.270405
#DATA
2500.000000	5.270405
2490.000000	12.209941
2480.000000	10.971681
2470.000000	13.997569
2460.000000	18.295973
2450.000000	13.773330
2440.000000	11.010982
2430.000000	14.260140
2420.000000	14.911280
2410.000000	8.102390
2400.000000	14.251454
2390.000000	14.085872
2380.000000	11.724206
2370.000000	14.248561
2360.000000	10.995074
2350.000000	12.061405
2340.000000	14.121693
2330.000000	12.602062
2320.000000	9.704915
2310.000000	15.783940
2300.000000	11.644822
2290.000000	12.336194
2280.000000	12.960397
2270.000000	12.238348
2260.000000	11.446414
2250.000000	12.155676
2240.000000	14.963991
2230.000000	14.257408
2220.000000	17.005151
2210.000000	15.869145
2200.000000	14.270706
2190.000000	14.423775
2180.000000	13.260109
2170.000000	16.935730
2160.000000	14.437352
2150.000000	15.404949
2140.000000	16.452882
2130.000000	17.016376
2120.000000	18.141933
2110.000000	18.706309
2100.000000	19.400918
2090.000000	18.372344
2080.000000	16.940393
2070.000000	17.670648
2060.000000	16.383830
2050.000000	16.862286
2040.000000	14.750774
2030.000000	16.274029
2020.000000	15.614366
2010.000000	16.259904
2000.000000	16.110541
1990.000000	15.386520
1980.000000	14.447738
1970.000000	13.717540
1960.000000	12.599748
1950.000000	12.391140
1940.000000	11.985930
1930.000000	12.538328
1920.000000	13.656784
1910.000000	15.451249
1900.000000	19.595440
1890.000000	24.406256
1880.000000	28.537265
1870.000000	32.449709
1860.000000	34.524903
1850.000000	34.656356
1840.000000	34.583777
1830.000000	34.168311
1820.000000	33.711486
1810.000000	33.591760
1800.000000	32.858905
1790.000000	32.271243
1780.000000	31.388470
1770.000000	30.826941
1760.000000	29.866916
1750.000000	29.386922
1740.000000	28.700539
1730.000000	28.029125
1720.000000	28.487860
1710.000000	29.999415
1700.000000	31.264669
1690.000000	32.748448
1680.000000	34.743617
1670.000000	36.950684
1660.000000	38.167130
1650.000000	39.051976
1640.000000	38.957344
1630.000000	38.513385
1620.000000	38.102510
1610.000000	37.094256
1600.000000	36.242280
1590.000000	35.238386
1580.000000	34.484944
1570.000000	34.050744
1560.000000	33.422130
1550.000000	33.055458
1540.000000	32.537183
1530.000000	31.498835
1520.000000	30.571637
1510.000000	30.006422
1500.000000	29.609300
1490.000000	29.504142
1480.000000	29.911836
1470.000000	30.401907
1460.000000	30.838516
1450.000000	31.534737
1440.000000	32.323012
1430.000000	33.209449
1420.000000	34.633805
1410.000000	36.863434
1400.000000	40.494599
1390.000000	44.567925
1380.000000	47.328755
1370.000000	48.275537
1360.000000	48.970678
1350.000000	49.751302
1340.000000	49.873464
1330.000000	50.599234
1320.000000	51.900340
1310.000000	53.165055
1300.000000	53.687245
1290.000000	53.852098
1280.000000	53.812299
1270.000000	53.529835
1260.000000	53.357841
1250.000000	52.764853
1240.000000	51.843531
1230.000000	51.575821
1220.000000	51.209421
1210.000000	50.667980
1200.000000	50.189025
1190.000000	50.255377
1180.000000	50.869872
1170.000000	51.624879
1160.000000	52.957495
1150.000000	54.226692
1140.000000	55.321818
1130.000000	55.686406
1120.000000	55.859912
1110.000000	55.796489
1100.000000	55.909362
1090.000000	55.943094
1080.000000	56.012350
1070.000000	56.059581
1060.000000	55.943202
1050.000000	55.690900
1040.000000	55.530759
1030.000000	55.521390
1020.000000	55.598344
1010.000000	56.044626
1000.000000	56.421223
990.000000	56.433018
980.000000	56.177609
970.000000	56.254387
960.000000	56.370497
950.000000	56.401368
940.000000	56.149014
930.000000	55.878949
920.000000	55.729792
910.000000	55.814616
900.000000	55.996460
890.000000	56.046902
880.000000	56.453069
870.000000	56.201606
860.000000	55.578652
850.000000	56.212372
840.000000	55.449225
830.000000	55.363813
820.000000	55.311728
810.000000	55.059665
800.000000	55.107474
790.000000	54.992191
780.000000	54.993471
770.000000	54.936130
760.000000	54.674850
750.000000	54.525979
740.000000	54.353720
730.000000	54.015730
720.000000	53.947298
710.000000	53.821228
700.000000	53.489725
690.000000	53.103500
680.000000	52.841405
670.000000	52.528207
660.000000	52.217470
650.000000	51.784149
640.000000	51.277263
630.000000	50.770196
620.000000	50.207480
610.000000	49.620708
600.000000	49.071356
590.000000	48.555049
580.000000	47.911210
570.000000	47.244325
560.000000	46.594005
550.000000	45.822823
540.000000	45.047484
530.000000	44.161296
520.000000	43.273051
510.000000	42.309128
500.000000	41.336854
490.000000	40.393807
480.000000	38.960652
470.000000	37.065702
460.000000	35.153673
450.000000	32.919346
440.000000	30.239529
430.000000	27.417174
420.000000	24.589398
410.000000	22.426697
400.000000	21.096477
390.000000	19.976890
380.000000	18.677334
370.000000	17.327236
360.000000	15.953580
350.000000	14.751568
340.000000	13.925260
330.000000	12.811941
320.000000	12.033969
310.000000	11.599312
300.000000	10.386833
290.000000	9.770526
280.000000	9.425241
270.000000	9.313879
260.000000	9.213541
250.000000	9.124448
