PE UV       SUBTECH     SPECTRUM    ASCII       PEDS        4.00        
   -1
3S-H10-F017.Sample.Raw.asc
22/03/29
15:04:45.00
22/03/29
15:04:45.00
Administrator

250.000000
1
Lambda 750
750N8071901
PerkinElmer UV WinLab 6.0.4.0738 / 1.61.00 Lambda 900

0
0
3350/servo 860.8/2
0
0
UV/VIS
1
1
1
CommonBeamDepol,150mm sphere / downward view
0
0
0
0
Program
Program
3350/servo 860.8/2
3350/0.2 860.8/0.2
3350/0.2 860.8/0.2
0
1
 
 
 
0
 
860.8
319.2
860.8
Front
100
on
 
 
0
0
0
 
0
 
 
 
0
 
 
0
0
0
0
0
 
 
 
 
0
0


0
0
#HDR
-1
-1
#GR
nm
%R
1.0
0.0
2500.000000
-10.000000
226
8
43.006295
4.326660
#DATA
2500.000000	7.294099
2490.000000	6.760730
2480.000000	4.326660
2470.000000	4.445629
2460.000000	6.611382
2450.000000	5.244346
2440.000000	6.372082
2430.000000	7.455793
2420.000000	8.568764
2410.000000	7.141409
2400.000000	9.799406
2390.000000	8.035781
2380.000000	8.642476
2370.000000	6.358252
2360.000000	7.199117
2350.000000	8.088331
2340.000000	7.988699
2330.000000	7.875192
2320.000000	6.289758
2310.000000	7.564269
2300.000000	6.521436
2290.000000	6.665929
2280.000000	7.145462
2270.000000	7.979466
2260.000000	8.166957
2250.000000	8.955395
2240.000000	9.348232
2230.000000	10.509217
2220.000000	10.740684
2210.000000	10.403471
2200.000000	9.800899
2190.000000	8.937653
2180.000000	9.919645
2170.000000	9.249446
2160.000000	9.146822
2150.000000	10.375211
2140.000000	10.813347
2130.000000	10.714807
2120.000000	11.829890
2110.000000	11.902560
2100.000000	12.321237
2090.000000	11.771205
2080.000000	12.258560
2070.000000	11.415247
2060.000000	10.820010
2050.000000	10.035582
2040.000000	9.488840
2030.000000	10.017264
2020.000000	10.504209
2010.000000	10.477502
2000.000000	10.235510
1990.000000	9.672413
1980.000000	9.029836
1970.000000	8.531411
1960.000000	8.100421
1950.000000	7.710639
1940.000000	7.709517
1930.000000	7.882278
1920.000000	8.983902
1910.000000	10.389436
1900.000000	13.148400
1890.000000	16.691389
1880.000000	19.922340
1870.000000	22.552526
1860.000000	23.799806
1850.000000	24.325657
1840.000000	24.238501
1830.000000	24.030502
1820.000000	23.573820
1810.000000	23.167051
1800.000000	22.719579
1790.000000	22.375864
1780.000000	21.983181
1770.000000	21.372364
1760.000000	20.742157
1750.000000	20.420312
1740.000000	19.880059
1730.000000	19.317512
1720.000000	19.549782
1710.000000	20.596956
1700.000000	21.677101
1690.000000	22.628047
1680.000000	24.264920
1670.000000	25.991885
1660.000000	27.204774
1650.000000	27.793354
1640.000000	27.671767
1630.000000	27.374232
1620.000000	26.835434
1610.000000	26.192091
1600.000000	25.602089
1590.000000	25.078520
1580.000000	24.571666
1570.000000	24.123851
1560.000000	23.718014
1550.000000	23.290438
1540.000000	22.652621
1530.000000	21.904331
1520.000000	21.339263
1510.000000	21.059268
1500.000000	20.914695
1490.000000	20.864132
1480.000000	21.058889
1470.000000	21.311134
1460.000000	21.638799
1450.000000	22.177638
1440.000000	22.969047
1430.000000	24.011626
1420.000000	25.444025
1410.000000	27.316880
1400.000000	29.687042
1390.000000	32.090345
1380.000000	33.818112
1370.000000	34.891904
1360.000000	35.710177
1350.000000	36.330768
1340.000000	36.723521
1330.000000	36.901915
1320.000000	37.214893
1310.000000	37.740724
1300.000000	38.193528
1290.000000	38.440517
1280.000000	38.404425
1270.000000	38.245935
1260.000000	38.148549
1250.000000	38.058865
1240.000000	37.698430
1230.000000	37.113527
1220.000000	36.396650
1210.000000	35.880168
1200.000000	35.662290
1190.000000	35.862612
1180.000000	36.439220
1170.000000	37.318091
1160.000000	38.319158
1150.000000	39.202217
1140.000000	39.894687
1130.000000	40.408978
1120.000000	40.734752
1110.000000	40.891247
1100.000000	40.919392
1090.000000	40.853976
1080.000000	40.810679
1070.000000	40.808472
1060.000000	40.838990
1050.000000	40.842119
1040.000000	40.820436
1030.000000	40.908315
1020.000000	41.062631
1010.000000	41.429874
1000.000000	41.833266
990.000000	41.960730
980.000000	42.010664
970.000000	42.129453
960.000000	42.241093
950.000000	42.354181
940.000000	42.375713
930.000000	42.302632
920.000000	42.294124
910.000000	42.437420
900.000000	42.535283
890.000000	42.703115
880.000000	42.808961
870.000000	42.878997
860.000000	43.006295
850.000000	42.313387
840.000000	41.015648
830.000000	41.048554
820.000000	41.124858
810.000000	41.174476
800.000000	41.074967
790.000000	40.989128
780.000000	41.029809
770.000000	41.072742
760.000000	40.884704
750.000000	40.821488
740.000000	40.707424
730.000000	40.593019
720.000000	40.455925
710.000000	40.339793
700.000000	40.173083
690.000000	39.983338
680.000000	39.759238
670.000000	39.522362
660.000000	39.205397
650.000000	38.952021
640.000000	38.584278
630.000000	38.223831
620.000000	37.874825
610.000000	37.508942
600.000000	37.173008
590.000000	36.875908
580.000000	36.542895
570.000000	36.103732
560.000000	35.684233
550.000000	35.246768
540.000000	34.637572
530.000000	33.961435
520.000000	33.202920
510.000000	32.334726
500.000000	31.381521
490.000000	30.342353
480.000000	29.270698
470.000000	28.069145
460.000000	26.589835
450.000000	24.823259
440.000000	22.831297
430.000000	20.647405
420.000000	18.436166
410.000000	16.691064
400.000000	15.646058
390.000000	14.730422
380.000000	13.673451
370.000000	12.746051
360.000000	11.908518
350.000000	11.078238
340.000000	10.309163
330.000000	9.420281
320.000000	8.812790
310.000000	8.460099
300.000000	7.790361
290.000000	7.216986
280.000000	6.974429
270.000000	6.880596
260.000000	6.859139
250.000000	6.958457
