PE UV       SUBTECH     SPECTRUM    ASCII       PEDS        4.00        
   -1
3S-H10-F022.Sample.Raw.asc
22/03/29
15:20:36.00
22/03/29
15:20:36.00
Administrator

250.000000
1
Lambda 750
750N8071901
PerkinElmer UV WinLab 6.0.4.0738 / 1.61.00 Lambda 900

0
0
3350/servo 860.8/2
0
0
UV/VIS
1
1
1
CommonBeamDepol,150mm sphere / downward view
0
0
0
0
Program
Program
3350/servo 860.8/2
3350/0.2 860.8/0.2
3350/0.2 860.8/0.2
0
1
 
 
 
0
 
860.8
319.2
860.8
Front
100
on
 
 
0
0
0
 
0
 
 
 
0
 
 
0
0
0
0
0
 
 
 
 
0
0


0
0
#HDR
-1
-1
#GR
nm
%R
1.0
0.0
2500.000000
-10.000000
226
8
45.027560
4.179166
#DATA
2500.000000	5.709122
2490.000000	5.367474
2480.000000	5.960365
2470.000000	4.179166
2460.000000	5.338871
2450.000000	6.975645
2440.000000	6.394950
2430.000000	6.729219
2420.000000	7.304809
2410.000000	7.019036
2400.000000	8.930055
2390.000000	7.569063
2380.000000	7.192862
2370.000000	6.103913
2360.000000	6.418586
2350.000000	8.178548
2340.000000	7.079571
2330.000000	8.308705
2320.000000	7.167050
2310.000000	6.471424
2300.000000	6.524863
2290.000000	6.348833
2280.000000	7.363089
2270.000000	7.401760
2260.000000	7.471493
2250.000000	9.078663
2240.000000	9.734907
2230.000000	10.137475
2220.000000	10.463901
2210.000000	10.027054
2200.000000	9.533502
2190.000000	9.184909
2180.000000	9.877582
2170.000000	8.954672
2160.000000	9.265178
2150.000000	11.072885
2140.000000	10.306554
2130.000000	10.753042
2120.000000	11.627641
2110.000000	11.931932
2100.000000	12.387245
2090.000000	11.710793
2080.000000	11.748882
2070.000000	11.501439
2060.000000	10.907570
2050.000000	10.080840
2040.000000	9.525869
2030.000000	9.791133
2020.000000	10.487851
2010.000000	10.444007
2000.000000	9.959093
1990.000000	9.588666
1980.000000	8.891750
1970.000000	8.606780
1960.000000	7.974556
1950.000000	7.747390
1940.000000	7.591229
1930.000000	7.758774
1920.000000	8.664399
1910.000000	10.178186
1900.000000	13.163385
1890.000000	16.634957
1880.000000	20.155182
1870.000000	22.841551
1860.000000	24.291182
1850.000000	24.793112
1840.000000	24.683318
1830.000000	24.460931
1820.000000	23.876675
1810.000000	23.418320
1800.000000	23.100632
1790.000000	22.705163
1780.000000	22.265511
1770.000000	21.395809
1760.000000	20.917522
1750.000000	20.539504
1740.000000	19.954993
1730.000000	19.354390
1720.000000	19.644389
1710.000000	20.756193
1700.000000	21.880779
1690.000000	22.951218
1680.000000	24.609355
1670.000000	26.566844
1660.000000	27.885339
1650.000000	28.468782
1640.000000	28.364921
1630.000000	28.013450
1620.000000	27.399329
1610.000000	26.814665
1600.000000	26.180716
1590.000000	25.568891
1580.000000	25.050044
1570.000000	24.546103
1560.000000	24.213227
1550.000000	23.759230
1540.000000	23.053489
1530.000000	22.225971
1520.000000	21.681372
1510.000000	21.379487
1500.000000	21.192690
1490.000000	21.154649
1480.000000	21.310332
1470.000000	21.571768
1460.000000	21.948717
1450.000000	22.499382
1440.000000	23.314097
1430.000000	24.405726
1420.000000	25.931174
1410.000000	27.971706
1400.000000	30.529293
1390.000000	33.079023
1380.000000	34.951407
1370.000000	36.142123
1360.000000	37.082070
1350.000000	37.789160
1340.000000	38.227199
1330.000000	38.479705
1320.000000	38.836561
1310.000000	39.305616
1300.000000	39.736550
1290.000000	39.954261
1280.000000	39.902689
1270.000000	39.789100
1260.000000	39.706323
1250.000000	39.558400
1240.000000	39.243016
1230.000000	38.541085
1220.000000	37.735440
1210.000000	37.128057
1200.000000	36.923501
1190.000000	37.105906
1180.000000	37.731354
1170.000000	38.811151
1160.000000	39.926872
1150.000000	40.887097
1140.000000	41.623695
1130.000000	42.188928
1120.000000	42.566649
1110.000000	42.716278
1100.000000	42.756141
1090.000000	42.714851
1080.000000	42.677775
1070.000000	42.702794
1060.000000	42.714317
1050.000000	42.697127
1040.000000	42.707474
1030.000000	42.781242
1020.000000	42.944761
1010.000000	43.357522
1000.000000	43.751664
990.000000	43.852980
980.000000	43.886446
970.000000	44.013384
960.000000	44.166545
950.000000	44.273437
940.000000	44.276379
930.000000	44.216539
920.000000	44.289051
910.000000	44.425493
900.000000	44.548342
890.000000	44.822317
880.000000	44.879856
870.000000	44.761911
860.000000	45.027560
850.000000	44.409867
840.000000	43.087892
830.000000	43.035304
820.000000	43.018640
810.000000	43.030058
800.000000	42.949919
790.000000	42.901519
780.000000	42.913916
770.000000	42.874891
760.000000	42.792456
750.000000	42.688755
740.000000	42.568610
730.000000	42.454790
720.000000	42.302615
710.000000	42.257194
700.000000	42.192522
690.000000	41.987465
680.000000	41.710729
670.000000	41.380725
660.000000	41.108028
650.000000	40.874456
640.000000	40.516237
630.000000	40.132933
620.000000	39.745772
610.000000	39.346166
600.000000	38.991813
590.000000	38.644213
580.000000	38.283135
570.000000	37.835823
560.000000	37.427266
550.000000	36.942487
540.000000	36.274740
530.000000	35.593936
520.000000	34.762451
510.000000	33.836666
500.000000	32.851793
490.000000	31.776777
480.000000	30.582103
470.000000	29.299891
460.000000	27.764470
450.000000	25.877703
440.000000	23.748509
430.000000	21.438825
420.000000	19.114305
410.000000	17.272569
400.000000	16.101517
390.000000	15.060914
380.000000	13.973297
370.000000	12.964600
360.000000	12.098704
350.000000	11.180035
340.000000	10.430891
330.000000	9.739765
320.000000	9.037321
310.000000	8.603462
300.000000	8.007390
290.000000	7.414365
280.000000	7.137994
270.000000	6.998616
260.000000	7.031416
250.000000	7.144351
