PE UV       SUBTECH     SPECTRUM    ASCII       PEDS        4.00        
   -1
3S-H10-C010.Sample.Cycle1.Raw.asc
22/03/02
16:52:34.00
22/03/02
16:52:34.00
Administrator

250.000000
1
Lambda 750
750N8071901
PerkinElmer UV WinLab 6.0.4.0738 / 1.61.00 Lambda 900

0
0
3350/servo 860.8/2
0
0
UV/VIS
1
1
1
CommonBeamDepol,150mm sphere / downward view
0
0
0
0
Program
Program
3350/servo 860.8/2
3350/0.2 860.8/0.2
3350/0.2 860.8/0.2
0
1
 
 
 
0
 
860.8
319.2
860.8
Front
100
on
 
 
0
0
0
 
0
 
 
 
0
 
 
0
0
0
0
0
 
 
 
 
0
0


0
0
#HDR
-1
-1
#GR
nm
%R
1.0
0.0
2500.000000
-10.000000
226
8
49.744080
8.538898
#DATA
2500.000000	12.247043
2490.000000	16.627268
2480.000000	15.295253
2470.000000	14.994683
2460.000000	20.229545
2450.000000	20.709880
2440.000000	23.141781
2430.000000	20.361359
2420.000000	15.887517
2410.000000	22.074267
2400.000000	23.148799
2390.000000	21.803895
2380.000000	17.510365
2370.000000	20.258107
2360.000000	25.477558
2350.000000	23.794653
2340.000000	23.082619
2330.000000	21.190800
2320.000000	21.312167
2310.000000	20.060661
2300.000000	18.903440
2290.000000	21.291211
2280.000000	19.995554
2270.000000	19.829623
2260.000000	20.357064
2250.000000	20.169554
2240.000000	22.952647
2230.000000	24.417474
2220.000000	24.668110
2210.000000	24.206026
2200.000000	23.475127
2190.000000	23.569666
2180.000000	23.072688
2170.000000	23.547746
2160.000000	22.454300
2150.000000	21.618982
2140.000000	24.217115
2130.000000	25.644959
2120.000000	25.813604
2110.000000	23.779279
2100.000000	25.720020
2090.000000	26.648073
2080.000000	26.525686
2070.000000	25.695250
2060.000000	23.710780
2050.000000	23.519387
2040.000000	23.402771
2030.000000	23.040320
2020.000000	23.685926
2010.000000	23.699064
2000.000000	22.779579
1990.000000	23.395740
1980.000000	22.044399
1970.000000	21.225144
1960.000000	20.192366
1950.000000	20.161656
1940.000000	19.759794
1930.000000	20.244483
1920.000000	21.714895
1910.000000	23.274691
1900.000000	26.579901
1890.000000	29.733425
1880.000000	32.289557
1870.000000	34.725431
1860.000000	36.232799
1850.000000	35.833618
1840.000000	35.951683
1830.000000	35.564421
1820.000000	35.658331
1810.000000	35.438264
1800.000000	35.253592
1790.000000	34.719815
1780.000000	34.213055
1770.000000	33.803730
1760.000000	33.450198
1750.000000	33.069018
1740.000000	32.651928
1730.000000	31.764620
1720.000000	32.347235
1710.000000	33.673113
1700.000000	34.379937
1690.000000	34.958053
1680.000000	36.263454
1670.000000	37.375496
1660.000000	38.059068
1650.000000	38.620994
1640.000000	38.552677
1630.000000	38.310017
1620.000000	38.049312
1610.000000	37.597807
1600.000000	36.815799
1590.000000	36.278505
1580.000000	35.964947
1570.000000	35.680971
1560.000000	35.484657
1550.000000	35.162660
1540.000000	34.585137
1530.000000	34.087250
1520.000000	33.623541
1510.000000	33.332236
1500.000000	33.193463
1490.000000	33.209245
1480.000000	33.391273
1470.000000	33.499441
1460.000000	33.896381
1450.000000	34.350859
1440.000000	34.731472
1430.000000	35.001943
1420.000000	35.432763
1410.000000	36.787290
1400.000000	39.592805
1390.000000	42.193929
1380.000000	43.649915
1370.000000	44.101702
1360.000000	44.207589
1350.000000	44.267214
1340.000000	44.463523
1330.000000	44.939011
1320.000000	46.145986
1310.000000	47.300448
1300.000000	47.862516
1290.000000	48.058122
1280.000000	47.760964
1270.000000	47.247685
1260.000000	46.911138
1250.000000	46.812981
1240.000000	46.672070
1230.000000	46.387622
1220.000000	46.055065
1210.000000	45.688155
1200.000000	45.385010
1190.000000	45.504661
1180.000000	45.948348
1170.000000	46.446788
1160.000000	47.178157
1150.000000	47.752560
1140.000000	48.354290
1130.000000	48.682092
1120.000000	48.714743
1110.000000	48.804372
1100.000000	48.884009
1090.000000	48.776792
1080.000000	48.555246
1070.000000	48.509939
1060.000000	48.530904
1050.000000	48.526796
1040.000000	48.618799
1030.000000	48.478856
1020.000000	48.401424
1010.000000	48.732811
1000.000000	49.456224
990.000000	49.715286
980.000000	49.744080
970.000000	49.691868
960.000000	49.513234
950.000000	49.544917
940.000000	49.478729
930.000000	49.292581
920.000000	49.107788
910.000000	49.101094
900.000000	49.376680
890.000000	49.371416
880.000000	49.068848
870.000000	48.970713
860.000000	48.739950
850.000000	48.733590
840.000000	49.041868
830.000000	49.317735
820.000000	49.218759
810.000000	49.206789
800.000000	49.457039
790.000000	49.256646
780.000000	49.009910
770.000000	49.033765
760.000000	49.113454
750.000000	49.034639
740.000000	48.930064
730.000000	48.917991
720.000000	48.764809
710.000000	48.647418
700.000000	48.604162
690.000000	48.497548
680.000000	48.321223
670.000000	48.185149
660.000000	48.039927
650.000000	47.753241
640.000000	47.553165
630.000000	47.378767
620.000000	47.056287
610.000000	46.815058
600.000000	46.484000
590.000000	46.271806
580.000000	45.990913
570.000000	45.653845
560.000000	45.413908
550.000000	45.082115
540.000000	44.700813
530.000000	44.293393
520.000000	43.822915
510.000000	43.324007
500.000000	42.747296
490.000000	42.110844
480.000000	41.366570
470.000000	40.602782
460.000000	39.703905
450.000000	38.555592
440.000000	37.367450
430.000000	35.937083
420.000000	34.288669
410.000000	32.611153
400.000000	31.144624
390.000000	30.018172
380.000000	28.709723
370.000000	27.197542
360.000000	25.802947
350.000000	23.982962
340.000000	22.047289
330.000000	20.740766
320.000000	19.297471
310.000000	17.461186
300.000000	15.324000
290.000000	12.269766
280.000000	10.133828
270.000000	9.640724
260.000000	9.513358
250.000000	8.538898
