PE UV       SUBTECH     SPECTRUM    ASCII       PEDS        4.00        
   -1
3S-H10-C018.Sample.Cycle1.Raw.asc
22/03/25
16:48:52.00
22/03/25
16:48:52.00
Administrator

250.000000
1
Lambda 750
750N8071901
PerkinElmer UV WinLab 6.0.4.0738 / 1.61.00 Lambda 900

0
0
3350/servo 860.8/2
0
0
UV/VIS
1
1
1
CommonBeamDepol,150mm sphere / downward view
0
0
0
0
Program
Program
3350/servo 860.8/2
3350/0.2 860.8/0.2
3350/0.2 860.8/0.2
0
1
 
 
 
0
 
860.8
319.2
860.8
Front
100
on
 
 
0
0
0
 
0
 
 
 
0
 
 
0
0
0
0
0
 
 
 
 
0
0


0
0
#HDR
-1
-1
#GR
nm
%R
1.0
0.0
2500.000000
-10.000000
226
8
45.679889
7.853650
#DATA
2500.000000	15.980881
2490.000000	17.102169
2480.000000	15.397184
2470.000000	16.712514
2460.000000	16.113340
2450.000000	16.779852
2440.000000	17.690213
2430.000000	17.633534
2420.000000	17.589413
2410.000000	19.289303
2400.000000	17.928400
2390.000000	18.800177
2380.000000	19.179581
2370.000000	18.655943
2360.000000	17.645979
2350.000000	18.314881
2340.000000	17.535450
2330.000000	18.910746
2320.000000	18.351145
2310.000000	17.792246
2300.000000	17.732923
2290.000000	17.957312
2280.000000	17.449175
2270.000000	18.860814
2260.000000	18.372538
2250.000000	19.057455
2240.000000	20.714598
2230.000000	21.027373
2220.000000	21.519769
2210.000000	21.831380
2200.000000	21.084387
2190.000000	21.094615
2180.000000	20.776972
2170.000000	20.179261
2160.000000	20.346639
2150.000000	21.600852
2140.000000	22.531191
2130.000000	23.165466
2120.000000	23.170045
2110.000000	23.859644
2100.000000	23.142047
2090.000000	23.331836
2080.000000	23.221082
2070.000000	22.591632
2060.000000	22.134438
2050.000000	21.366555
2040.000000	20.644695
2030.000000	21.214979
2020.000000	21.729184
2010.000000	21.678569
2000.000000	21.602443
1990.000000	20.594274
1980.000000	20.011678
1970.000000	19.506607
1960.000000	19.009591
1950.000000	18.594939
1940.000000	18.445316
1930.000000	18.493361
1920.000000	19.393186
1910.000000	21.507709
1900.000000	24.106419
1890.000000	27.119830
1880.000000	29.799900
1870.000000	31.449658
1860.000000	32.198783
1850.000000	32.619488
1840.000000	32.756396
1830.000000	32.515756
1820.000000	32.293990
1810.000000	31.964209
1800.000000	31.622640
1790.000000	31.567279
1780.000000	31.186580
1770.000000	30.716700
1760.000000	30.362926
1750.000000	30.020762
1740.000000	29.651144
1730.000000	29.300454
1720.000000	29.547823
1710.000000	30.332107
1700.000000	30.969328
1690.000000	31.632969
1680.000000	32.641414
1670.000000	33.803821
1660.000000	34.712804
1650.000000	35.000416
1640.000000	34.962944
1630.000000	34.712079
1620.000000	34.372463
1610.000000	33.940795
1600.000000	33.512750
1590.000000	33.102894
1580.000000	32.801388
1570.000000	32.450798
1560.000000	32.183815
1550.000000	31.904972
1540.000000	31.461555
1530.000000	30.894633
1520.000000	30.482577
1510.000000	30.262866
1500.000000	30.190012
1490.000000	30.184170
1480.000000	30.366088
1470.000000	30.607166
1460.000000	30.820293
1450.000000	31.251814
1440.000000	31.811274
1430.000000	32.452019
1420.000000	33.305385
1410.000000	34.624343
1400.000000	36.366669
1390.000000	38.201693
1380.000000	39.419553
1370.000000	40.062116
1360.000000	40.451634
1350.000000	40.748051
1340.000000	40.966466
1330.000000	41.192394
1320.000000	41.620385
1310.000000	42.103077
1300.000000	42.408269
1290.000000	42.545433
1280.000000	42.436619
1270.000000	42.281192
1260.000000	42.247830
1250.000000	42.189085
1240.000000	41.986029
1230.000000	41.630887
1220.000000	41.158590
1210.000000	40.844303
1200.000000	40.702078
1190.000000	40.757137
1180.000000	41.122874
1170.000000	41.696635
1160.000000	42.420994
1150.000000	43.013261
1140.000000	43.440213
1130.000000	43.754366
1120.000000	43.943113
1110.000000	43.993581
1100.000000	44.057327
1090.000000	44.091555
1080.000000	44.082453
1070.000000	44.077586
1060.000000	44.062942
1050.000000	44.041359
1040.000000	44.064979
1030.000000	44.118772
1020.000000	44.236945
1010.000000	44.534348
1000.000000	44.830410
990.000000	44.973983
980.000000	44.994524
970.000000	44.996625
960.000000	45.122929
950.000000	45.228293
940.000000	45.235371
930.000000	45.204520
920.000000	45.154871
910.000000	45.196459
900.000000	45.403444
890.000000	45.522931
880.000000	45.618480
870.000000	45.679889
860.000000	45.508968
850.000000	45.278847
840.000000	44.992331
830.000000	45.011210
820.000000	44.912454
810.000000	44.959325
800.000000	44.970925
790.000000	44.935600
780.000000	44.961779
770.000000	44.796303
760.000000	44.815422
750.000000	44.742842
740.000000	44.770110
730.000000	44.712732
720.000000	44.603615
710.000000	44.549327
700.000000	44.448956
690.000000	44.318514
680.000000	44.146249
670.000000	44.043334
660.000000	43.947740
650.000000	43.786873
640.000000	43.556548
630.000000	43.382369
620.000000	43.187951
610.000000	42.982464
600.000000	42.794214
590.000000	42.623959
580.000000	42.394200
570.000000	42.150384
560.000000	41.925325
550.000000	41.619858
540.000000	41.276362
530.000000	40.872090
520.000000	40.372750
510.000000	39.883057
500.000000	39.355189
490.000000	38.742352
480.000000	38.006002
470.000000	37.355137
460.000000	36.552372
450.000000	35.501211
440.000000	34.332912
430.000000	33.035212
420.000000	31.488138
410.000000	29.977889
400.000000	28.660275
390.000000	27.491214
380.000000	26.197048
370.000000	24.857234
360.000000	23.535628
350.000000	22.194488
340.000000	20.731395
330.000000	18.986861
320.000000	17.494270
310.000000	15.926792
300.000000	13.784014
290.000000	11.132108
280.000000	9.328112
270.000000	8.901052
260.000000	8.694055
250.000000	7.853650
