PE UV       SUBTECH     SPECTRUM    ASCII       PEDS        4.00        
   -1
3S-H10-F015.Sample.Raw.asc
22/03/29
14:59:03.00
22/03/29
14:59:03.00
Administrator

250.000000
1
Lambda 750
750N8071901
PerkinElmer UV WinLab 6.0.4.0738 / 1.61.00 Lambda 900

0
0
3350/servo 860.8/2
0
0
UV/VIS
1
1
1
CommonBeamDepol,150mm sphere / downward view
0
0
0
0
Program
Program
3350/servo 860.8/2
3350/0.2 860.8/0.2
3350/0.2 860.8/0.2
0
1
 
 
 
0
 
860.8
319.2
860.8
Front
100
on
 
 
0
0
0
 
0
 
 
 
0
 
 
0
0
0
0
0
 
 
 
 
0
0


0
0
#HDR
-1
-1
#GR
nm
%R
1.0
0.0
2500.000000
-10.000000
226
8
44.179024
4.495182
#DATA
2500.000000	4.495182
2490.000000	5.961213
2480.000000	6.949329
2470.000000	6.385573
2460.000000	5.903637
2450.000000	6.112370
2440.000000	7.705231
2430.000000	5.988592
2420.000000	8.758028
2410.000000	8.682599
2400.000000	9.032752
2390.000000	8.218124
2380.000000	7.547935
2370.000000	7.946204
2360.000000	6.561771
2350.000000	7.977154
2340.000000	6.966016
2330.000000	8.640899
2320.000000	7.826460
2310.000000	8.125423
2300.000000	7.374909
2290.000000	7.181584
2280.000000	7.723354
2270.000000	7.748704
2260.000000	7.623118
2250.000000	8.671579
2240.000000	9.900691
2230.000000	10.078135
2220.000000	11.209743
2210.000000	10.361213
2200.000000	10.679360
2190.000000	9.878010
2180.000000	10.229634
2170.000000	9.173383
2160.000000	10.071336
2150.000000	11.110628
2140.000000	10.956965
2130.000000	11.196567
2120.000000	12.417628
2110.000000	12.615736
2100.000000	12.283978
2090.000000	12.119897
2080.000000	12.623791
2070.000000	11.979516
2060.000000	11.408171
2050.000000	10.251940
2040.000000	10.035994
2030.000000	10.224570
2020.000000	10.649823
2010.000000	10.754241
2000.000000	10.489239
1990.000000	10.127801
1980.000000	9.416384
1970.000000	8.935708
1960.000000	8.424307
1950.000000	7.920616
1940.000000	7.995886
1930.000000	8.337232
1920.000000	9.121031
1910.000000	10.771445
1900.000000	13.726575
1890.000000	17.366268
1880.000000	20.670068
1870.000000	23.382867
1860.000000	24.711769
1850.000000	25.216334
1840.000000	25.162458
1830.000000	24.854150
1820.000000	24.457741
1810.000000	24.146747
1800.000000	23.621343
1790.000000	23.315096
1780.000000	22.938366
1770.000000	22.275791
1760.000000	21.754168
1750.000000	21.417535
1740.000000	20.815924
1730.000000	20.295112
1720.000000	20.620139
1710.000000	21.656996
1700.000000	22.580921
1690.000000	23.526904
1680.000000	25.070763
1670.000000	26.807567
1660.000000	28.090273
1650.000000	28.593441
1640.000000	28.538498
1630.000000	28.140647
1620.000000	27.604025
1610.000000	26.986162
1600.000000	26.339450
1590.000000	25.789256
1580.000000	25.233732
1570.000000	24.812275
1560.000000	24.444249
1550.000000	24.007060
1540.000000	23.340088
1530.000000	22.573259
1520.000000	22.007300
1510.000000	21.714977
1500.000000	21.523967
1490.000000	21.488755
1480.000000	21.713800
1470.000000	21.979848
1460.000000	22.321959
1450.000000	22.867584
1440.000000	23.688036
1430.000000	24.793115
1420.000000	26.255322
1410.000000	28.213506
1400.000000	30.680750
1390.000000	33.101137
1380.000000	34.867468
1370.000000	35.944999
1360.000000	36.717812
1350.000000	37.343892
1340.000000	37.721301
1330.000000	37.869021
1320.000000	38.130255
1310.000000	38.722272
1300.000000	39.284772
1290.000000	39.539165
1280.000000	39.475171
1270.000000	39.351500
1260.000000	39.235607
1250.000000	39.081743
1240.000000	38.786744
1230.000000	38.264134
1220.000000	37.744108
1210.000000	37.170617
1200.000000	36.917581
1190.000000	37.019611
1180.000000	37.527609
1170.000000	38.438057
1160.000000	39.437914
1150.000000	40.322515
1140.000000	40.981226
1130.000000	41.492101
1120.000000	41.867544
1110.000000	41.937031
1100.000000	41.990546
1090.000000	41.929646
1080.000000	41.891178
1070.000000	41.898603
1060.000000	41.908097
1050.000000	41.912307
1040.000000	41.933063
1030.000000	41.969356
1020.000000	42.135218
1010.000000	42.529691
1000.000000	42.879970
990.000000	42.993293
980.000000	43.061699
970.000000	43.213851
960.000000	43.297215
950.000000	43.382504
940.000000	43.411761
930.000000	43.326894
920.000000	43.352488
910.000000	43.454075
900.000000	43.621225
890.000000	44.009344
880.000000	44.151071
870.000000	44.179024
860.000000	44.130562
850.000000	43.432654
840.000000	42.736242
830.000000	42.716448
820.000000	42.746077
810.000000	42.742718
800.000000	42.745563
790.000000	42.638228
780.000000	42.617160
770.000000	42.570482
760.000000	42.391810
750.000000	42.361487
740.000000	42.272720
730.000000	42.122665
720.000000	41.958400
710.000000	41.828017
700.000000	41.694845
690.000000	41.454119
680.000000	41.217002
670.000000	40.969020
660.000000	40.648802
650.000000	40.362754
640.000000	39.994703
630.000000	39.620808
620.000000	39.245072
610.000000	38.832726
600.000000	38.472247
590.000000	38.117732
580.000000	37.712975
570.000000	37.285320
560.000000	36.832899
550.000000	36.333115
540.000000	35.727219
530.000000	35.043562
520.000000	34.247317
510.000000	33.334495
500.000000	32.340980
490.000000	31.306932
480.000000	30.226409
470.000000	28.974817
460.000000	27.480389
450.000000	25.691423
440.000000	23.674106
430.000000	21.423445
420.000000	19.160992
410.000000	17.459382
400.000000	16.455102
390.000000	15.544931
380.000000	14.492526
370.000000	13.542313
360.000000	12.778898
350.000000	11.974093
340.000000	11.225396
330.000000	10.387948
320.000000	9.469127
310.000000	9.172592
300.000000	8.746070
290.000000	8.030223
280.000000	7.650137
270.000000	7.514661
260.000000	7.527432
250.000000	7.534524
