PE UV       SUBTECH     SPECTRUM    ASCII       PEDS        4.00        
   -1
3S-H10-F029.Sample.Raw.asc
22/03/29
15:41:06.00
22/03/29
15:41:06.00
Administrator

250.000000
1
Lambda 750
750N8071901
PerkinElmer UV WinLab 6.0.4.0738 / 1.61.00 Lambda 900

0
0
3350/servo 860.8/2
0
0
UV/VIS
1
1
1
CommonBeamDepol,150mm sphere / downward view
0
0
0
0
Program
Program
3350/servo 860.8/2
3350/0.2 860.8/0.2
3350/0.2 860.8/0.2
0
1
 
 
 
0
 
860.8
319.2
860.8
Front
100
on
 
 
0
0
0
 
0
 
 
 
0
 
 
0
0
0
0
0
 
 
 
 
0
0


0
0
#HDR
-1
-1
#GR
nm
%R
1.0
0.0
2500.000000
-10.000000
226
8
43.530412
3.946904
#DATA
2500.000000	6.656858
2490.000000	5.849362
2480.000000	5.609159
2470.000000	5.940848
2460.000000	3.946904
2450.000000	6.031608
2440.000000	6.194570
2430.000000	7.407877
2420.000000	7.826872
2410.000000	7.984029
2400.000000	8.569114
2390.000000	6.054436
2380.000000	7.723410
2370.000000	5.981002
2360.000000	7.045851
2350.000000	8.894589
2340.000000	6.737990
2330.000000	8.297776
2320.000000	7.016723
2310.000000	8.008259
2300.000000	6.694141
2290.000000	6.858262
2280.000000	7.661437
2270.000000	8.293541
2260.000000	7.687611
2250.000000	8.546481
2240.000000	9.291510
2230.000000	9.919972
2220.000000	10.543574
2210.000000	10.213999
2200.000000	9.578527
2190.000000	9.401719
2180.000000	9.946621
2170.000000	9.288287
2160.000000	9.648339
2150.000000	10.611734
2140.000000	10.218914
2130.000000	10.931703
2120.000000	12.182396
2110.000000	12.240332
2100.000000	12.248559
2090.000000	11.824037
2080.000000	12.080744
2070.000000	11.740478
2060.000000	10.960976
2050.000000	9.942528
2040.000000	10.144551
2030.000000	9.882963
2020.000000	10.365508
2010.000000	10.434536
2000.000000	10.157493
1990.000000	9.614649
1980.000000	8.990017
1970.000000	8.658423
1960.000000	8.090847
1950.000000	7.744581
1940.000000	7.720972
1930.000000	8.009057
1920.000000	8.963251
1910.000000	10.475278
1900.000000	13.046736
1890.000000	16.692311
1880.000000	20.097202
1870.000000	22.739434
1860.000000	23.961907
1850.000000	24.487389
1840.000000	24.495809
1830.000000	24.209426
1820.000000	23.667325
1810.000000	23.320489
1800.000000	22.915424
1790.000000	22.536922
1780.000000	22.179140
1770.000000	21.458714
1760.000000	20.902425
1750.000000	20.419382
1740.000000	20.022503
1730.000000	19.443684
1720.000000	19.589434
1710.000000	20.733048
1700.000000	21.779172
1690.000000	22.770289
1680.000000	24.334873
1670.000000	26.192796
1660.000000	27.392803
1650.000000	27.991232
1640.000000	27.873348
1630.000000	27.547219
1620.000000	27.012606
1610.000000	26.379094
1600.000000	25.779825
1590.000000	25.204012
1580.000000	24.713786
1570.000000	24.270176
1560.000000	23.893600
1550.000000	23.432419
1540.000000	22.789328
1530.000000	22.010158
1520.000000	21.457846
1510.000000	21.196935
1500.000000	20.995777
1490.000000	20.957802
1480.000000	21.185653
1470.000000	21.382658
1460.000000	21.670692
1450.000000	22.231031
1440.000000	23.028212
1430.000000	24.096093
1420.000000	25.518116
1410.000000	27.479314
1400.000000	29.897374
1390.000000	32.288449
1380.000000	34.100286
1370.000000	35.188972
1360.000000	36.011386
1350.000000	36.653680
1340.000000	37.033906
1330.000000	37.147929
1320.000000	37.457114
1310.000000	38.097505
1300.000000	38.669399
1290.000000	38.949389
1280.000000	38.945197
1270.000000	38.804442
1260.000000	38.653328
1250.000000	38.469847
1240.000000	38.126056
1230.000000	37.599451
1220.000000	36.963053
1210.000000	36.391113
1200.000000	36.139314
1190.000000	36.300025
1180.000000	36.837573
1170.000000	37.764256
1160.000000	38.829504
1150.000000	39.712229
1140.000000	40.407390
1130.000000	40.937270
1120.000000	41.288013
1110.000000	41.364361
1100.000000	41.431447
1090.000000	41.375184
1080.000000	41.335002
1070.000000	41.320640
1060.000000	41.328079
1050.000000	41.333924
1040.000000	41.310567
1030.000000	41.363528
1020.000000	41.484669
1010.000000	41.862049
1000.000000	42.230508
990.000000	42.326359
980.000000	42.399986
970.000000	42.566853
960.000000	42.679742
950.000000	42.810454
940.000000	42.767084
930.000000	42.688998
920.000000	42.646694
910.000000	42.745641
900.000000	42.999273
890.000000	43.308998
880.000000	43.197505
870.000000	43.286597
860.000000	43.530412
850.000000	42.811505
840.000000	41.756397
830.000000	41.708002
820.000000	41.701592
810.000000	41.673929
800.000000	41.661794
790.000000	41.631575
780.000000	41.589977
770.000000	41.622688
760.000000	41.535834
750.000000	41.457643
740.000000	41.350923
730.000000	41.248977
720.000000	41.086772
710.000000	40.986336
700.000000	40.864598
690.000000	40.622538
680.000000	40.434729
670.000000	40.150980
660.000000	39.885000
650.000000	39.611769
640.000000	39.252023
630.000000	38.926198
620.000000	38.557578
610.000000	38.168464
600.000000	37.828123
590.000000	37.505013
580.000000	37.127719
570.000000	36.680305
560.000000	36.266321
550.000000	35.847730
540.000000	35.246816
530.000000	34.559658
520.000000	33.764786
510.000000	32.915946
500.000000	31.956892
490.000000	30.867385
480.000000	29.766036
470.000000	28.556432
460.000000	27.027795
450.000000	25.237191
440.000000	23.224052
430.000000	20.954574
420.000000	18.699875
410.000000	16.939794
400.000000	15.834524
390.000000	14.886904
380.000000	13.828298
370.000000	12.788465
360.000000	11.943250
350.000000	11.113069
340.000000	10.370435
330.000000	9.754788
320.000000	9.108504
310.000000	8.468366
300.000000	7.823164
290.000000	7.293513
280.000000	6.993832
270.000000	6.816404
260.000000	6.858319
250.000000	6.935002
