PE UV       SUBTECH     SPECTRUM    ASCII       PEDS        4.00        
   -1
3S-N10-F001.Sample.Raw.asc
22/03/03
16:35:55.00
22/03/03
16:35:55.00
Administrator

250.000000
1
Lambda 750
750N8071901
PerkinElmer UV WinLab 6.0.4.0738 / 1.61.00 Lambda 900

0
0
3350/servo 860.8/2
0
0
UV/VIS
1
1
1
CommonBeamDepol,150mm sphere / downward view
0
0
0
0
Program
Program
3350/servo 860.8/2
3350/0.2 860.8/0.2
3350/0.2 860.8/0.2
0
1
 
 
 
0
 
860.8
319.2
860.8
Front
100
on
 
 
0
0
0
 
0
 
 
 
0
 
 
0
0
0
0
0
 
 
 
 
0
0


0
0
#HDR
-1
-1
#GR
nm
%R
1.0
0.0
2500.000000
-10.000000
226
8
69.597703
10.680265
#DATA
2500.000000	11.938554
2490.000000	11.551950
2480.000000	12.994350
2470.000000	18.202488
2460.000000	21.004956
2450.000000	15.845969
2440.000000	18.528221
2430.000000	18.353437
2420.000000	24.429975
2410.000000	14.866177
2400.000000	18.298841
2390.000000	17.004037
2380.000000	14.889939
2370.000000	16.945636
2360.000000	21.905833
2350.000000	19.773021
2340.000000	18.014192
2330.000000	22.130878
2320.000000	17.539119
2310.000000	22.760328
2300.000000	19.046594
2290.000000	16.814114
2280.000000	19.014837
2270.000000	17.026709
2260.000000	19.404772
2250.000000	20.533995
2240.000000	22.933404
2230.000000	21.070987
2220.000000	23.826231
2210.000000	21.542124
2200.000000	21.001525
2190.000000	19.860096
2180.000000	19.573860
2170.000000	21.651632
2160.000000	20.957050
2150.000000	22.120148
2140.000000	23.054632
2130.000000	23.523801
2120.000000	25.680865
2110.000000	24.997851
2100.000000	26.349602
2090.000000	23.456083
2080.000000	23.675150
2070.000000	24.322340
2060.000000	22.521963
2050.000000	22.197884
2040.000000	20.747024
2030.000000	21.531858
2020.000000	21.711425
2010.000000	22.287009
2000.000000	21.902876
1990.000000	20.232123
1980.000000	19.749545
1970.000000	18.182217
1960.000000	17.814499
1950.000000	16.768281
1940.000000	16.186979
1930.000000	16.862093
1920.000000	19.196324
1910.000000	21.504720
1900.000000	26.716691
1890.000000	32.574122
1880.000000	37.538146
1870.000000	42.826772
1860.000000	45.096710
1850.000000	45.675965
1840.000000	45.835596
1830.000000	45.011168
1820.000000	45.027632
1810.000000	44.854471
1800.000000	43.845149
1790.000000	43.206478
1780.000000	42.304989
1770.000000	41.801151
1760.000000	41.058249
1750.000000	40.435655
1740.000000	39.658754
1730.000000	39.260493
1720.000000	40.084797
1710.000000	41.639363
1700.000000	42.087870
1690.000000	43.263206
1680.000000	45.252881
1670.000000	47.552412
1660.000000	49.129990
1650.000000	50.083550
1640.000000	49.948568
1630.000000	49.298973
1620.000000	48.605560
1610.000000	47.484937
1600.000000	46.381234
1590.000000	45.287903
1580.000000	44.314680
1570.000000	43.900554
1560.000000	43.270543
1550.000000	42.765005
1540.000000	42.052987
1530.000000	40.871210
1520.000000	39.780702
1510.000000	38.974999
1500.000000	38.739454
1490.000000	38.653176
1480.000000	39.104669
1470.000000	39.620550
1460.000000	40.291524
1450.000000	41.123928
1440.000000	42.361535
1430.000000	43.699361
1420.000000	45.470583
1410.000000	48.162534
1400.000000	52.337801
1390.000000	56.782265
1380.000000	59.736909
1370.000000	60.651222
1360.000000	61.518848
1350.000000	62.352495
1340.000000	63.069136
1330.000000	64.049681
1320.000000	65.580264
1310.000000	66.500319
1300.000000	66.615641
1290.000000	66.642891
1280.000000	66.588855
1270.000000	66.460812
1260.000000	66.444565
1250.000000	66.073872
1240.000000	65.541604
1230.000000	65.240326
1220.000000	64.993413
1210.000000	64.600767
1200.000000	63.896513
1190.000000	63.523907
1180.000000	63.875274
1170.000000	64.900706
1160.000000	66.151121
1150.000000	67.375996
1140.000000	68.593540
1130.000000	69.088776
1120.000000	69.201731
1110.000000	69.077864
1100.000000	69.177455
1090.000000	69.324283
1080.000000	69.328322
1070.000000	69.243002
1060.000000	69.187764
1050.000000	68.949615
1040.000000	68.757665
1030.000000	68.607261
1020.000000	68.642221
1010.000000	68.943285
1000.000000	69.322179
990.000000	69.315019
980.000000	69.167243
970.000000	69.295143
960.000000	69.417496
950.000000	69.507776
940.000000	69.454356
930.000000	69.162092
920.000000	68.929514
910.000000	68.934131
900.000000	69.201154
890.000000	69.597703
880.000000	69.242959
870.000000	68.763051
860.000000	68.349046
850.000000	68.673701
840.000000	68.852750
830.000000	69.126103
820.000000	68.821347
810.000000	68.560796
800.000000	68.747951
790.000000	68.782908
780.000000	68.643905
770.000000	68.331539
760.000000	68.321905
750.000000	68.270950
740.000000	68.097999
730.000000	67.876173
720.000000	67.738589
710.000000	67.571034
700.000000	67.298498
690.000000	67.098226
680.000000	66.720093
670.000000	66.381786
660.000000	66.163851
650.000000	65.767400
640.000000	65.182538
630.000000	64.711952
620.000000	64.273011
610.000000	63.647124
600.000000	63.070537
590.000000	62.563363
580.000000	61.933367
570.000000	61.284716
560.000000	60.669236
550.000000	59.964023
540.000000	59.247313
530.000000	58.364307
520.000000	57.514823
510.000000	56.523008
500.000000	55.522811
490.000000	54.476626
480.000000	52.884069
470.000000	50.816652
460.000000	48.560781
450.000000	46.067782
440.000000	43.029180
430.000000	39.404932
420.000000	35.777643
410.000000	32.939457
400.000000	31.491086
390.000000	30.383724
380.000000	28.849511
370.000000	27.275849
360.000000	25.425256
350.000000	23.459648
340.000000	21.563742
330.000000	19.683228
320.000000	17.859426
310.000000	15.956559
300.000000	13.459046
290.000000	11.555767
280.000000	10.836116
270.000000	10.680265
260.000000	10.753215
250.000000	10.763062
