PE UV       SUBTECH     SPECTRUM    ASCII       PEDS        4.00        
   -1
3S-N10-F027.Sample.Raw.asc
22/03/30
17:03:12.00
22/03/30
17:03:12.00
Administrator

250.000000
1
Lambda 750
750N8071901
PerkinElmer UV WinLab 6.0.4.0738 / 1.61.00 Lambda 900

0
0
3350/servo 860.8/2
0
0
UV/VIS
1
1
1
CommonBeamDepol,150mm sphere / downward view
0
0
0
0
Program
Program
3350/servo 860.8/2
3350/0.2 860.8/0.2
3350/0.2 860.8/0.2
0
1
 
 
 
0
 
860.8
319.2
860.8
Front
100
on
 
 
0
0
0
 
0
 
 
 
0
 
 
0
0
0
0
0
 
 
 
 
0
0


0
0
#HDR
-1
-1
#GR
nm
%R
1.0
0.0
2500.000000
-10.000000
226
8
64.156359
9.278962
#DATA
2500.000000	9.278962
2490.000000	14.913885
2480.000000	11.596744
2470.000000	11.235446
2460.000000	10.007122
2450.000000	15.118330
2440.000000	15.157182
2430.000000	12.754320
2420.000000	15.118590
2410.000000	13.164382
2400.000000	12.773589
2390.000000	14.921690
2380.000000	13.388551
2370.000000	14.630156
2360.000000	16.840357
2350.000000	16.146559
2340.000000	15.523644
2330.000000	13.497975
2320.000000	14.910374
2310.000000	14.250553
2300.000000	13.779468
2290.000000	14.742811
2280.000000	13.949269
2270.000000	13.347584
2260.000000	14.254759
2250.000000	16.030723
2240.000000	17.137801
2230.000000	18.433826
2220.000000	18.946254
2210.000000	18.220752
2200.000000	17.852183
2190.000000	17.246807
2180.000000	16.120854
2170.000000	15.873591
2160.000000	16.356998
2150.000000	17.982375
2140.000000	18.851126
2130.000000	19.434371
2120.000000	20.217806
2110.000000	20.383325
2100.000000	20.960940
2090.000000	20.383701
2080.000000	20.640733
2070.000000	19.846342
2060.000000	18.535263
2050.000000	17.329273
2040.000000	16.549247
2030.000000	17.024374
2020.000000	17.981163
2010.000000	18.020760
2000.000000	17.607791
1990.000000	16.937022
1980.000000	15.956251
1970.000000	14.896503
1960.000000	13.907222
1950.000000	13.482813
1940.000000	13.163151
1930.000000	13.878835
1920.000000	15.513244
1910.000000	18.098842
1900.000000	22.713477
1890.000000	28.134832
1880.000000	33.586737
1870.000000	37.610361
1860.000000	39.847258
1850.000000	40.495252
1840.000000	40.561892
1830.000000	39.975819
1820.000000	39.589388
1810.000000	39.199078
1800.000000	38.612985
1790.000000	38.190096
1780.000000	37.603853
1770.000000	36.971819
1760.000000	36.182581
1750.000000	35.581096
1740.000000	34.996532
1730.000000	34.483871
1720.000000	35.108097
1710.000000	36.391874
1700.000000	37.160884
1690.000000	37.893061
1680.000000	39.760327
1670.000000	42.182138
1660.000000	43.898651
1650.000000	44.497694
1640.000000	44.293423
1630.000000	43.783575
1620.000000	43.032744
1610.000000	42.091767
1600.000000	41.054800
1590.000000	40.150081
1580.000000	39.458348
1570.000000	38.715016
1560.000000	38.200022
1550.000000	37.724017
1540.000000	36.775059
1530.000000	35.648956
1520.000000	34.804996
1510.000000	34.277708
1500.000000	33.944145
1490.000000	33.959628
1480.000000	34.334790
1470.000000	34.831388
1460.000000	35.398957
1450.000000	36.223820
1440.000000	37.423029
1430.000000	39.140841
1420.000000	41.609244
1410.000000	44.744243
1400.000000	48.056000
1390.000000	51.111404
1380.000000	53.249397
1370.000000	54.440938
1360.000000	55.452074
1350.000000	56.444001
1340.000000	57.223409
1330.000000	57.833775
1320.000000	58.577131
1310.000000	59.550823
1300.000000	60.179240
1290.000000	60.437517
1280.000000	60.406013
1270.000000	60.250108
1260.000000	60.106514
1250.000000	59.888714
1240.000000	59.659070
1230.000000	59.282745
1220.000000	58.873793
1210.000000	58.293891
1200.000000	57.729186
1190.000000	57.553027
1180.000000	57.978751
1170.000000	58.953845
1160.000000	60.219803
1150.000000	61.326318
1140.000000	62.087181
1130.000000	62.694323
1120.000000	63.028944
1110.000000	63.118950
1100.000000	63.193961
1090.000000	63.201961
1080.000000	63.151227
1070.000000	63.030038
1060.000000	62.872193
1050.000000	62.770615
1040.000000	62.719588
1030.000000	62.623540
1020.000000	62.616130
1010.000000	62.775874
1000.000000	63.012755
990.000000	63.141242
980.000000	63.215540
970.000000	63.322540
960.000000	63.510452
950.000000	63.623441
940.000000	63.662095
930.000000	63.685661
920.000000	63.702467
910.000000	63.763533
900.000000	63.817585
890.000000	63.947757
880.000000	64.032206
870.000000	64.156359
860.000000	64.025500
850.000000	63.989379
840.000000	63.601140
830.000000	63.633605
820.000000	63.580792
810.000000	63.516960
800.000000	63.488119
790.000000	63.469534
780.000000	63.375304
770.000000	63.252813
760.000000	63.223830
750.000000	63.188880
740.000000	63.071124
730.000000	62.913128
720.000000	62.818341
710.000000	62.738497
700.000000	62.434664
690.000000	62.171062
680.000000	61.936647
670.000000	61.637557
660.000000	61.279098
650.000000	60.928850
640.000000	60.535578
630.000000	60.016158
620.000000	59.503996
610.000000	58.985454
600.000000	58.561040
590.000000	58.102393
580.000000	57.544165
570.000000	57.041841
560.000000	56.517551
550.000000	55.970770
540.000000	55.310301
530.000000	54.632581
520.000000	53.952922
510.000000	53.137432
500.000000	52.112097
490.000000	50.804198
480.000000	49.297245
470.000000	47.498049
460.000000	45.402587
450.000000	42.867394
440.000000	39.884640
430.000000	36.522010
420.000000	33.069383
410.000000	30.447300
400.000000	29.052390
390.000000	27.938024
380.000000	26.513591
370.000000	24.779433
360.000000	22.927803
350.000000	21.192059
340.000000	19.584052
330.000000	17.833309
320.000000	16.375271
310.000000	14.802601
300.000000	12.787636
290.000000	10.677076
280.000000	9.871109
270.000000	9.671644
260.000000	9.740777
250.000000	9.818221
