PE UV       SUBTECH     SPECTRUM    ASCII       PEDS        4.00        
   -1
3S-N10-F016.Sample.Raw.asc
22/03/30
16:31:18.00
22/03/30
16:31:18.00
Administrator

250.000000
1
Lambda 750
750N8071901
PerkinElmer UV WinLab 6.0.4.0738 / 1.61.00 Lambda 900

0
0
3350/servo 860.8/2
0
0
UV/VIS
1
1
1
CommonBeamDepol,150mm sphere / downward view
0
0
0
0
Program
Program
3350/servo 860.8/2
3350/0.2 860.8/0.2
3350/0.2 860.8/0.2
0
1
 
 
 
0
 
860.8
319.2
860.8
Front
100
on
 
 
0
0
0
 
0
 
 
 
0
 
 
0
0
0
0
0
 
 
 
 
0
0


0
0
#HDR
-1
-1
#GR
nm
%R
1.0
0.0
2500.000000
-10.000000
226
8
62.984673
9.412730
#DATA
2500.000000	9.412730
2490.000000	11.504612
2480.000000	10.532419
2470.000000	13.242349
2460.000000	12.377281
2450.000000	12.033380
2440.000000	14.114501
2430.000000	13.858502
2420.000000	12.603813
2410.000000	12.976354
2400.000000	12.540443
2390.000000	14.327567
2380.000000	12.845598
2370.000000	14.229554
2360.000000	15.595889
2350.000000	15.222083
2340.000000	14.062173
2330.000000	14.705664
2320.000000	13.822409
2310.000000	14.276047
2300.000000	13.281571
2290.000000	14.412572
2280.000000	14.108842
2270.000000	12.707961
2260.000000	13.392589
2250.000000	15.619191
2240.000000	16.514425
2230.000000	17.685974
2220.000000	18.151598
2210.000000	17.797270
2200.000000	17.282829
2190.000000	16.603762
2180.000000	16.106450
2170.000000	15.616942
2160.000000	16.811899
2150.000000	17.227277
2140.000000	17.938629
2130.000000	18.812685
2120.000000	19.328533
2110.000000	19.749228
2100.000000	20.150934
2090.000000	19.609718
2080.000000	20.415680
2070.000000	19.146705
2060.000000	18.108304
2050.000000	17.242582
2040.000000	16.434614
2030.000000	16.885491
2020.000000	17.485116
2010.000000	17.586055
2000.000000	17.189994
1990.000000	16.597954
1980.000000	15.403836
1970.000000	14.622773
1960.000000	13.619889
1950.000000	13.186610
1940.000000	12.973401
1930.000000	13.837783
1920.000000	15.174937
1910.000000	17.714597
1900.000000	21.914662
1890.000000	27.244865
1880.000000	32.663864
1870.000000	36.532471
1860.000000	38.748544
1850.000000	39.361058
1840.000000	39.472304
1830.000000	38.994978
1820.000000	38.433838
1810.000000	38.068760
1800.000000	37.488365
1790.000000	36.969475
1780.000000	36.502922
1770.000000	35.831898
1760.000000	35.145891
1750.000000	34.496634
1740.000000	33.862610
1730.000000	33.419967
1720.000000	34.078553
1710.000000	35.299807
1700.000000	36.181388
1690.000000	36.809152
1680.000000	38.628527
1670.000000	41.002922
1660.000000	42.717977
1650.000000	43.310646
1640.000000	43.134313
1630.000000	42.543993
1620.000000	41.891047
1610.000000	40.960783
1600.000000	40.021922
1590.000000	39.052745
1580.000000	38.324832
1570.000000	37.592768
1560.000000	37.008219
1550.000000	36.643352
1540.000000	35.791651
1530.000000	34.640459
1520.000000	33.831836
1510.000000	33.322679
1500.000000	32.994626
1490.000000	32.963920
1480.000000	33.312184
1470.000000	33.795456
1460.000000	34.356342
1450.000000	35.182016
1440.000000	36.381307
1430.000000	38.071814
1420.000000	40.451343
1410.000000	43.557990
1400.000000	46.830470
1390.000000	49.847389
1380.000000	51.976258
1370.000000	53.156307
1360.000000	54.166886
1350.000000	55.157138
1340.000000	55.934070
1330.000000	56.514032
1320.000000	57.208519
1310.000000	58.195006
1300.000000	58.859418
1290.000000	59.108053
1280.000000	59.100490
1270.000000	58.980652
1260.000000	58.863691
1250.000000	58.664043
1240.000000	58.398499
1230.000000	58.023111
1220.000000	57.598153
1210.000000	56.992762
1200.000000	56.461555
1190.000000	56.216212
1180.000000	56.660494
1170.000000	57.626909
1160.000000	58.881337
1150.000000	60.026308
1140.000000	60.878664
1130.000000	61.410289
1120.000000	61.698380
1110.000000	61.816730
1100.000000	61.893319
1090.000000	61.964582
1080.000000	61.866048
1070.000000	61.697578
1060.000000	61.587633
1050.000000	61.455429
1040.000000	61.318615
1030.000000	61.253212
1020.000000	61.279838
1010.000000	61.478789
1000.000000	61.744188
990.000000	61.902170
980.000000	61.945667
970.000000	62.031287
960.000000	62.229343
950.000000	62.355917
940.000000	62.408393
930.000000	62.410533
920.000000	62.350982
910.000000	62.507504
900.000000	62.640653
890.000000	62.801206
880.000000	62.984673
870.000000	62.959165
860.000000	62.967572
850.000000	62.727195
840.000000	62.161293
830.000000	62.087076
820.000000	62.213105
810.000000	62.125831
800.000000	62.126489
790.000000	62.145032
780.000000	62.072710
770.000000	61.916461
760.000000	61.811611
750.000000	61.783647
740.000000	61.630733
730.000000	61.457348
720.000000	61.340020
710.000000	61.210846
700.000000	60.958624
690.000000	60.718599
680.000000	60.428503
670.000000	60.044407
660.000000	59.700130
650.000000	59.313267
640.000000	58.795323
630.000000	58.164779
620.000000	57.563789
610.000000	57.027937
600.000000	56.530655
590.000000	56.006501
580.000000	55.367927
570.000000	54.857755
560.000000	54.373740
550.000000	53.798064
540.000000	53.124087
530.000000	52.421762
520.000000	51.706009
510.000000	50.818973
500.000000	49.715735
490.000000	48.349091
480.000000	46.729271
470.000000	44.848586
460.000000	42.714648
450.000000	40.178077
440.000000	37.159057
430.000000	33.790164
420.000000	30.326802
410.000000	27.748282
400.000000	26.438502
390.000000	25.541893
380.000000	24.372010
370.000000	22.877042
360.000000	21.163429
350.000000	19.723040
340.000000	18.456926
330.000000	16.979352
320.000000	15.772985
310.000000	14.442388
300.000000	12.243848
290.000000	10.452714
280.000000	9.717008
270.000000	9.558159
260.000000	9.652237
250.000000	9.738774
