PE UV       SUBTECH     SPECTRUM    ASCII       PEDS        4.00        
   -1
3S-N10-C003.Sample.Raw.asc
22/03/03
16:07:05.00
22/03/03
16:07:05.00
Administrator

250.000000
1
Lambda 750
750N8071901
PerkinElmer UV WinLab 6.0.4.0738 / 1.61.00 Lambda 900

0
0
3350/servo 860.8/2
0
0
UV/VIS
1
1
1
CommonBeamDepol,150mm sphere / downward view
0
0
0
0
Program
Program
3350/servo 860.8/2
3350/0.2 860.8/0.2
3350/0.2 860.8/0.2
0
1
 
 
 
0
 
860.8
319.2
860.8
Front
100
on
 
 
0
0
0
 
0
 
 
 
0
 
 
0
0
0
0
0
 
 
 
 
0
0


0
0
#HDR
-1
-1
#GR
nm
%R
1.0
0.0
2500.000000
-10.000000
226
8
67.728367
17.126787
#DATA
2500.000000	29.322499
2490.000000	30.043609
2480.000000	28.734253
2470.000000	36.388531
2460.000000	35.565329
2450.000000	29.940506
2440.000000	38.239994
2430.000000	37.213124
2420.000000	40.460048
2410.000000	33.666855
2400.000000	39.627262
2390.000000	38.370642
2380.000000	36.695202
2370.000000	39.967102
2360.000000	35.958463
2350.000000	37.227277
2340.000000	33.625714
2330.000000	36.857930
2320.000000	34.027126
2310.000000	40.810590
2300.000000	35.606882
2290.000000	36.707304
2280.000000	35.668514
2270.000000	36.726456
2260.000000	33.463822
2250.000000	37.357747
2240.000000	38.566653
2230.000000	39.920012
2220.000000	39.689492
2210.000000	39.595800
2200.000000	38.806166
2190.000000	37.714018
2180.000000	38.182122
2170.000000	39.307472
2160.000000	39.188955
2150.000000	39.155869
2140.000000	41.506861
2130.000000	42.555777
2120.000000	43.421034
2110.000000	41.821138
2100.000000	43.109687
2090.000000	41.623646
2080.000000	41.332145
2070.000000	41.263670
2060.000000	39.294336
2050.000000	39.628121
2040.000000	39.203843
2030.000000	39.852262
2020.000000	39.125503
2010.000000	39.864621
2000.000000	39.540835
1990.000000	38.342520
1980.000000	37.439844
1970.000000	35.965541
1960.000000	35.151528
1950.000000	34.347281
1940.000000	33.960135
1930.000000	34.768185
1920.000000	36.790272
1910.000000	39.518338
1900.000000	43.803624
1890.000000	47.433636
1880.000000	50.993985
1870.000000	53.677076
1860.000000	55.442593
1850.000000	55.909187
1840.000000	55.355475
1830.000000	54.811876
1820.000000	54.927164
1810.000000	54.957184
1800.000000	54.456303
1790.000000	53.910357
1780.000000	53.267634
1770.000000	53.235301
1760.000000	52.802213
1750.000000	52.461536
1740.000000	52.086325
1730.000000	51.664001
1720.000000	52.254333
1710.000000	53.176194
1700.000000	53.556675
1690.000000	54.184235
1680.000000	55.197350
1670.000000	56.345828
1660.000000	57.195496
1650.000000	57.478310
1640.000000	57.794752
1630.000000	57.453520
1620.000000	56.994118
1610.000000	56.289115
1600.000000	55.692146
1590.000000	55.194177
1580.000000	54.509424
1570.000000	54.292068
1560.000000	54.134888
1550.000000	53.831023
1540.000000	53.539192
1530.000000	52.878105
1520.000000	52.176901
1510.000000	51.733147
1500.000000	51.439553
1490.000000	51.424581
1480.000000	51.760740
1470.000000	52.170679
1460.000000	52.653207
1450.000000	53.038412
1440.000000	53.650240
1430.000000	54.138362
1420.000000	54.862554
1410.000000	56.217541
1400.000000	58.666452
1390.000000	61.580028
1380.000000	63.219594
1370.000000	63.550697
1360.000000	63.741199
1350.000000	63.837391
1340.000000	64.022006
1330.000000	64.698020
1320.000000	65.887344
1310.000000	66.631763
1300.000000	66.692180
1290.000000	66.637690
1280.000000	66.310812
1270.000000	66.238133
1260.000000	66.263721
1250.000000	65.908906
1240.000000	65.750013
1230.000000	65.529189
1220.000000	65.522627
1210.000000	65.407971
1200.000000	65.041023
1190.000000	64.830315
1180.000000	64.854800
1170.000000	65.341525
1160.000000	65.986429
1150.000000	66.529047
1140.000000	67.012896
1130.000000	67.224643
1120.000000	67.405899
1110.000000	67.551169
1100.000000	67.574067
1090.000000	67.530428
1080.000000	67.451289
1070.000000	67.482190
1060.000000	67.486832
1050.000000	67.362722
1040.000000	67.228988
1030.000000	67.142228
1020.000000	67.151915
1010.000000	67.422581
1000.000000	67.692233
990.000000	67.728367
980.000000	67.621977
970.000000	67.551237
960.000000	67.694683
950.000000	67.677547
940.000000	67.477039
930.000000	67.234512
920.000000	67.100035
910.000000	67.186630
900.000000	67.271563
890.000000	67.230328
880.000000	66.969301
870.000000	67.430384
860.000000	66.946388
850.000000	66.649979
840.000000	66.895456
830.000000	66.691961
820.000000	66.556488
810.000000	66.442039
800.000000	66.551258
790.000000	66.645799
780.000000	66.752835
770.000000	66.722495
760.000000	66.590035
750.000000	66.502199
740.000000	66.453946
730.000000	66.348128
720.000000	66.391389
710.000000	66.284353
700.000000	66.187440
690.000000	66.130268
680.000000	65.899761
670.000000	65.730019
660.000000	65.729397
650.000000	65.648726
640.000000	65.450868
630.000000	65.370193
620.000000	65.134593
610.000000	64.925554
600.000000	64.698098
590.000000	64.504492
580.000000	64.234645
570.000000	63.879585
560.000000	63.546886
550.000000	63.207923
540.000000	62.873085
530.000000	62.476268
520.000000	62.053195
510.000000	61.486262
500.000000	61.161665
490.000000	61.061863
480.000000	60.508571
470.000000	59.484793
460.000000	58.515768
450.000000	57.640137
440.000000	56.355456
430.000000	54.813901
420.000000	53.099255
410.000000	51.180973
400.000000	49.573687
390.000000	48.266393
380.000000	46.960006
370.000000	45.425406
360.000000	43.677938
350.000000	41.845706
340.000000	40.047899
330.000000	37.818165
320.000000	35.810112
310.000000	33.332060
300.000000	29.409543
290.000000	24.211606
280.000000	20.251984
270.000000	19.260199
260.000000	18.754714
250.000000	17.126787
