PE UV       SUBTECH     SPECTRUM    ASCII       PEDS        4.00        
   -1
3S-N10-F012.Sample.Raw.asc
22/03/30
16:19:54.00
22/03/30
16:19:54.00
Administrator

250.000000
1
Lambda 750
750N8071901
PerkinElmer UV WinLab 6.0.4.0738 / 1.61.00 Lambda 900

0
0
3350/servo 860.8/2
0
0
UV/VIS
1
1
1
CommonBeamDepol,150mm sphere / downward view
0
0
0
0
Program
Program
3350/servo 860.8/2
3350/0.2 860.8/0.2
3350/0.2 860.8/0.2
0
1
 
 
 
0
 
860.8
319.2
860.8
Front
100
on
 
 
0
0
0
 
0
 
 
 
0
 
 
0
0
0
0
0
 
 
 
 
0
0


0
0
#HDR
-1
-1
#GR
nm
%R
1.0
0.0
2500.000000
-10.000000
226
8
63.719428
9.459817
#DATA
2500.000000	11.214923
2490.000000	13.122723
2480.000000	12.979133
2470.000000	11.653881
2460.000000	12.276164
2450.000000	10.830373
2440.000000	15.010592
2430.000000	14.233566
2420.000000	15.815623
2410.000000	13.943804
2400.000000	14.274254
2390.000000	14.259922
2380.000000	13.702522
2370.000000	14.586476
2360.000000	15.504853
2350.000000	16.102284
2340.000000	15.155598
2330.000000	14.671733
2320.000000	14.494275
2310.000000	13.604133
2300.000000	14.022643
2290.000000	14.252565
2280.000000	14.102430
2270.000000	12.962422
2260.000000	13.759894
2250.000000	15.272875
2240.000000	16.627526
2230.000000	17.998538
2220.000000	18.254822
2210.000000	17.316988
2200.000000	17.632521
2190.000000	16.877056
2180.000000	16.246174
2170.000000	15.488498
2160.000000	16.280901
2150.000000	17.462709
2140.000000	18.497417
2130.000000	19.159339
2120.000000	20.375661
2110.000000	20.119078
2100.000000	20.670664
2090.000000	20.151220
2080.000000	19.644922
2070.000000	19.255643
2060.000000	17.916974
2050.000000	17.072303
2040.000000	16.251439
2030.000000	16.597464
2020.000000	17.403519
2010.000000	17.489773
2000.000000	17.004894
1990.000000	16.640578
1980.000000	15.526837
1970.000000	14.570691
1960.000000	13.552066
1950.000000	13.036077
1940.000000	12.966337
1930.000000	13.557461
1920.000000	14.983762
1910.000000	17.570113
1900.000000	22.097584
1890.000000	27.343351
1880.000000	32.762614
1870.000000	36.974633
1860.000000	39.007107
1850.000000	39.638619
1840.000000	39.809478
1830.000000	39.314199
1820.000000	38.852884
1810.000000	38.438971
1800.000000	37.904686
1790.000000	37.417020
1780.000000	36.827051
1770.000000	36.218222
1760.000000	35.509384
1750.000000	34.865756
1740.000000	34.249333
1730.000000	33.826902
1720.000000	34.420610
1710.000000	35.624612
1700.000000	36.445941
1690.000000	37.257335
1680.000000	39.088696
1670.000000	41.414578
1660.000000	43.135336
1650.000000	43.748030
1640.000000	43.523408
1630.000000	42.988607
1620.000000	42.278344
1610.000000	41.360208
1600.000000	40.371903
1590.000000	39.415556
1580.000000	38.752338
1570.000000	37.962274
1560.000000	37.416638
1550.000000	36.997404
1540.000000	36.105198
1530.000000	34.979746
1520.000000	34.130457
1510.000000	33.623078
1500.000000	33.330528
1490.000000	33.303437
1480.000000	33.636390
1470.000000	34.107220
1460.000000	34.688836
1450.000000	35.500558
1440.000000	36.695911
1430.000000	38.450883
1420.000000	40.888228
1410.000000	43.993919
1400.000000	47.278495
1390.000000	50.314566
1380.000000	52.516769
1370.000000	53.704231
1360.000000	54.724780
1350.000000	55.691976
1340.000000	56.505354
1330.000000	57.104651
1320.000000	57.923897
1310.000000	58.886563
1300.000000	59.533130
1290.000000	59.799692
1280.000000	59.754932
1270.000000	59.604845
1260.000000	59.462982
1250.000000	59.213768
1240.000000	58.924057
1230.000000	58.591430
1220.000000	58.201989
1210.000000	57.600829
1200.000000	57.050779
1190.000000	56.850937
1180.000000	57.284304
1170.000000	58.259021
1160.000000	59.534432
1150.000000	60.629029
1140.000000	61.435986
1130.000000	62.035190
1120.000000	62.422447
1110.000000	62.530447
1100.000000	62.599112
1090.000000	62.557468
1080.000000	62.511928
1070.000000	62.446310
1060.000000	62.269982
1050.000000	62.134424
1040.000000	62.023306
1030.000000	61.934533
1020.000000	61.965640
1010.000000	62.115746
1000.000000	62.345879
990.000000	62.474085
980.000000	62.557139
970.000000	62.670837
960.000000	62.836893
950.000000	62.967958
940.000000	63.032190
930.000000	63.032552
920.000000	63.011239
910.000000	63.099811
900.000000	63.212141
890.000000	63.246916
880.000000	63.314909
870.000000	63.593752
860.000000	63.719428
850.000000	63.476017
840.000000	63.100324
830.000000	62.880362
820.000000	62.770178
810.000000	62.839761
800.000000	62.807834
790.000000	62.655440
780.000000	62.795659
770.000000	62.756705
760.000000	62.578460
750.000000	62.528422
740.000000	62.395927
730.000000	62.158223
720.000000	62.101043
710.000000	61.989257
700.000000	61.760004
690.000000	61.528529
680.000000	61.259808
670.000000	60.909680
660.000000	60.545590
650.000000	60.224729
640.000000	59.807847
630.000000	59.311049
620.000000	58.797746
610.000000	58.230091
600.000000	57.698985
590.000000	57.287348
580.000000	56.712132
570.000000	56.143854
560.000000	55.636638
550.000000	55.101512
540.000000	54.413815
530.000000	53.676176
520.000000	52.975907
510.000000	52.141108
500.000000	51.125948
490.000000	49.848549
480.000000	48.271645
470.000000	46.439895
460.000000	44.327587
450.000000	41.783398
440.000000	38.807961
430.000000	35.401074
420.000000	31.883778
410.000000	29.240438
400.000000	27.912649
390.000000	26.912186
380.000000	25.634074
370.000000	23.922615
360.000000	22.016832
350.000000	20.370934
340.000000	18.736392
330.000000	17.340852
320.000000	16.168011
310.000000	14.451653
300.000000	12.165160
290.000000	10.349387
280.000000	9.632184
270.000000	9.459817
260.000000	9.527691
250.000000	9.617071
