PE UV       SUBTECH     SPECTRUM    ASCII       PEDS        4.00        
   -1
3S-N10-F003.Sample.Raw.asc
22/03/03
16:43:56.00
22/03/03
16:43:56.00
Administrator

250.000000
1
Lambda 750
750N8071901
PerkinElmer UV WinLab 6.0.4.0738 / 1.61.00 Lambda 900

0
0
3350/servo 860.8/2
0
0
UV/VIS
1
1
1
CommonBeamDepol,150mm sphere / downward view
0
0
0
0
Program
Program
3350/servo 860.8/2
3350/0.2 860.8/0.2
3350/0.2 860.8/0.2
0
1
 
 
 
0
 
860.8
319.2
860.8
Front
100
on
 
 
0
0
0
 
0
 
 
 
0
 
 
0
0
0
0
0
 
 
 
 
0
0


0
0
#HDR
-1
-1
#GR
nm
%R
1.0
0.0
2500.000000
-10.000000
226
8
69.967722
10.429513
#DATA
2500.000000	14.642245
2490.000000	20.987127
2480.000000	20.353020
2470.000000	17.373087
2460.000000	15.888936
2450.000000	12.788196
2440.000000	13.577292
2430.000000	18.878764
2420.000000	20.169609
2410.000000	10.429513
2400.000000	19.026258
2390.000000	18.689908
2380.000000	16.209310
2370.000000	18.039285
2360.000000	19.107880
2350.000000	18.557009
2340.000000	21.344271
2330.000000	19.973648
2320.000000	17.057484
2310.000000	22.877148
2300.000000	19.398388
2290.000000	16.687415
2280.000000	20.821787
2270.000000	18.662055
2260.000000	17.053830
2250.000000	17.952291
2240.000000	20.475869
2230.000000	20.886007
2220.000000	23.441519
2210.000000	22.584823
2200.000000	20.365358
2190.000000	19.951019
2180.000000	19.644230
2170.000000	20.719683
2160.000000	20.167090
2150.000000	21.577039
2140.000000	23.067417
2130.000000	23.105563
2120.000000	23.531963
2110.000000	24.477137
2100.000000	25.238741
2090.000000	25.452345
2080.000000	24.557066
2070.000000	23.813329
2060.000000	22.011999
2050.000000	21.392336
2040.000000	20.310206
2030.000000	21.371428
2020.000000	22.221500
2010.000000	22.175877
2000.000000	21.226272
1990.000000	20.792771
1980.000000	19.911673
1970.000000	18.350558
1960.000000	17.247550
1950.000000	17.005994
1940.000000	16.417789
1930.000000	16.995825
1920.000000	18.982674
1910.000000	21.838279
1900.000000	26.492744
1890.000000	32.598274
1880.000000	37.893926
1870.000000	43.042279
1860.000000	45.020187
1850.000000	45.660674
1840.000000	46.056433
1830.000000	45.735670
1820.000000	45.376136
1810.000000	44.972004
1800.000000	44.398608
1790.000000	43.533012
1780.000000	42.564174
1770.000000	42.119965
1760.000000	41.334200
1750.000000	40.506653
1740.000000	39.761521
1730.000000	39.348860
1720.000000	40.153276
1710.000000	41.754183
1700.000000	42.636231
1690.000000	43.446943
1680.000000	45.489306
1670.000000	47.705227
1660.000000	49.181167
1650.000000	49.995257
1640.000000	49.782233
1630.000000	49.405588
1620.000000	48.815987
1610.000000	47.649058
1600.000000	46.628117
1590.000000	45.681274
1580.000000	44.552190
1570.000000	44.028142
1560.000000	43.447893
1550.000000	43.079443
1540.000000	42.206468
1530.000000	40.970543
1520.000000	39.994883
1510.000000	39.222383
1500.000000	38.786771
1490.000000	38.745554
1480.000000	39.268476
1470.000000	39.845858
1460.000000	40.513416
1450.000000	41.337572
1440.000000	42.377526
1430.000000	43.729908
1420.000000	45.545666
1410.000000	48.371736
1400.000000	52.540230
1390.000000	57.079395
1380.000000	59.906247
1370.000000	60.850561
1360.000000	61.641266
1350.000000	62.464081
1340.000000	63.213644
1330.000000	64.276378
1320.000000	65.695975
1310.000000	66.692658
1300.000000	66.866807
1290.000000	66.783318
1280.000000	66.662454
1270.000000	66.560276
1260.000000	66.662467
1250.000000	66.253634
1240.000000	65.720451
1230.000000	65.462699
1220.000000	65.171051
1210.000000	64.825896
1200.000000	64.138436
1190.000000	63.720237
1180.000000	63.982720
1170.000000	65.081573
1160.000000	66.382421
1150.000000	67.592674
1140.000000	68.690553
1130.000000	69.333635
1120.000000	69.393752
1110.000000	69.304392
1100.000000	69.523996
1090.000000	69.526897
1080.000000	69.513717
1070.000000	69.575448
1060.000000	69.429214
1050.000000	69.305520
1040.000000	69.069960
1030.000000	68.895580
1020.000000	68.927163
1010.000000	69.140907
1000.000000	69.565278
990.000000	69.664138
980.000000	69.504492
970.000000	69.594511
960.000000	69.787307
950.000000	69.967722
940.000000	69.663280
930.000000	69.428521
920.000000	69.305544
910.000000	69.031582
900.000000	69.596714
890.000000	69.760247
880.000000	69.520265
870.000000	69.521148
860.000000	68.808924
850.000000	68.971515
840.000000	69.416293
830.000000	69.406739
820.000000	69.043009
810.000000	68.632486
800.000000	68.736148
790.000000	68.699216
780.000000	68.847395
770.000000	68.805413
760.000000	68.424525
750.000000	68.447691
740.000000	68.250325
730.000000	67.905029
720.000000	67.970308
710.000000	67.896417
700.000000	67.679220
690.000000	67.424268
680.000000	66.985196
670.000000	66.728226
660.000000	66.465406
650.000000	66.010815
640.000000	65.579639
630.000000	65.111213
620.000000	64.505416
610.000000	63.975306
600.000000	63.457444
590.000000	62.926780
580.000000	62.282835
570.000000	61.649609
560.000000	60.994218
550.000000	60.240820
540.000000	59.460124
530.000000	58.623686
520.000000	57.797460
510.000000	56.818876
500.000000	55.811389
490.000000	54.815692
480.000000	53.259810
470.000000	51.084947
460.000000	48.784511
450.000000	46.257471
440.000000	43.129756
430.000000	39.582358
420.000000	35.867791
410.000000	33.015480
400.000000	31.653522
390.000000	30.609635
380.000000	29.149033
370.000000	27.343899
360.000000	25.583534
350.000000	23.694251
340.000000	21.457299
330.000000	19.935745
320.000000	18.678432
310.000000	16.414986
300.000000	13.582036
290.000000	11.602813
280.000000	10.874102
270.000000	10.730529
260.000000	10.815186
250.000000	10.788122
