PE UV       SUBTECH     SPECTRUM    ASCII       PEDS        4.00        
   -1
3S-N10-F004.Sample.Raw.asc
22/03/03
16:47:41.00
22/03/03
16:47:41.00
Administrator

250.000000
1
Lambda 750
750N8071901
PerkinElmer UV WinLab 6.0.4.0738 / 1.61.00 Lambda 900

0
0
3350/servo 860.8/2
0
0
UV/VIS
1
1
1
CommonBeamDepol,150mm sphere / downward view
0
0
0
0
Program
Program
3350/servo 860.8/2
3350/0.2 860.8/0.2
3350/0.2 860.8/0.2
0
1
 
 
 
0
 
860.8
319.2
860.8
Front
100
on
 
 
0
0
0
 
0
 
 
 
0
 
 
0
0
0
0
0
 
 
 
 
0
0


0
0
#HDR
-1
-1
#GR
nm
%R
1.0
0.0
2500.000000
-10.000000
226
8
69.971816
10.555870
#DATA
2500.000000	10.555870
2490.000000	18.766056
2480.000000	14.213426
2470.000000	17.624053
2460.000000	18.410187
2450.000000	13.363105
2440.000000	18.736911
2430.000000	19.226536
2420.000000	18.182632
2410.000000	13.219650
2400.000000	22.680680
2390.000000	21.141284
2380.000000	17.160925
2370.000000	17.239795
2360.000000	19.213644
2350.000000	17.240746
2340.000000	19.346660
2330.000000	21.929031
2320.000000	17.819763
2310.000000	20.134782
2300.000000	17.298015
2290.000000	18.226953
2280.000000	19.247922
2270.000000	16.957530
2260.000000	18.603201
2250.000000	17.521156
2240.000000	20.955038
2230.000000	21.719517
2220.000000	23.792371
2210.000000	22.263547
2200.000000	22.374536
2190.000000	20.440830
2180.000000	19.957633
2170.000000	22.228857
2160.000000	21.492837
2150.000000	22.453814
2140.000000	22.411148
2130.000000	23.955463
2120.000000	24.081633
2110.000000	24.037360
2100.000000	25.346782
2090.000000	24.253729
2080.000000	24.662004
2070.000000	23.870206
2060.000000	22.738376
2050.000000	21.891076
2040.000000	20.265143
2030.000000	21.654498
2020.000000	21.806793
2010.000000	22.692569
2000.000000	21.473492
1990.000000	20.829177
1980.000000	19.882329
1970.000000	18.618438
1960.000000	17.419908
1950.000000	17.311939
1940.000000	16.754788
1930.000000	16.670730
1920.000000	18.585372
1910.000000	21.719099
1900.000000	27.226391
1890.000000	32.348701
1880.000000	38.292987
1870.000000	43.220654
1860.000000	45.555847
1850.000000	45.821592
1840.000000	46.095532
1830.000000	45.734219
1820.000000	45.121684
1810.000000	44.825270
1800.000000	44.415491
1790.000000	43.489084
1780.000000	42.949291
1770.000000	42.231842
1760.000000	41.543718
1750.000000	40.716722
1740.000000	40.101893
1730.000000	39.494921
1720.000000	40.164932
1710.000000	41.710303
1700.000000	42.695454
1690.000000	43.566995
1680.000000	45.855620
1670.000000	47.834756
1660.000000	49.401959
1650.000000	50.258678
1640.000000	50.077696
1630.000000	49.525346
1620.000000	48.924122
1610.000000	47.651976
1600.000000	46.650693
1590.000000	45.605654
1580.000000	44.719759
1570.000000	44.038349
1560.000000	43.534014
1550.000000	43.078712
1540.000000	42.306596
1530.000000	41.009254
1520.000000	40.002193
1510.000000	39.331115
1500.000000	38.907614
1490.000000	38.707730
1480.000000	39.347831
1470.000000	39.974917
1460.000000	40.649908
1450.000000	41.484863
1440.000000	42.605030
1430.000000	43.910280
1420.000000	45.676879
1410.000000	48.461707
1400.000000	52.755083
1390.000000	57.152220
1380.000000	60.027617
1370.000000	60.981037
1360.000000	61.787587
1350.000000	62.579314
1340.000000	63.272327
1330.000000	64.368682
1320.000000	65.905888
1310.000000	66.919901
1300.000000	67.146955
1290.000000	67.179339
1280.000000	66.924884
1270.000000	66.679780
1260.000000	66.595762
1250.000000	66.242538
1240.000000	65.847566
1230.000000	65.591986
1220.000000	65.453052
1210.000000	65.052505
1200.000000	64.341148
1190.000000	63.859735
1180.000000	64.128435
1170.000000	65.217773
1160.000000	66.556628
1150.000000	67.796176
1140.000000	69.026813
1130.000000	69.704566
1120.000000	69.851257
1110.000000	69.576808
1100.000000	69.595193
1090.000000	69.713591
1080.000000	69.688291
1070.000000	69.612147
1060.000000	69.408375
1050.000000	69.397181
1040.000000	69.238941
1030.000000	69.053233
1020.000000	69.086562
1010.000000	69.360954
1000.000000	69.591747
990.000000	69.656503
980.000000	69.633725
970.000000	69.648879
960.000000	69.798285
950.000000	69.971816
940.000000	69.788770
930.000000	69.467544
920.000000	69.359549
910.000000	69.514863
900.000000	69.522093
890.000000	69.792363
880.000000	69.783285
870.000000	69.363562
860.000000	69.445333
850.000000	69.504243
840.000000	69.128610
830.000000	69.090778
820.000000	69.034534
810.000000	68.797372
800.000000	68.879097
790.000000	68.905481
780.000000	68.939530
770.000000	68.739615
760.000000	68.623100
750.000000	68.524680
740.000000	68.375139
730.000000	68.093602
720.000000	68.068653
710.000000	67.874140
700.000000	67.602129
690.000000	67.496119
680.000000	67.253004
670.000000	66.846178
660.000000	66.507232
650.000000	66.093752
640.000000	65.569526
630.000000	65.084236
620.000000	64.535730
610.000000	63.864342
600.000000	63.328475
590.000000	62.917393
580.000000	62.315577
570.000000	61.586352
560.000000	60.950356
550.000000	60.281311
540.000000	59.582491
530.000000	58.705244
520.000000	57.891897
510.000000	56.911844
500.000000	55.939344
490.000000	54.842246
480.000000	53.263195
470.000000	51.199930
460.000000	48.856639
450.000000	46.380602
440.000000	43.302455
430.000000	39.686570
420.000000	36.007949
410.000000	33.206192
400.000000	31.795083
390.000000	30.725836
380.000000	29.310711
370.000000	27.652349
360.000000	25.718039
350.000000	23.681286
340.000000	21.942339
330.000000	20.310963
320.000000	18.515096
310.000000	16.401343
300.000000	13.746364
290.000000	11.812017
280.000000	11.110892
270.000000	10.998926
260.000000	11.047218
250.000000	11.069345
