PE UV       SUBTECH     SPECTRUM    ASCII       PEDS        4.00        
   -1
mskat_side1_1.Sample.asc
23/09/08
10:25:41.00
23/09/08
10:25:41.00
Administrator

250.000000
1
Lambda 750
750N8071901
PerkinElmer UV WinLab 6.0.4.0738 / 1.61.00 Lambda 900

0
0
3350/servo 860.8/2
0
0
UV/VIS
1
1
1
CommonBeamDepol,150mm sphere / downward view
0
0
0
0
Program
Program
3350/servo 860.8/2
3350/0.2 860.8/0.2
3350/0.2 860.8/0.2
0
1
 
 
 
0
 
860.8
319.2
860.8
Front
100
on
 
 
0
0
0
 
0
 
 
 
0
 
 
0
0
0
0
0
 
 
 
 
0
0


0
0
#HDR
-1
-1
#GR
nm
%R
1.0
0.0
2500.000000
-10.000000
226
8
49.963905
4.293286
#DATA
2500.000000	8.159614
2490.000000	7.527607
2480.000000	6.516255
2470.000000	9.655515
2460.000000	9.456039
2450.000000	12.106615
2440.000000	9.615371
2430.000000	10.607293
2420.000000	11.379241
2410.000000	12.155997
2400.000000	10.248062
2390.000000	12.414135
2380.000000	10.389927
2370.000000	12.346209
2360.000000	11.670006
2350.000000	11.766808
2340.000000	11.869562
2330.000000	11.328524
2320.000000	10.097608
2310.000000	10.667737
2300.000000	10.266417
2290.000000	10.812212
2280.000000	11.301698
2270.000000	11.770946
2260.000000	14.489355
2250.000000	14.807307
2240.000000	15.102361
2230.000000	15.070275
2220.000000	13.770234
2210.000000	13.498785
2200.000000	12.592208
2190.000000	14.141858
2180.000000	13.710223
2170.000000	14.651494
2160.000000	16.545524
2150.000000	16.573411
2140.000000	17.026711
2130.000000	17.720507
2120.000000	17.712719
2110.000000	17.208837
2100.000000	17.246943
2090.000000	16.731459
2080.000000	15.802856
2070.000000	14.014747
2060.000000	13.403128
2050.000000	14.084438
2040.000000	14.593819
2030.000000	14.547718
2020.000000	13.886317
2010.000000	12.957229
2000.000000	12.055484
1990.000000	11.192768
1980.000000	10.368694
1970.000000	9.681764
1960.000000	9.513699
1950.000000	9.657554
1940.000000	11.316142
1930.000000	13.454409
1920.000000	17.273480
1910.000000	22.379806
1900.000000	26.587619
1890.000000	30.041865
1880.000000	32.192204
1870.000000	32.920671
1860.000000	32.981221
1850.000000	32.760322
1840.000000	32.589008
1830.000000	32.329148
1820.000000	31.919962
1810.000000	31.727176
1800.000000	31.530727
1790.000000	31.127129
1780.000000	30.971476
1770.000000	30.723694
1760.000000	30.091677
1750.000000	29.962918
1740.000000	30.159679
1730.000000	31.060162
1720.000000	31.730670
1710.000000	32.099406
1700.000000	32.907152
1690.000000	34.256034
1680.000000	35.581849
1670.000000	36.050564
1660.000000	36.313621
1650.000000	35.992397
1640.000000	35.640770
1630.000000	35.155229
1620.000000	34.465069
1610.000000	33.850060
1600.000000	33.344176
1590.000000	32.875372
1580.000000	32.369112
1570.000000	32.079473
1560.000000	31.641721
1550.000000	30.830912
1540.000000	30.085981
1530.000000	29.754070
1520.000000	29.378330
1510.000000	29.279283
1500.000000	29.277039
1490.000000	29.362798
1480.000000	29.521671
1470.000000	29.964710
1460.000000	30.610419
1450.000000	31.614972
1440.000000	32.963706
1430.000000	34.970863
1420.000000	37.327790
1410.000000	39.663890
1400.000000	41.420656
1390.000000	42.551263
1380.000000	43.110157
1370.000000	43.709572
1360.000000	44.366708
1350.000000	44.952779
1340.000000	45.116006
1330.000000	45.427507
1320.000000	46.073559
1310.000000	46.630905
1300.000000	46.764678
1290.000000	46.714068
1280.000000	46.727327
1270.000000	46.557332
1260.000000	46.636568
1250.000000	46.578210
1240.000000	46.549488
1230.000000	46.316299
1220.000000	45.871143
1210.000000	45.676255
1200.000000	45.744000
1190.000000	46.102461
1180.000000	46.510349
1170.000000	47.205462
1160.000000	47.808973
1150.000000	48.198468
1140.000000	48.553490
1130.000000	48.650566
1120.000000	48.694664
1110.000000	48.730120
1100.000000	48.900577
1090.000000	48.829549
1080.000000	48.760503
1070.000000	48.662575
1060.000000	48.654364
1050.000000	48.539718
1040.000000	48.460399
1030.000000	48.464949
1020.000000	48.662711
1010.000000	48.856362
1000.000000	49.000953
990.000000	49.043754
980.000000	49.172222
970.000000	49.340357
960.000000	49.453439
950.000000	49.511530
940.000000	49.433314
930.000000	49.712785
920.000000	49.833576
910.000000	49.677514
900.000000	49.963905
890.000000	49.861700
880.000000	49.178945
870.000000	49.751340
860.000000	49.941544
850.000000	48.253993
840.000000	48.236716
830.000000	47.872419
820.000000	47.961782
810.000000	47.868999
800.000000	47.896835
790.000000	48.059310
780.000000	47.834790
770.000000	47.738308
760.000000	47.524280
750.000000	47.487171
740.000000	47.208559
730.000000	46.956598
720.000000	46.755445
710.000000	46.535152
700.000000	46.231751
690.000000	45.775307
680.000000	45.511449
670.000000	44.984834
660.000000	44.666403
650.000000	44.193845
640.000000	43.631278
630.000000	43.130132
620.000000	42.605905
610.000000	42.002116
600.000000	41.341142
590.000000	40.642749
580.000000	39.915544
570.000000	39.143290
560.000000	38.254127
550.000000	37.436433
540.000000	36.458035
530.000000	35.429502
520.000000	34.394122
510.000000	33.263196
500.000000	32.121327
490.000000	30.931649
480.000000	29.790453
470.000000	28.638644
460.000000	27.408306
450.000000	25.876769
440.000000	24.260540
430.000000	22.538774
420.000000	20.652998
410.000000	18.739351
400.000000	16.644173
390.000000	14.831275
380.000000	13.054236
370.000000	11.321509
360.000000	9.878217
350.000000	8.460118
340.000000	7.248082
330.000000	6.106075
320.000000	5.487601
310.000000	5.154450
300.000000	4.588303
290.000000	4.473952
280.000000	4.293286
270.000000	4.458405
260.000000	4.884415
250.000000	5.326490
