PE UV       SUBTECH     SPECTRUM    ASCII       PEDS        4.00        
   -1
Hull_1870_side1.Sample.asc
23/09/08
11:39:52.00
23/09/08
11:39:52.00
Administrator

250.000000
1
Lambda 750
750N8071901
PerkinElmer UV WinLab 6.0.4.0738 / 1.61.00 Lambda 900

0
0
3350/servo 860.8/2
0
0
UV/VIS
1
1
1
CommonBeamDepol,150mm sphere / downward view
0
0
0
0
Program
Program
3350/servo 860.8/2
3350/0.2 860.8/0.2
3350/0.2 860.8/0.2
0
1
 
 
 
0
 
860.8
319.2
860.8
Front
100
on
 
 
0
0
0
 
0
 
 
 
0
 
 
0
0
0
0
0
 
 
 
 
0
0


0
0
#HDR
-1
-1
#GR
nm
%R
1.0
0.0
2500.000000
-10.000000
226
8
49.206915
13.897449
#DATA
2500.000000	18.200695
2490.000000	22.653774
2480.000000	26.664739
2470.000000	33.223974
2460.000000	20.886454
2450.000000	23.116213
2440.000000	26.558666
2430.000000	27.130990
2420.000000	28.230201
2410.000000	24.676971
2400.000000	27.195449
2390.000000	30.038136
2380.000000	22.407707
2370.000000	25.120163
2360.000000	26.582751
2350.000000	28.065967
2340.000000	26.764098
2330.000000	23.780701
2320.000000	23.129802
2310.000000	22.920453
2300.000000	22.953447
2290.000000	25.032779
2280.000000	24.497423
2270.000000	23.393499
2260.000000	28.023511
2250.000000	30.126198
2240.000000	28.835005
2230.000000	29.853834
2220.000000	26.698918
2210.000000	29.541946
2200.000000	27.285246
2190.000000	28.830326
2180.000000	28.480382
2170.000000	29.978560
2160.000000	27.224315
2150.000000	28.469948
2140.000000	30.556337
2130.000000	30.798963
2120.000000	31.160337
2110.000000	30.261221
2100.000000	29.504032
2090.000000	29.614283
2080.000000	28.458854
2070.000000	28.382510
2060.000000	28.159458
2050.000000	27.950940
2040.000000	28.067690
2030.000000	27.742916
2020.000000	27.394019
2010.000000	26.555151
2000.000000	25.717635
1990.000000	24.954434
1980.000000	24.950173
1970.000000	23.207267
1960.000000	23.736946
1950.000000	23.465770
1940.000000	24.958169
1930.000000	27.402219
1920.000000	31.137536
1910.000000	32.588599
1900.000000	35.125226
1890.000000	38.255878
1880.000000	38.106049
1870.000000	38.876350
1860.000000	38.597069
1850.000000	38.439311
1840.000000	38.638403
1830.000000	38.450232
1820.000000	38.114979
1810.000000	37.898089
1800.000000	37.668980
1790.000000	37.639273
1780.000000	37.285170
1770.000000	37.391625
1760.000000	36.963067
1750.000000	37.310955
1740.000000	37.002909
1730.000000	37.658376
1720.000000	38.303519
1710.000000	38.175712
1700.000000	38.913926
1690.000000	39.539962
1680.000000	39.666956
1670.000000	39.538961
1660.000000	39.594616
1650.000000	39.827682
1640.000000	39.846115
1630.000000	39.299830
1620.000000	39.068440
1610.000000	38.620758
1600.000000	38.279313
1590.000000	38.484821
1580.000000	38.165386
1570.000000	38.296368
1560.000000	37.899437
1550.000000	37.733831
1540.000000	37.369737
1530.000000	37.154157
1520.000000	36.898697
1510.000000	36.851887
1500.000000	36.639400
1490.000000	36.690177
1480.000000	36.990993
1470.000000	37.162987
1460.000000	37.369341
1450.000000	37.985829
1440.000000	38.633097
1430.000000	39.209464
1420.000000	40.238901
1410.000000	41.247246
1400.000000	42.000285
1390.000000	42.300261
1380.000000	42.355331
1370.000000	43.007636
1360.000000	43.160685
1350.000000	43.149888
1340.000000	43.356787
1330.000000	43.520737
1320.000000	43.590059
1310.000000	43.695084
1300.000000	43.763933
1290.000000	44.095273
1280.000000	44.028434
1270.000000	44.151313
1260.000000	43.939568
1250.000000	43.968009
1240.000000	43.918759
1230.000000	43.815382
1220.000000	44.030334
1210.000000	43.713491
1200.000000	43.497928
1190.000000	44.009463
1180.000000	43.965873
1170.000000	44.039773
1160.000000	44.584849
1150.000000	44.618441
1140.000000	44.503534
1130.000000	44.646350
1120.000000	44.672274
1110.000000	44.782723
1100.000000	44.556991
1090.000000	44.440093
1080.000000	44.179120
1070.000000	44.477859
1060.000000	44.624633
1050.000000	44.572813
1040.000000	44.616164
1030.000000	44.362331
1020.000000	44.224894
1010.000000	44.622001
1000.000000	44.481886
990.000000	44.491036
980.000000	44.329659
970.000000	44.239944
960.000000	44.281952
950.000000	44.542156
940.000000	44.956643
930.000000	44.711121
920.000000	45.074500
910.000000	44.668193
900.000000	44.322998
890.000000	45.760420
880.000000	45.451513
870.000000	45.018917
860.000000	45.519288
850.000000	49.206915
840.000000	47.982488
830.000000	48.242767
820.000000	47.817553
810.000000	48.211162
800.000000	48.586018
790.000000	48.513736
780.000000	48.569883
770.000000	48.645465
760.000000	48.185569
750.000000	48.244397
740.000000	48.344382
730.000000	48.257941
720.000000	48.446807
710.000000	48.381699
700.000000	48.243038
690.000000	48.366721
680.000000	48.191461
670.000000	48.160405
660.000000	48.334837
650.000000	48.305478
640.000000	48.253855
630.000000	48.328398
620.000000	48.130860
610.000000	47.985774
600.000000	47.326842
590.000000	46.401568
580.000000	45.047803
570.000000	44.335872
560.000000	43.947999
550.000000	43.573585
540.000000	43.397394
530.000000	43.333971
520.000000	43.062772
510.000000	42.755688
500.000000	42.508585
490.000000	42.421002
480.000000	42.104789
470.000000	41.794459
460.000000	41.244285
450.000000	40.885575
440.000000	40.125584
430.000000	39.362795
420.000000	38.175633
410.000000	36.842314
400.000000	35.242563
390.000000	33.526989
380.000000	31.773246
370.000000	29.430273
360.000000	27.268247
350.000000	24.154738
340.000000	22.891403
330.000000	20.779522
320.000000	16.725513
310.000000	17.291448
300.000000	16.749399
290.000000	15.235642
280.000000	13.897449
270.000000	13.993698
260.000000	13.957748
250.000000	14.628706
