PE UV       SUBTECH     SPECTRUM    ASCII       PEDS        4.00        
   -1
msmeh8_side2_2.Sample.asc
23/09/08
11:03:07.00
23/09/08
11:03:07.00
Administrator

250.000000
1
Lambda 750
750N8071901
PerkinElmer UV WinLab 6.0.4.0738 / 1.61.00 Lambda 900

0
0
3350/servo 860.8/2
0
0
UV/VIS
1
1
1
CommonBeamDepol,150mm sphere / downward view
0
0
0
0
Program
Program
3350/servo 860.8/2
3350/0.2 860.8/0.2
3350/0.2 860.8/0.2
0
1
 
 
 
0
 
860.8
319.2
860.8
Front
100
on
 
 
0
0
0
 
0
 
 
 
0
 
 
0
0
0
0
0
 
 
 
 
0
0


0
0
#HDR
-1
-1
#GR
nm
%R
1.0
0.0
2500.000000
-10.000000
226
8
45.847378
0.795781
#DATA
2500.000000	12.004561
2490.000000	13.072490
2480.000000	10.202912
2470.000000	15.467863
2460.000000	12.981815
2450.000000	16.153138
2440.000000	15.194687
2430.000000	15.672478
2420.000000	16.577679
2410.000000	18.115238
2400.000000	16.274069
2390.000000	16.094313
2380.000000	16.694376
2370.000000	17.681576
2360.000000	15.922039
2350.000000	17.942885
2340.000000	17.186781
2330.000000	15.449948
2320.000000	16.102213
2310.000000	15.947227
2300.000000	16.456733
2290.000000	16.256134
2280.000000	17.656204
2270.000000	18.589257
2260.000000	21.066984
2250.000000	21.778310
2240.000000	22.065297
2230.000000	21.573705
2220.000000	21.025521
2210.000000	20.455993
2200.000000	19.468393
2190.000000	19.918884
2180.000000	20.753697
2170.000000	21.802195
2160.000000	22.529652
2150.000000	23.558475
2140.000000	24.559713
2130.000000	24.297195
2120.000000	25.234606
2110.000000	25.180252
2100.000000	24.135471
2090.000000	23.543895
2080.000000	22.515424
2070.000000	20.825535
2060.000000	20.446378
2050.000000	21.123220
2040.000000	21.589144
2030.000000	21.663073
2020.000000	20.657901
2010.000000	19.584253
2000.000000	18.516834
1990.000000	17.655009
1980.000000	16.393528
1970.000000	15.563839
1960.000000	15.100127
1950.000000	15.336613
1940.000000	17.260438
1930.000000	19.757718
1920.000000	24.543938
1910.000000	29.499452
1900.000000	33.439150
1890.000000	36.411410
1880.000000	38.210592
1870.000000	38.620737
1860.000000	38.798013
1850.000000	38.509474
1840.000000	38.235165
1830.000000	38.106546
1820.000000	37.814255
1810.000000	37.631683
1800.000000	37.377382
1790.000000	36.976878
1780.000000	36.685608
1770.000000	36.405114
1760.000000	35.831861
1750.000000	35.527474
1740.000000	35.784679
1730.000000	36.558916
1720.000000	37.191433
1710.000000	37.595753
1700.000000	38.437389
1690.000000	39.556036
1680.000000	40.501431
1670.000000	40.880245
1660.000000	41.081397
1650.000000	40.860559
1640.000000	40.571720
1630.000000	40.272357
1620.000000	39.735269
1610.000000	39.181571
1600.000000	38.812147
1590.000000	38.411529
1580.000000	38.118472
1570.000000	37.842784
1560.000000	37.455536
1550.000000	36.777551
1540.000000	36.135779
1530.000000	35.801562
1520.000000	35.532364
1510.000000	35.456721
1500.000000	35.394534
1490.000000	35.487549
1480.000000	35.593459
1470.000000	35.866849
1460.000000	36.295094
1450.000000	36.900142
1440.000000	37.838798
1430.000000	39.214384
1420.000000	40.811804
1410.000000	42.411193
1400.000000	43.519756
1390.000000	44.112415
1380.000000	44.443261
1370.000000	44.717036
1360.000000	45.047948
1350.000000	45.275645
1340.000000	45.225322
1330.000000	45.199322
1320.000000	45.593683
1310.000000	45.847378
1300.000000	45.819827
1290.000000	45.683130
1280.000000	45.581909
1270.000000	45.345835
1260.000000	45.255559
1250.000000	45.031633
1240.000000	44.975899
1230.000000	44.718962
1220.000000	44.378548
1210.000000	44.205448
1200.000000	44.110518
1190.000000	44.217122
1180.000000	44.377678
1170.000000	44.670097
1160.000000	44.857784
1150.000000	44.970189
1140.000000	45.044730
1130.000000	45.020440
1120.000000	44.880874
1110.000000	44.786210
1100.000000	44.771571
1090.000000	44.503201
1080.000000	44.388100
1070.000000	44.296274
1060.000000	44.230769
1050.000000	44.028512
1040.000000	43.841597
1030.000000	43.640705
1020.000000	43.589381
1010.000000	43.658370
1000.000000	43.569105
990.000000	43.378003
980.000000	43.307712
970.000000	43.165267
960.000000	43.100345
950.000000	42.973144
940.000000	42.683378
930.000000	42.593228
920.000000	42.525845
910.000000	42.431898
900.000000	42.307048
890.000000	42.110240
880.000000	41.547783
870.000000	41.362289
860.000000	40.807925
850.000000	39.104971
840.000000	38.846795
830.000000	38.409660
820.000000	38.097272
810.000000	37.763524
800.000000	37.284727
790.000000	37.056784
780.000000	36.570977
770.000000	36.218317
760.000000	35.690580
750.000000	35.208598
740.000000	34.638572
730.000000	34.161869
720.000000	33.506613
710.000000	32.954707
700.000000	32.303992
690.000000	31.531228
680.000000	30.839555
670.000000	30.041913
660.000000	29.245430
650.000000	28.378956
640.000000	27.515649
630.000000	26.524914
620.000000	25.577464
610.000000	24.602141
600.000000	23.524346
590.000000	22.432969
580.000000	21.288681
570.000000	20.143371
560.000000	18.852160
550.000000	17.652562
540.000000	16.360647
530.000000	15.093994
520.000000	13.819089
510.000000	12.561218
500.000000	11.369521
490.000000	10.231397
480.000000	9.146906
470.000000	8.142839
460.000000	7.117969
450.000000	6.096700
440.000000	5.205426
430.000000	4.553379
420.000000	3.913793
410.000000	3.414286
400.000000	2.968976
390.000000	2.596215
380.000000	2.302501
370.000000	2.142157
360.000000	1.943093
350.000000	1.851676
340.000000	1.840966
330.000000	1.532322
320.000000	1.831903
310.000000	1.662946
300.000000	0.814116
290.000000	0.795781
280.000000	0.873122
270.000000	0.868290
260.000000	1.188781
250.000000	1.266070
