PE UV       SUBTECH     SPECTRUM    ASCII       PEDS        4.00        
   -1
Hull_1568_side1.Sample.asc
23/09/08
11:58:23.00
23/09/08
11:58:23.00
Administrator

250.000000
1
Lambda 750
750N8071901
PerkinElmer UV WinLab 6.0.4.0738 / 1.61.00 Lambda 900

0
0
3350/servo 860.8/2
0
0
UV/VIS
1
1
1
CommonBeamDepol,150mm sphere / downward view
0
0
0
0
Program
Program
3350/servo 860.8/2
3350/0.2 860.8/0.2
3350/0.2 860.8/0.2
0
1
 
 
 
0
 
860.8
319.2
860.8
Front
100
on
 
 
0
0
0
 
0
 
 
 
0
 
 
0
0
0
0
0
 
 
 
 
0
0


0
0
#HDR
-1
-1
#GR
nm
%R
1.0
0.0
2500.000000
-10.000000
226
8
73.053389
21.179611
#DATA
2500.000000	25.357186
2490.000000	34.536916
2480.000000	37.039746
2470.000000	40.902870
2460.000000	35.848681
2450.000000	37.787305
2440.000000	48.651387
2430.000000	43.884411
2420.000000	41.806238
2410.000000	37.212618
2400.000000	44.023126
2390.000000	43.444075
2380.000000	38.761605
2370.000000	41.443570
2360.000000	42.967780
2350.000000	43.418374
2340.000000	41.376033
2330.000000	45.538113
2320.000000	41.957489
2310.000000	40.117284
2300.000000	39.489723
2290.000000	40.131116
2280.000000	42.340433
2270.000000	41.187435
2260.000000	46.404911
2250.000000	44.805235
2240.000000	45.380128
2230.000000	47.643286
2220.000000	44.988149
2210.000000	44.369371
2200.000000	42.952481
2190.000000	44.659361
2180.000000	44.442961
2170.000000	48.227914
2160.000000	48.518608
2150.000000	50.427915
2140.000000	49.119632
2130.000000	46.520848
2120.000000	48.226611
2110.000000	49.774869
2100.000000	48.324699
2090.000000	48.031993
2080.000000	46.717611
2070.000000	46.667025
2060.000000	45.409760
2050.000000	45.507129
2040.000000	45.350945
2030.000000	45.387119
2020.000000	44.583993
2010.000000	43.149751
2000.000000	42.751287
1990.000000	41.105300
1980.000000	40.940591
1970.000000	39.488320
1960.000000	38.988452
1950.000000	39.870792
1940.000000	41.754376
1930.000000	44.768782
1920.000000	49.392297
1910.000000	52.046408
1900.000000	55.835530
1890.000000	58.835156
1880.000000	59.585064
1870.000000	60.535225
1860.000000	60.593171
1850.000000	60.387159
1840.000000	60.111586
1830.000000	59.906075
1820.000000	59.846407
1810.000000	60.021895
1800.000000	59.591195
1790.000000	59.483251
1780.000000	59.046410
1770.000000	58.970558
1760.000000	58.683049
1750.000000	58.524436
1740.000000	58.629448
1730.000000	59.544849
1720.000000	60.004110
1710.000000	60.128105
1700.000000	60.974301
1690.000000	61.851786
1680.000000	62.139792
1670.000000	62.536340
1660.000000	62.551164
1650.000000	62.578712
1640.000000	62.249314
1630.000000	62.172047
1620.000000	61.768836
1610.000000	61.100454
1600.000000	61.040641
1590.000000	60.794863
1580.000000	60.761389
1570.000000	60.229490
1560.000000	59.981245
1550.000000	59.871488
1540.000000	59.197821
1530.000000	58.808858
1520.000000	58.796768
1510.000000	58.836785
1500.000000	58.621246
1490.000000	58.886343
1480.000000	59.076964
1470.000000	59.040909
1460.000000	59.711569
1450.000000	60.701010
1440.000000	61.399238
1430.000000	62.386171
1420.000000	63.843371
1410.000000	65.187881
1400.000000	66.175081
1390.000000	66.796072
1380.000000	67.202509
1370.000000	67.130055
1360.000000	67.747060
1350.000000	68.173602
1340.000000	68.371724
1330.000000	68.410085
1320.000000	68.260058
1310.000000	68.304425
1300.000000	68.672077
1290.000000	68.805479
1280.000000	68.836441
1270.000000	68.613874
1260.000000	68.689907
1250.000000	68.891312
1240.000000	68.490147
1230.000000	68.737076
1220.000000	68.731282
1210.000000	68.781230
1200.000000	68.668548
1190.000000	68.768071
1180.000000	69.209479
1170.000000	69.269753
1160.000000	69.721546
1150.000000	69.782054
1140.000000	69.774683
1130.000000	70.189487
1120.000000	70.328950
1110.000000	70.331381
1100.000000	70.653231
1090.000000	70.518310
1080.000000	70.259867
1070.000000	70.564854
1060.000000	70.855760
1050.000000	70.809591
1040.000000	70.764355
1030.000000	70.809440
1020.000000	70.692282
1010.000000	71.117046
1000.000000	71.208861
990.000000	71.284361
980.000000	71.121914
970.000000	71.150292
960.000000	71.349679
950.000000	71.526769
940.000000	72.102703
930.000000	71.413654
920.000000	72.089249
910.000000	72.410117
900.000000	71.783533
890.000000	73.053389
880.000000	72.098113
870.000000	71.713429
860.000000	71.565756
850.000000	72.003876
840.000000	71.418303
830.000000	72.074119
820.000000	71.933509
810.000000	72.141805
800.000000	71.845967
790.000000	72.355651
780.000000	72.380578
770.000000	72.303080
760.000000	72.138369
750.000000	72.323242
740.000000	72.258866
730.000000	72.473807
720.000000	72.334913
710.000000	72.425620
700.000000	72.574375
690.000000	72.491750
680.000000	72.265197
670.000000	72.344439
660.000000	72.302751
650.000000	72.514121
640.000000	72.305871
630.000000	72.438835
620.000000	72.336734
610.000000	72.177113
600.000000	71.989917
590.000000	72.130067
580.000000	71.866563
570.000000	71.823227
560.000000	71.497160
550.000000	71.325266
540.000000	71.002665
530.000000	70.895318
520.000000	70.408112
510.000000	70.002283
500.000000	69.554083
490.000000	69.025001
480.000000	68.516712
470.000000	67.734423
460.000000	66.708034
450.000000	65.819792
440.000000	64.496860
430.000000	63.057815
420.000000	61.267729
410.000000	59.060829
400.000000	56.572088
390.000000	53.635353
380.000000	50.807289
370.000000	47.359333
360.000000	44.254722
350.000000	40.083598
340.000000	37.773322
330.000000	33.633130
320.000000	32.017278
310.000000	31.264510
300.000000	27.414876
290.000000	23.450450
280.000000	21.430886
270.000000	21.179611
260.000000	21.723958
250.000000	22.169657
