PE UV       SUBTECH     SPECTRUM    ASCII       PEDS        4.00        
   -1
blanc.Sample.asc
23/09/08
11:27:41.00
23/09/08
11:27:41.00
Administrator

250.000000
1
Lambda 750
750N8071901
PerkinElmer UV WinLab 6.0.4.0738 / 1.61.00 Lambda 900

0
0
3350/servo 860.8/2
0
0
UV/VIS
1
1
1
CommonBeamDepol,150mm sphere / downward view
0
0
0
0
Program
Program
3350/servo 860.8/2
3350/0.2 860.8/0.2
3350/0.2 860.8/0.2
0
1
 
 
 
0
 
860.8
319.2
860.8
Front
100
on
 
 
0
0
0
 
0
 
 
 
0
 
 
0
0
0
0
0
 
 
 
 
0
0


0
0
#HDR
-1
-1
#GR
nm
%R
1.0
0.0
2500.000000
-10.000000
226
8
109.440205
94.190792
#DATA
2500.000000	94.190792
2490.000000	96.041036
2480.000000	102.105962
2470.000000	109.440205
2460.000000	101.936511
2450.000000	104.447518
2440.000000	108.660495
2430.000000	98.262706
2420.000000	96.742219
2410.000000	99.259761
2400.000000	101.974814
2390.000000	102.199126
2380.000000	104.583180
2370.000000	102.507989
2360.000000	103.518676
2350.000000	104.516403
2340.000000	101.224350
2330.000000	103.031160
2320.000000	98.862498
2310.000000	99.419849
2300.000000	102.359624
2290.000000	98.011549
2280.000000	98.381905
2270.000000	96.790076
2260.000000	101.392489
2250.000000	99.895937
2240.000000	100.925251
2230.000000	101.756535
2220.000000	99.811624
2210.000000	100.211694
2200.000000	100.135945
2190.000000	101.105801
2180.000000	100.500249
2170.000000	101.446961
2160.000000	99.817442
2150.000000	100.867431
2140.000000	100.513109
2130.000000	100.684542
2120.000000	100.716402
2110.000000	100.333754
2100.000000	101.009955
2090.000000	99.452480
2080.000000	99.631609
2070.000000	101.465881
2060.000000	100.207192
2050.000000	99.691393
2040.000000	99.448238
2030.000000	99.777043
2020.000000	100.445336
2010.000000	99.650650
2000.000000	100.684204
1990.000000	100.873762
1980.000000	100.767065
1970.000000	101.201335
1960.000000	99.850809
1950.000000	100.364597
1940.000000	99.575394
1930.000000	99.845134
1920.000000	100.647164
1910.000000	99.708850
1900.000000	99.710465
1890.000000	100.449192
1880.000000	100.063712
1870.000000	100.607233
1860.000000	99.999110
1850.000000	99.564801
1840.000000	100.126156
1830.000000	100.227643
1820.000000	99.997302
1810.000000	100.323900
1800.000000	99.745175
1790.000000	100.359005
1780.000000	100.288252
1770.000000	100.115001
1760.000000	99.805855
1750.000000	100.011668
1740.000000	99.925239
1730.000000	99.911813
1720.000000	100.034848
1710.000000	99.838756
1700.000000	100.185096
1690.000000	99.940929
1680.000000	100.049267
1670.000000	99.982109
1660.000000	99.757806
1650.000000	100.099895
1640.000000	100.179888
1630.000000	99.825628
1620.000000	100.005367
1610.000000	99.708661
1600.000000	100.203924
1590.000000	100.225436
1580.000000	99.989241
1570.000000	100.065338
1560.000000	100.142895
1550.000000	99.977720
1540.000000	99.853162
1530.000000	100.031177
1520.000000	100.122450
1510.000000	100.185849
1500.000000	99.733613
1490.000000	100.154849
1480.000000	100.008918
1470.000000	99.692713
1460.000000	99.868895
1450.000000	100.191689
1440.000000	100.172457
1430.000000	99.919994
1420.000000	99.797632
1410.000000	99.958972
1400.000000	100.165843
1390.000000	99.877125
1380.000000	99.965247
1370.000000	99.807339
1360.000000	100.012494
1350.000000	99.996421
1340.000000	100.085610
1330.000000	99.987532
1320.000000	99.873280
1310.000000	99.942125
1300.000000	100.080181
1290.000000	100.196574
1280.000000	100.248669
1270.000000	100.029146
1260.000000	99.946928
1250.000000	100.111720
1240.000000	99.992984
1230.000000	100.113423
1220.000000	100.026271
1210.000000	99.822296
1200.000000	99.908297
1190.000000	99.898362
1180.000000	100.105438
1170.000000	99.873960
1160.000000	99.900583
1150.000000	100.144659
1140.000000	99.993877
1130.000000	99.924031
1120.000000	99.866217
1110.000000	100.044592
1100.000000	100.067701
1090.000000	99.966061
1080.000000	99.988679
1070.000000	100.036611
1060.000000	100.198343
1050.000000	99.993901
1040.000000	100.117875
1030.000000	99.776899
1020.000000	100.024373
1010.000000	100.263589
1000.000000	100.088131
990.000000	99.951683
980.000000	99.581465
970.000000	100.245859
960.000000	99.752853
950.000000	99.970262
940.000000	100.572734
930.000000	99.304117
920.000000	99.643607
910.000000	99.743016
900.000000	99.583653
890.000000	100.787551
880.000000	100.370159
870.000000	99.346344
860.000000	100.274033
850.000000	100.755398
840.000000	100.041657
830.000000	99.630868
820.000000	99.908728
810.000000	100.247354
800.000000	99.631312
790.000000	100.265669
780.000000	99.692580
770.000000	100.004942
760.000000	99.497707
750.000000	99.705197
740.000000	99.782068
730.000000	99.994179
720.000000	100.029156
710.000000	99.866807
700.000000	100.209400
690.000000	99.918336
680.000000	99.893762
670.000000	99.562336
660.000000	99.961920
650.000000	100.009939
640.000000	99.791406
630.000000	100.095945
620.000000	99.843034
610.000000	99.996699
600.000000	99.792408
590.000000	100.090599
580.000000	99.794017
570.000000	99.837688
560.000000	99.998359
550.000000	100.010695
540.000000	99.853120
530.000000	100.039914
520.000000	100.081555
510.000000	100.074400
500.000000	100.037782
490.000000	100.188169
480.000000	100.102477
470.000000	100.141211
460.000000	99.990202
450.000000	100.000000
440.000000	100.259218
430.000000	100.010430
420.000000	99.985625
410.000000	100.025422
400.000000	100.276062
390.000000	99.828528
380.000000	99.779971
370.000000	100.516469
360.000000	103.359035
350.000000	101.538015
340.000000	101.614469
330.000000	101.875338
320.000000	101.029357
310.000000	105.657438
300.000000	99.402001
290.000000	101.268548
280.000000	100.302905
270.000000	100.930491
260.000000	100.586430
250.000000	99.857932
