PE UV       SUBTECH     SPECTRUM    ASCII       PEDS        4.00        
   -1
S-11771-012.Sample.Raw.asc
23/05/05
14:58:34.00
23/05/05
14:58:34.00
Administrator

250.000000
1
Lambda 750
750N8071901
PerkinElmer UV WinLab 6.0.4.0738 / 1.61.00 Lambda 900

0
0
3350/servo 860.8/2
0
0
UV/VIS
1
1
1
CommonBeamDepol,150mm sphere / downward view
0
0
0
0
Program
Program
3350/servo 860.8/2
3350/0.2 860.8/0.2
3350/0.2 860.8/0.2
0
1
 
 
 
0
 
860.8
319.2
860.8
Front
100
on
 
 
0
0
0
 
0
 
 
 
0
 
 
0
0
0
0
0
 
 
 
 
0
0


0
0
#HDR
-1
-1
#GR
nm
%R
1.0
0.0
2500.000000
-10.000000
226
8
68.390414
28.602501
#DATA
2500.000000	37.657505
2490.000000	38.289730
2480.000000	43.143867
2470.000000	39.591821
2460.000000	43.426134
2450.000000	40.415463
2440.000000	42.936438
2430.000000	41.670517
2420.000000	45.863424
2410.000000	45.947514
2400.000000	45.622629
2390.000000	43.573265
2380.000000	47.158349
2370.000000	44.908919
2360.000000	45.919371
2350.000000	45.930826
2340.000000	45.870401
2330.000000	44.761392
2320.000000	43.898600
2310.000000	44.711033
2300.000000	42.746733
2290.000000	42.966033
2280.000000	45.216015
2270.000000	45.775538
2260.000000	45.598432
2250.000000	47.915866
2240.000000	47.097029
2230.000000	46.820001
2220.000000	46.001284
2210.000000	45.757376
2200.000000	45.148518
2190.000000	45.305001
2180.000000	46.979871
2170.000000	47.796022
2160.000000	48.576777
2150.000000	50.174346
2140.000000	49.985396
2130.000000	49.351070
2120.000000	50.746258
2110.000000	50.292869
2100.000000	50.388393
2090.000000	50.038119
2080.000000	49.018217
2070.000000	47.327220
2060.000000	46.731381
2050.000000	47.420935
2040.000000	47.838886
2030.000000	47.787185
2020.000000	47.040161
2010.000000	45.785678
2000.000000	45.935980
1990.000000	44.324261
1980.000000	43.414862
1970.000000	42.049050
1960.000000	41.490448
1950.000000	42.716527
1940.000000	44.531000
1930.000000	47.980136
1920.000000	50.028924
1910.000000	53.848086
1900.000000	56.323460
1890.000000	56.520595
1880.000000	58.708007
1870.000000	59.081463
1860.000000	58.690380
1850.000000	57.975831
1840.000000	58.363887
1830.000000	58.283511
1820.000000	57.768025
1810.000000	58.212836
1800.000000	57.963045
1790.000000	57.581215
1780.000000	57.634388
1770.000000	57.249788
1760.000000	57.280497
1750.000000	57.286216
1740.000000	56.975775
1730.000000	57.875731
1720.000000	58.071288
1710.000000	58.243291
1700.000000	58.675961
1690.000000	59.644991
1680.000000	60.123480
1670.000000	59.907097
1660.000000	60.025372
1650.000000	59.861227
1640.000000	59.929465
1630.000000	59.654567
1620.000000	59.466759
1610.000000	59.059394
1600.000000	58.989676
1590.000000	58.888676
1580.000000	58.757012
1570.000000	58.502695
1560.000000	58.313997
1550.000000	58.094599
1540.000000	57.717338
1530.000000	57.650186
1520.000000	57.368161
1510.000000	57.377423
1500.000000	57.330351
1490.000000	57.418747
1480.000000	57.723847
1470.000000	58.012790
1460.000000	58.089534
1450.000000	58.398623
1440.000000	57.976872
1430.000000	58.232131
1420.000000	60.140685
1410.000000	62.334601
1400.000000	64.164441
1390.000000	64.475647
1380.000000	64.067747
1370.000000	64.248246
1360.000000	63.877203
1350.000000	62.835118
1340.000000	61.494860
1330.000000	61.785119
1320.000000	63.067464
1310.000000	64.421819
1300.000000	65.349626
1290.000000	66.153076
1280.000000	65.509193
1270.000000	64.890350
1260.000000	64.296135
1250.000000	64.596559
1240.000000	64.303669
1230.000000	64.594282
1220.000000	64.669035
1210.000000	64.739562
1200.000000	64.738501
1190.000000	64.965908
1180.000000	64.925994
1170.000000	65.262538
1160.000000	65.287456
1150.000000	65.357348
1140.000000	65.491042
1130.000000	65.746921
1120.000000	65.429632
1110.000000	65.649162
1100.000000	65.828856
1090.000000	65.992355
1080.000000	66.122399
1070.000000	66.000377
1060.000000	66.185186
1050.000000	66.148239
1040.000000	66.234913
1030.000000	66.778653
1020.000000	67.467646
1010.000000	68.390414
1000.000000	68.165876
990.000000	67.866302
980.000000	67.821993
970.000000	67.772271
960.000000	67.729457
950.000000	67.918018
940.000000	67.634758
930.000000	67.499353
920.000000	67.725332
910.000000	67.375839
900.000000	68.139524
890.000000	67.800595
880.000000	67.646981
870.000000	67.258206
860.000000	67.656452
850.000000	67.509897
840.000000	66.768943
830.000000	67.427300
820.000000	67.403610
810.000000	67.231259
800.000000	67.283467
790.000000	67.417396
780.000000	67.478577
770.000000	67.205652
760.000000	67.593216
750.000000	67.590886
740.000000	67.873291
730.000000	67.783700
720.000000	67.609840
710.000000	67.891105
700.000000	67.749093
690.000000	67.691139
680.000000	67.953681
670.000000	67.596801
660.000000	67.845059
650.000000	67.665951
640.000000	67.594296
630.000000	67.558658
620.000000	67.446088
610.000000	67.557624
600.000000	67.276017
590.000000	67.054530
580.000000	66.931961
570.000000	66.798492
560.000000	66.580885
550.000000	66.383645
540.000000	66.069899
530.000000	65.785410
520.000000	65.510873
510.000000	65.209266
500.000000	64.514403
490.000000	64.267855
480.000000	63.570785
470.000000	63.157307
460.000000	62.561857
450.000000	61.585281
440.000000	60.764348
430.000000	59.523545
420.000000	58.078940
410.000000	56.106514
400.000000	53.998083
390.000000	51.752079
380.000000	49.373065
370.000000	47.094966
360.000000	44.406339
350.000000	41.257331
340.000000	38.479574
330.000000	35.989260
320.000000	33.408517
310.000000	32.051453
300.000000	31.400687
290.000000	29.766015
280.000000	28.602501
270.000000	28.997243
260.000000	30.372559
250.000000	32.680437
