PE UV       SUBTECH     SPECTRUM    ASCII       PEDS        4.00        
   -1
S-11753-015.Sample.Raw.asc
23/05/05
16:23:39.00
23/05/05
16:23:39.00
Administrator

250.000000
1
Lambda 750
750N8071901
PerkinElmer UV WinLab 6.0.4.0738 / 1.61.00 Lambda 900

0
0
3350/servo 860.8/2
0
0
UV/VIS
1
1
1
CommonBeamDepol,150mm sphere / downward view
0
0
0
0
Program
Program
3350/servo 860.8/2
3350/0.2 860.8/0.2
3350/0.2 860.8/0.2
0
1
 
 
 
0
 
860.8
319.2
860.8
Front
100
on
 
 
0
0
0
 
0
 
 
 
0
 
 
0
0
0
0
0
 
 
 
 
0
0


0
0
#HDR
-1
-1
#GR
nm
%R
1.0
0.0
2500.000000
-10.000000
226
8
60.814221
18.106667
#DATA
2500.000000	20.431298
2490.000000	18.106667
2480.000000	25.632874
2470.000000	24.193922
2460.000000	25.279011
2450.000000	28.654638
2440.000000	24.677715
2430.000000	25.078959
2420.000000	25.158800
2410.000000	23.693487
2400.000000	25.626927
2390.000000	26.712186
2380.000000	27.952704
2370.000000	29.238560
2360.000000	26.922456
2350.000000	28.721011
2340.000000	29.440047
2330.000000	26.163562
2320.000000	28.734063
2310.000000	28.062392
2300.000000	24.241452
2290.000000	25.677539
2280.000000	26.678658
2270.000000	27.014109
2260.000000	30.337451
2250.000000	33.536153
2240.000000	31.824432
2230.000000	31.639038
2220.000000	30.162841
2210.000000	30.386558
2200.000000	29.195553
2190.000000	28.376734
2180.000000	29.360520
2170.000000	30.349226
2160.000000	30.852769
2150.000000	31.703189
2140.000000	33.560585
2130.000000	33.923510
2120.000000	32.265385
2110.000000	33.463981
2100.000000	32.614891
2090.000000	32.008713
2080.000000	30.674308
2070.000000	29.821182
2060.000000	28.407163
2050.000000	29.108002
2040.000000	28.975069
2030.000000	29.696634
2020.000000	29.530402
2010.000000	28.630436
2000.000000	27.823616
1990.000000	26.392834
1980.000000	25.414447
1970.000000	23.620616
1960.000000	23.346701
1950.000000	24.779659
1940.000000	26.021454
1930.000000	28.601067
1920.000000	31.915205
1910.000000	36.646183
1900.000000	40.735928
1890.000000	41.571990
1880.000000	44.206009
1870.000000	45.269148
1860.000000	44.969501
1850.000000	44.097088
1840.000000	44.069847
1830.000000	43.980169
1820.000000	43.957874
1810.000000	44.282053
1800.000000	43.669623
1790.000000	43.714246
1780.000000	43.166551
1770.000000	42.800309
1760.000000	42.790543
1750.000000	42.404440
1740.000000	42.319973
1730.000000	43.003781
1720.000000	43.712393
1710.000000	43.786349
1700.000000	44.425758
1690.000000	45.314657
1680.000000	45.937215
1670.000000	46.058618
1660.000000	46.299998
1650.000000	46.227980
1640.000000	46.016556
1630.000000	45.536504
1620.000000	45.092280
1610.000000	44.916409
1600.000000	44.655571
1590.000000	44.331528
1580.000000	43.904537
1570.000000	43.762334
1560.000000	43.175739
1550.000000	42.823205
1540.000000	42.077535
1530.000000	41.883839
1520.000000	41.689842
1510.000000	41.642257
1500.000000	41.546995
1490.000000	41.517016
1480.000000	41.633542
1470.000000	42.086047
1460.000000	42.301183
1450.000000	43.131543
1440.000000	42.917724
1430.000000	43.594687
1420.000000	45.908481
1410.000000	48.516930
1400.000000	50.674288
1390.000000	51.258991
1380.000000	50.897211
1370.000000	50.903890
1360.000000	50.945839
1350.000000	49.841011
1340.000000	48.819495
1330.000000	49.977961
1320.000000	52.180214
1310.000000	53.970532
1300.000000	55.359784
1290.000000	56.066323
1280.000000	55.381428
1270.000000	54.597701
1260.000000	54.191479
1250.000000	54.572725
1240.000000	54.585682
1230.000000	54.453763
1220.000000	54.146091
1210.000000	54.089304
1200.000000	54.398210
1190.000000	54.563570
1180.000000	54.739083
1170.000000	55.155755
1160.000000	54.853237
1150.000000	54.545722
1140.000000	55.507396
1130.000000	55.464623
1120.000000	55.285945
1110.000000	55.270326
1100.000000	55.185876
1090.000000	54.908154
1080.000000	54.940559
1070.000000	54.648822
1060.000000	54.641921
1050.000000	54.754619
1040.000000	54.347202
1030.000000	54.614791
1020.000000	55.429517
1010.000000	56.193876
1000.000000	56.216106
990.000000	55.917257
980.000000	56.103882
970.000000	55.595987
960.000000	55.843264
950.000000	55.866400
940.000000	55.549298
930.000000	55.539295
920.000000	55.639415
910.000000	56.432691
900.000000	56.529565
890.000000	56.699270
880.000000	55.043035
870.000000	54.529452
860.000000	55.371635
850.000000	59.565188
840.000000	59.431638
830.000000	59.918875
820.000000	60.132303
810.000000	59.678149
800.000000	59.916019
790.000000	60.085316
780.000000	60.076171
770.000000	59.857757
760.000000	60.098569
750.000000	60.298836
740.000000	60.440752
730.000000	60.219515
720.000000	60.409427
710.000000	60.492720
700.000000	60.588906
690.000000	60.571863
680.000000	60.633973
670.000000	60.512357
660.000000	60.814221
650.000000	60.483145
640.000000	60.625320
630.000000	60.674118
620.000000	60.534283
610.000000	60.456013
600.000000	60.572932
590.000000	60.479895
580.000000	60.353711
570.000000	60.352771
560.000000	60.080215
550.000000	60.021483
540.000000	59.869958
530.000000	59.595472
520.000000	59.539309
510.000000	59.449452
500.000000	58.850452
490.000000	58.512261
480.000000	58.150432
470.000000	57.872311
460.000000	57.228819
450.000000	56.351848
440.000000	55.360196
430.000000	54.186479
420.000000	52.356647
410.000000	50.112839
400.000000	47.871351
390.000000	45.520899
380.000000	43.187498
370.000000	40.460637
360.000000	38.138755
350.000000	34.564553
340.000000	32.082862
330.000000	29.363292
320.000000	27.553924
310.000000	25.797288
300.000000	26.395628
290.000000	23.622599
280.000000	22.421623
270.000000	23.924480
260.000000	26.355263
250.000000	30.102931
