PE UV       SUBTECH     SPECTRUM    ASCII       PEDS        4.00        
   -1
S-11768-019.Sample.Raw.asc
23/05/05
14:38:02.00
23/05/05
14:38:02.00
Administrator

250.000000
1
Lambda 750
750N8071901
PerkinElmer UV WinLab 6.0.4.0738 / 1.61.00 Lambda 900

0
0
3350/servo 860.8/2
0
0
UV/VIS
1
1
1
CommonBeamDepol,150mm sphere / downward view
0
0
0
0
Program
Program
3350/servo 860.8/2
3350/0.2 860.8/0.2
3350/0.2 860.8/0.2
0
1
 
 
 
0
 
860.8
319.2
860.8
Front
100
on
 
 
0
0
0
 
0
 
 
 
0
 
 
0
0
0
0
0
 
 
 
 
0
0


0
0
#HDR
-1
-1
#GR
nm
%R
1.0
0.0
2500.000000
-10.000000
226
8
72.957456
18.571018
#DATA
2500.000000	24.859996
2490.000000	19.259099
2480.000000	25.156733
2470.000000	21.430120
2460.000000	19.274571
2450.000000	27.019484
2440.000000	28.190007
2430.000000	24.636638
2420.000000	28.122816
2410.000000	25.217313
2400.000000	26.718491
2390.000000	26.041280
2380.000000	28.965247
2370.000000	25.540659
2360.000000	27.142752
2350.000000	30.787787
2340.000000	29.913948
2330.000000	27.664623
2320.000000	24.819647
2310.000000	27.297944
2300.000000	25.154077
2290.000000	24.258754
2280.000000	27.417533
2270.000000	27.705425
2260.000000	29.928791
2250.000000	32.230519
2240.000000	31.430933
2230.000000	30.944072
2220.000000	30.782625
2210.000000	28.977963
2200.000000	30.109969
2190.000000	28.760365
2180.000000	29.427087
2170.000000	32.843802
2160.000000	30.972949
2150.000000	32.453094
2140.000000	34.119809
2130.000000	35.079641
2120.000000	34.863057
2110.000000	35.091272
2100.000000	34.731163
2090.000000	33.028862
2080.000000	31.808878
2070.000000	30.566803
2060.000000	29.348024
2050.000000	30.512310
2040.000000	31.010906
2030.000000	30.614667
2020.000000	29.778944
2010.000000	28.862097
2000.000000	28.123919
1990.000000	26.867257
1980.000000	24.661245
1970.000000	23.432136
1960.000000	23.605665
1950.000000	24.593758
1940.000000	26.708760
1930.000000	30.619091
1920.000000	34.823710
1910.000000	42.029071
1900.000000	46.899179
1890.000000	50.505183
1880.000000	52.566968
1870.000000	54.012826
1860.000000	53.357096
1850.000000	53.008732
1840.000000	53.260348
1830.000000	52.307014
1820.000000	52.185497
1810.000000	52.339329
1800.000000	51.747967
1790.000000	51.269257
1780.000000	50.759600
1770.000000	49.960585
1760.000000	49.514190
1750.000000	49.365402
1740.000000	49.832971
1730.000000	50.951143
1720.000000	51.418518
1710.000000	51.794202
1700.000000	52.981486
1690.000000	54.673529
1680.000000	56.133547
1670.000000	56.274286
1660.000000	56.517506
1650.000000	55.950950
1640.000000	55.841990
1630.000000	55.260364
1620.000000	54.541698
1610.000000	53.854599
1600.000000	53.076160
1590.000000	52.661673
1580.000000	52.181074
1570.000000	51.716444
1560.000000	51.125430
1550.000000	50.337536
1540.000000	49.315261
1530.000000	48.985711
1520.000000	48.518401
1510.000000	48.264569
1500.000000	48.419016
1490.000000	48.511835
1480.000000	48.845803
1470.000000	49.650752
1460.000000	50.351719
1450.000000	51.390759
1440.000000	51.789191
1430.000000	53.508850
1420.000000	56.978956
1410.000000	60.802169
1400.000000	63.807120
1390.000000	64.434501
1380.000000	64.648124
1370.000000	65.208835
1360.000000	65.401136
1350.000000	64.651077
1340.000000	63.923561
1330.000000	64.564329
1320.000000	65.923369
1310.000000	66.985117
1300.000000	67.907025
1290.000000	68.725015
1280.000000	68.269475
1270.000000	67.603650
1260.000000	67.154469
1250.000000	67.149296
1240.000000	67.275513
1230.000000	67.106489
1220.000000	66.819357
1210.000000	66.451277
1200.000000	66.646597
1190.000000	66.919228
1180.000000	67.699822
1170.000000	68.286324
1160.000000	68.799623
1150.000000	69.046288
1140.000000	69.589961
1130.000000	69.798589
1120.000000	69.675809
1110.000000	69.754569
1100.000000	70.338853
1090.000000	70.305228
1080.000000	70.061621
1070.000000	69.893104
1060.000000	70.200894
1050.000000	70.119804
1040.000000	69.980768
1030.000000	70.578564
1020.000000	71.242879
1010.000000	72.056032
1000.000000	72.125421
990.000000	71.848146
980.000000	72.037468
970.000000	72.031565
960.000000	72.023599
950.000000	72.048168
940.000000	71.907728
930.000000	72.266768
920.000000	71.893358
910.000000	72.009127
900.000000	72.692918
890.000000	72.043388
880.000000	72.511917
870.000000	72.744401
860.000000	72.374263
850.000000	71.687580
840.000000	71.484928
830.000000	71.861221
820.000000	71.817927
810.000000	72.317911
800.000000	72.079909
790.000000	72.590286
780.000000	72.363543
770.000000	72.392203
760.000000	72.569933
750.000000	72.530750
740.000000	72.736379
730.000000	72.529775
720.000000	72.824359
710.000000	72.850735
700.000000	72.769311
690.000000	72.750190
680.000000	72.957456
670.000000	72.490365
660.000000	72.945035
650.000000	72.808195
640.000000	72.548721
630.000000	72.526247
620.000000	72.343793
610.000000	72.094246
600.000000	71.780882
590.000000	71.500964
580.000000	71.132879
570.000000	70.821232
560.000000	70.230241
550.000000	69.580121
540.000000	68.911910
530.000000	68.132058
520.000000	67.528575
510.000000	66.506945
500.000000	65.126988
490.000000	64.058086
480.000000	62.510038
470.000000	61.085499
460.000000	59.304012
450.000000	57.150617
440.000000	54.504614
430.000000	51.700237
420.000000	48.355423
410.000000	44.929232
400.000000	41.715933
390.000000	38.559128
380.000000	35.782142
370.000000	33.046603
360.000000	29.933258
350.000000	27.613646
340.000000	25.959921
330.000000	23.136983
320.000000	22.784749
310.000000	22.695105
300.000000	21.611502
290.000000	18.571018
280.000000	18.726133
270.000000	19.376361
260.000000	21.793049
250.000000	23.950894
