PE UV       SUBTECH     SPECTRUM    ASCII       PEDS        4.00        
   -1
S-11771-011.Sample.Raw.asc
23/05/05
14:53:35.00
23/05/05
14:53:35.00
Administrator

250.000000
1
Lambda 750
750N8071901
PerkinElmer UV WinLab 6.0.4.0738 / 1.61.00 Lambda 900

0
0
3350/servo 860.8/2
0
0
UV/VIS
1
1
1
CommonBeamDepol,150mm sphere / downward view
0
0
0
0
Program
Program
3350/servo 860.8/2
3350/0.2 860.8/0.2
3350/0.2 860.8/0.2
0
1
 
 
 
0
 
860.8
319.2
860.8
Front
100
on
 
 
0
0
0
 
0
 
 
 
0
 
 
0
0
0
0
0
 
 
 
 
0
0


0
0
#HDR
-1
-1
#GR
nm
%R
1.0
0.0
2500.000000
-10.000000
226
8
68.489561
25.455383
#DATA
2500.000000	39.385411
2490.000000	41.932973
2480.000000	42.392144
2470.000000	42.417673
2460.000000	40.632222
2450.000000	46.032324
2440.000000	48.975040
2430.000000	42.447607
2420.000000	44.795695
2410.000000	46.321879
2400.000000	43.140858
2390.000000	44.323670
2380.000000	45.900473
2370.000000	43.668755
2360.000000	42.611984
2350.000000	46.401456
2340.000000	44.864414
2330.000000	45.689884
2320.000000	43.718061
2310.000000	47.404628
2300.000000	42.695565
2290.000000	44.532468
2280.000000	43.946905
2270.000000	44.323030
2260.000000	47.734709
2250.000000	49.171226
2240.000000	49.293457
2230.000000	48.000842
2220.000000	47.521969
2210.000000	46.621275
2200.000000	45.866454
2190.000000	46.434249
2180.000000	45.411921
2170.000000	48.756703
2160.000000	48.079304
2150.000000	49.138484
2140.000000	49.936241
2130.000000	50.656125
2120.000000	49.905008
2110.000000	49.548902
2100.000000	49.647047
2090.000000	49.692503
2080.000000	49.037955
2070.000000	48.662333
2060.000000	46.872656
2050.000000	48.038421
2040.000000	47.475839
2030.000000	47.621925
2020.000000	47.210486
2010.000000	46.079260
2000.000000	45.635677
1990.000000	44.678418
1980.000000	43.773282
1970.000000	42.679561
1960.000000	41.133078
1950.000000	43.360885
1940.000000	44.050184
1930.000000	47.646128
1920.000000	50.059679
1910.000000	53.817065
1900.000000	56.635019
1890.000000	57.079879
1880.000000	58.741305
1870.000000	59.398020
1860.000000	59.094584
1850.000000	58.641185
1840.000000	58.723156
1830.000000	58.099890
1820.000000	58.646516
1810.000000	58.543957
1800.000000	57.917960
1790.000000	57.903789
1780.000000	57.866180
1770.000000	57.577633
1760.000000	57.309357
1750.000000	57.244033
1740.000000	57.660116
1730.000000	58.030809
1720.000000	58.188820
1710.000000	58.744428
1700.000000	59.046987
1690.000000	59.901944
1680.000000	60.000589
1670.000000	60.043502
1660.000000	60.345476
1650.000000	60.162811
1640.000000	60.135315
1630.000000	59.766616
1620.000000	59.544244
1610.000000	59.421902
1600.000000	59.139572
1590.000000	59.188915
1580.000000	58.916558
1570.000000	58.923154
1560.000000	58.633226
1550.000000	58.398566
1540.000000	57.778581
1530.000000	57.780896
1520.000000	57.495039
1510.000000	57.616615
1500.000000	57.643017
1490.000000	57.566680
1480.000000	57.875482
1470.000000	58.152932
1460.000000	58.448611
1450.000000	58.629619
1440.000000	58.220249
1430.000000	58.551251
1420.000000	60.100869
1410.000000	62.465005
1400.000000	64.573856
1390.000000	64.651252
1380.000000	64.269236
1370.000000	64.371155
1360.000000	63.984584
1350.000000	62.978913
1340.000000	61.821414
1330.000000	62.209472
1320.000000	63.426787
1310.000000	64.765685
1300.000000	65.831379
1290.000000	66.593937
1280.000000	66.094164
1270.000000	65.293618
1260.000000	64.875246
1250.000000	65.091068
1240.000000	65.338162
1230.000000	65.265198
1220.000000	65.200098
1210.000000	65.017660
1200.000000	65.099753
1190.000000	65.373376
1180.000000	65.350357
1170.000000	65.664629
1160.000000	65.850374
1150.000000	65.746393
1140.000000	65.921542
1130.000000	66.253929
1120.000000	65.974952
1110.000000	66.081888
1100.000000	66.594290
1090.000000	66.386291
1080.000000	66.236484
1070.000000	66.279929
1060.000000	66.397413
1050.000000	66.377021
1040.000000	66.470284
1030.000000	66.920900
1020.000000	67.768102
1010.000000	68.489561
1000.000000	68.458862
990.000000	67.914082
980.000000	67.822692
970.000000	67.608452
960.000000	67.609520
950.000000	67.995998
940.000000	67.454829
930.000000	67.625958
920.000000	68.063262
910.000000	67.925722
900.000000	68.017985
890.000000	68.319769
880.000000	67.521849
870.000000	67.994263
860.000000	68.097261
850.000000	66.210830
840.000000	66.394373
830.000000	67.140231
820.000000	67.865535
810.000000	67.504126
800.000000	67.649797
790.000000	67.680219
780.000000	67.787854
770.000000	67.354244
760.000000	67.811427
750.000000	67.547883
740.000000	67.957681
730.000000	67.596192
720.000000	67.757784
710.000000	67.805534
700.000000	67.730430
690.000000	67.516403
680.000000	67.731368
670.000000	67.455899
660.000000	67.703625
650.000000	67.439607
640.000000	67.244360
630.000000	67.334968
620.000000	67.242190
610.000000	67.166894
600.000000	67.012203
590.000000	66.758469
580.000000	66.601088
570.000000	66.341909
560.000000	66.116161
550.000000	65.818515
540.000000	65.527944
530.000000	65.101546
520.000000	64.771397
510.000000	64.348596
500.000000	63.876469
490.000000	63.397700
480.000000	62.782383
470.000000	62.286253
460.000000	61.591583
450.000000	60.784423
440.000000	59.632570
430.000000	58.350777
420.000000	56.576916
410.000000	54.825588
400.000000	52.498059
390.000000	50.142099
380.000000	47.591662
370.000000	44.924724
360.000000	42.784680
350.000000	39.924007
340.000000	36.030811
330.000000	34.155771
320.000000	32.242595
310.000000	28.623130
300.000000	27.869890
290.000000	26.242585
280.000000	25.455383
270.000000	25.936941
260.000000	27.595398
250.000000	29.849255
