PE UV       SUBTECH     SPECTRUM    ASCII       PEDS        4.00        
   -1
S-11775-007.Sample.Raw.asc
23/01/26
18:07:35.00
23/01/26
18:07:35.00
Administrator

250.000000
1
Lambda 750
750N8071901
PerkinElmer UV WinLab 6.0.4.0738 / 1.61.00 Lambda 900

0
0
3350/servo 860.8/2
0
0
UV/VIS
1
1
1
CommonBeamDepol,150mm sphere / downward view
0
0
0
0
Program
Program
3350/servo 860.8/2
3350/0.2 860.8/0.2
3350/0.2 860.8/0.2
0
1
 
 
 
0
 
860.8
319.2
860.8
Front
100
on
 
 
0
0
0
 
0
 
 
 
0
 
 
0
0
0
0
0
 
 
 
 
0
0


0
0
#HDR
-1
-1
#GR
nm
%R
1.0
0.0
2500.000000
-10.000000
226
8
63.240059
13.496180
#DATA
2500.000000	19.028545
2490.000000	20.045722
2480.000000	19.668480
2470.000000	17.724902
2460.000000	18.911810
2450.000000	18.763332
2440.000000	19.860017
2430.000000	20.479084
2420.000000	22.855813
2410.000000	22.523375
2400.000000	21.808409
2390.000000	21.189712
2380.000000	20.408295
2370.000000	19.151195
2360.000000	20.436692
2350.000000	21.385494
2340.000000	20.225757
2330.000000	19.457844
2320.000000	20.259635
2310.000000	20.599232
2300.000000	20.075485
2290.000000	20.716556
2280.000000	20.526628
2270.000000	21.577055
2260.000000	23.371608
2250.000000	24.281764
2240.000000	25.585337
2230.000000	25.413075
2220.000000	24.933852
2210.000000	24.262228
2200.000000	24.620185
2190.000000	23.872306
2180.000000	24.557653
2170.000000	25.609846
2160.000000	24.846309
2150.000000	25.613968
2140.000000	26.780505
2130.000000	27.215892
2120.000000	27.192955
2110.000000	27.808019
2100.000000	26.955093
2090.000000	26.986792
2080.000000	26.503504
2070.000000	25.496708
2060.000000	26.034894
2050.000000	26.354146
2040.000000	26.587875
2030.000000	26.497328
2020.000000	26.161964
2010.000000	25.460769
2000.000000	24.921994
1990.000000	24.347792
1980.000000	23.389949
1970.000000	22.749785
1960.000000	22.654548
1950.000000	22.842482
1940.000000	23.770250
1930.000000	25.645555
1920.000000	28.564120
1910.000000	31.342448
1900.000000	32.289389
1890.000000	33.151285
1880.000000	34.647604
1870.000000	34.382355
1860.000000	34.266308
1850.000000	34.497840
1840.000000	34.500938
1830.000000	34.320368
1820.000000	34.080573
1810.000000	33.807800
1800.000000	33.255223
1790.000000	32.833340
1780.000000	32.716147
1770.000000	32.512781
1760.000000	32.293943
1750.000000	31.940878
1740.000000	31.946378
1730.000000	32.683945
1720.000000	33.204586
1710.000000	33.446173
1700.000000	33.943166
1690.000000	34.741598
1680.000000	35.319174
1670.000000	35.802224
1660.000000	36.021779
1650.000000	36.037856
1640.000000	36.155656
1630.000000	36.001356
1620.000000	35.698498
1610.000000	35.330130
1600.000000	35.096177
1590.000000	34.983219
1580.000000	34.999608
1570.000000	35.131499
1560.000000	35.113301
1550.000000	34.910647
1540.000000	34.668801
1530.000000	34.458544
1520.000000	34.102236
1510.000000	33.929756
1500.000000	34.002782
1490.000000	34.114650
1480.000000	34.369324
1470.000000	34.494181
1460.000000	34.611022
1450.000000	34.751585
1440.000000	34.853940
1430.000000	34.993973
1420.000000	36.007881
1410.000000	37.423976
1400.000000	38.646687
1390.000000	39.221671
1380.000000	38.699887
1370.000000	39.402645
1360.000000	39.174405
1350.000000	38.832571
1340.000000	39.557980
1330.000000	41.142806
1320.000000	42.541295
1310.000000	43.436531
1300.000000	43.919343
1290.000000	44.084554
1280.000000	43.847937
1270.000000	43.108953
1260.000000	42.855312
1250.000000	42.881188
1240.000000	43.222198
1230.000000	43.158098
1220.000000	42.891168
1210.000000	42.632243
1200.000000	42.845669
1190.000000	43.475276
1180.000000	42.886907
1170.000000	43.197157
1160.000000	43.484927
1150.000000	43.598386
1140.000000	43.956619
1130.000000	43.795255
1120.000000	43.425600
1110.000000	43.176034
1100.000000	42.972952
1090.000000	42.939519
1080.000000	42.668517
1070.000000	42.356379
1060.000000	42.039505
1050.000000	41.641465
1040.000000	41.197339
1030.000000	41.040467
1020.000000	41.429498
1010.000000	41.619109
1000.000000	41.556803
990.000000	41.350317
980.000000	41.350518
970.000000	41.326274
960.000000	41.132630
950.000000	41.139880
940.000000	41.010504
930.000000	40.919602
920.000000	40.837739
910.000000	41.014655
900.000000	40.985587
890.000000	41.095782
880.000000	40.982615
870.000000	41.490584
860.000000	42.208026
850.000000	63.240059
840.000000	63.154742
830.000000	62.803179
820.000000	62.847226
810.000000	62.798873
800.000000	62.820270
790.000000	62.895110
780.000000	62.812483
770.000000	62.766824
760.000000	62.550335
750.000000	62.721011
740.000000	62.663143
730.000000	62.468651
720.000000	62.261683
710.000000	62.302578
700.000000	62.050819
690.000000	61.913105
680.000000	61.679614
670.000000	61.275261
660.000000	61.181041
650.000000	61.017794
640.000000	60.645374
630.000000	60.414579
620.000000	59.864475
610.000000	59.422766
600.000000	58.764804
590.000000	58.337303
580.000000	57.675757
570.000000	56.957618
560.000000	56.275233
550.000000	55.252727
540.000000	54.345920
530.000000	53.462544
520.000000	52.371134
510.000000	50.839567
500.000000	49.341623
490.000000	48.270117
480.000000	47.131630
470.000000	45.241892
460.000000	43.441212
450.000000	41.633343
440.000000	39.865525
430.000000	38.149949
420.000000	36.435179
410.000000	35.031405
400.000000	34.556762
390.000000	34.808900
380.000000	34.861847
370.000000	33.782054
360.000000	31.233022
350.000000	26.956317
340.000000	22.726726
330.000000	19.349240
320.000000	17.495152
310.000000	16.922990
300.000000	15.338513
290.000000	13.659399
280.000000	13.496180
270.000000	13.852530
260.000000	14.916832
250.000000	15.386335
