PE UV       SUBTECH     SPECTRUM    ASCII       PEDS        4.00        
   -1
S-11753-010.Sample.Raw.asc
22/12/23
12:33:38.00
22/12/23
12:33:38.00
Administrator

250.000000
1
Lambda 750
750N8071901
PerkinElmer UV WinLab 6.0.4.0738 / 1.61.00 Lambda 900

0
0
3350/servo 860.8/2
0
0
UV/VIS
1
1
1
CommonBeamDepol,150mm sphere / downward view
0
0
0
0
Program
Program
3350/servo 860.8/2
3350/0.2 860.8/0.2
3350/0.2 860.8/0.2
0
1
 
 
 
0
 
860.8
319.2
860.8
Front
100
on
 
 
0
0
0
 
0
 
 
 
0
 
 
0
0
0
0
0
 
 
 
 
0
0


0
0
#HDR
-1
-1
#GR
nm
%R
1.0
0.0
2500.000000
-10.000000
226
8
63.097361
23.385596
#DATA
2500.000000	28.881002
2490.000000	31.331489
2480.000000	31.284536
2470.000000	28.358625
2460.000000	29.641502
2450.000000	30.317524
2440.000000	33.772839
2430.000000	33.764965
2420.000000	33.616832
2410.000000	31.801558
2400.000000	33.034980
2390.000000	32.454592
2380.000000	33.956690
2370.000000	32.526340
2360.000000	33.823968
2350.000000	34.020467
2340.000000	33.504907
2330.000000	32.367487
2320.000000	33.720846
2310.000000	32.958444
2300.000000	32.520246
2290.000000	33.276175
2280.000000	34.302013
2270.000000	34.806039
2260.000000	35.021679
2250.000000	36.052395
2240.000000	36.276032
2230.000000	36.592538
2220.000000	35.631972
2210.000000	35.510247
2200.000000	35.075013
2190.000000	34.975877
2180.000000	36.160036
2170.000000	37.021067
2160.000000	37.623488
2150.000000	37.616092
2140.000000	37.557489
2130.000000	38.775238
2120.000000	38.529786
2110.000000	38.217128
2100.000000	38.155802
2090.000000	37.740842
2080.000000	36.811206
2070.000000	36.551353
2060.000000	35.827820
2050.000000	35.798243
2040.000000	36.388242
2030.000000	36.536397
2020.000000	35.995728
2010.000000	35.319030
2000.000000	34.336959
1990.000000	33.503744
1980.000000	32.976453
1970.000000	32.405486
1960.000000	31.761379
1950.000000	32.582888
1940.000000	34.325549
1930.000000	36.355076
1920.000000	39.096791
1910.000000	42.140498
1900.000000	44.502915
1890.000000	46.035993
1880.000000	47.049139
1870.000000	47.367180
1860.000000	47.325453
1850.000000	47.323351
1840.000000	47.197286
1830.000000	47.273605
1820.000000	46.982721
1810.000000	46.871768
1800.000000	46.834218
1790.000000	46.750705
1780.000000	46.587646
1770.000000	46.488782
1760.000000	46.386819
1750.000000	46.121718
1740.000000	46.199680
1730.000000	46.756858
1720.000000	46.991419
1710.000000	47.268260
1700.000000	47.670533
1690.000000	48.316965
1680.000000	48.975077
1670.000000	49.192490
1660.000000	49.166640
1650.000000	49.054235
1640.000000	48.827755
1630.000000	48.739643
1620.000000	48.538972
1610.000000	48.310485
1600.000000	48.086031
1590.000000	47.945057
1580.000000	47.842693
1570.000000	47.739410
1560.000000	47.548816
1550.000000	47.170983
1540.000000	46.865936
1530.000000	46.652178
1520.000000	46.591665
1510.000000	46.553084
1500.000000	46.616370
1490.000000	46.710192
1480.000000	46.961231
1470.000000	47.115570
1460.000000	47.582843
1450.000000	48.050093
1440.000000	48.511326
1430.000000	48.965752
1420.000000	49.957402
1410.000000	51.225775
1400.000000	52.241512
1390.000000	52.697632
1380.000000	52.761575
1370.000000	53.014955
1360.000000	52.917898
1350.000000	52.471304
1340.000000	52.423186
1330.000000	53.350371
1320.000000	54.300462
1310.000000	54.983146
1300.000000	55.258985
1290.000000	55.533096
1280.000000	55.352595
1270.000000	55.025028
1260.000000	54.923253
1250.000000	54.932708
1240.000000	55.118721
1230.000000	55.146619
1220.000000	55.067818
1210.000000	54.994284
1200.000000	55.131406
1190.000000	55.374430
1180.000000	55.426083
1170.000000	55.746395
1160.000000	55.908596
1150.000000	56.248073
1140.000000	56.337380
1130.000000	56.319990
1120.000000	56.218754
1110.000000	56.351736
1100.000000	56.341672
1090.000000	56.475507
1080.000000	56.426822
1070.000000	56.377588
1060.000000	56.310206
1050.000000	56.333411
1040.000000	56.157642
1030.000000	56.183346
1020.000000	56.594442
1010.000000	56.912553
1000.000000	56.971621
990.000000	57.046606
980.000000	57.020545
970.000000	57.246412
960.000000	57.376197
950.000000	57.346337
940.000000	57.423402
930.000000	57.546267
920.000000	57.620632
910.000000	57.751931
900.000000	57.975112
890.000000	58.011616
880.000000	58.080882
870.000000	58.124461
860.000000	58.201135
850.000000	61.316720
840.000000	60.989800
830.000000	60.987719
820.000000	61.366256
810.000000	61.419334
800.000000	61.544853
790.000000	61.768935
780.000000	61.668849
770.000000	61.748129
760.000000	62.004601
750.000000	62.029081
740.000000	62.239818
730.000000	62.368824
720.000000	62.434322
710.000000	62.285815
700.000000	62.510879
690.000000	62.535634
680.000000	62.624008
670.000000	62.862383
660.000000	62.877355
650.000000	62.831616
640.000000	63.004708
630.000000	63.088772
620.000000	62.962419
610.000000	63.097361
600.000000	63.097151
590.000000	63.084509
580.000000	63.077468
570.000000	63.018817
560.000000	63.032573
550.000000	62.852400
540.000000	62.830629
530.000000	62.679872
520.000000	62.384262
510.000000	62.105869
500.000000	61.914257
490.000000	61.674152
480.000000	61.465077
470.000000	60.866047
460.000000	60.217715
450.000000	59.641168
440.000000	58.628814
430.000000	57.457264
420.000000	55.885397
410.000000	54.132844
400.000000	52.041266
390.000000	49.459710
380.000000	46.700305
370.000000	43.704876
360.000000	40.095670
350.000000	36.754185
340.000000	33.698063
330.000000	30.036406
320.000000	27.816635
310.000000	26.182449
300.000000	28.957823
290.000000	25.906768
280.000000	23.600254
270.000000	23.385596
260.000000	23.669369
250.000000	23.478296
