PE UV       SUBTECH     SPECTRUM    ASCII       PEDS        4.00        
   -1
S-11775-005.Sample.Raw.asc
23/01/26
18:01:51.00
23/01/26
18:01:51.00
Administrator

250.000000
1
Lambda 750
750N8071901
PerkinElmer UV WinLab 6.0.4.0738 / 1.61.00 Lambda 900

0
0
3350/servo 860.8/2
0
0
UV/VIS
1
1
1
CommonBeamDepol,150mm sphere / downward view
0
0
0
0
Program
Program
3350/servo 860.8/2
3350/0.2 860.8/0.2
3350/0.2 860.8/0.2
0
1
 
 
 
0
 
860.8
319.2
860.8
Front
100
on
 
 
0
0
0
 
0
 
 
 
0
 
 
0
0
0
0
0
 
 
 
 
0
0


0
0
#HDR
-1
-1
#GR
nm
%R
1.0
0.0
2500.000000
-10.000000
226
8
59.387847
13.755605
#DATA
2500.000000	20.889352
2490.000000	20.398782
2480.000000	22.193155
2470.000000	21.115195
2460.000000	23.058780
2450.000000	21.168065
2440.000000	22.642979
2430.000000	25.152815
2420.000000	22.066253
2410.000000	25.289674
2400.000000	25.885851
2390.000000	24.084974
2380.000000	23.125435
2370.000000	23.623395
2360.000000	24.291518
2350.000000	25.168127
2340.000000	24.231030
2330.000000	23.246674
2320.000000	22.640684
2310.000000	23.147150
2300.000000	22.349873
2290.000000	23.352363
2280.000000	24.014979
2270.000000	25.241938
2260.000000	27.080213
2250.000000	28.268504
2240.000000	27.997429
2230.000000	28.535006
2220.000000	28.101211
2210.000000	27.541102
2200.000000	26.437083
2190.000000	26.498283
2180.000000	27.371092
2170.000000	28.717071
2160.000000	28.010147
2150.000000	29.404703
2140.000000	30.290350
2130.000000	29.957929
2120.000000	30.669873
2110.000000	30.821180
2100.000000	30.409661
2090.000000	29.776723
2080.000000	29.607389
2070.000000	28.560251
2060.000000	28.415100
2050.000000	28.779501
2040.000000	29.293683
2030.000000	29.318310
2020.000000	28.735743
2010.000000	28.191417
2000.000000	27.707501
1990.000000	26.636841
1980.000000	25.542001
1970.000000	24.750095
1960.000000	24.695582
1950.000000	24.806278
1940.000000	26.313846
1930.000000	28.901366
1920.000000	31.791046
1910.000000	35.202868
1900.000000	36.701388
1890.000000	37.763253
1880.000000	39.348597
1870.000000	39.007357
1860.000000	39.064538
1850.000000	39.385535
1840.000000	39.432789
1830.000000	39.097494
1820.000000	38.956724
1810.000000	38.506059
1800.000000	38.009256
1790.000000	37.814447
1780.000000	37.676570
1770.000000	37.294616
1760.000000	37.062815
1750.000000	36.830252
1740.000000	36.962492
1730.000000	37.725625
1720.000000	38.283787
1710.000000	38.434983
1700.000000	38.871152
1690.000000	39.843149
1680.000000	40.510936
1670.000000	40.949223
1660.000000	41.117418
1650.000000	41.132871
1640.000000	41.036091
1630.000000	40.874707
1620.000000	40.621408
1610.000000	40.214922
1600.000000	39.963343
1590.000000	39.785065
1580.000000	39.732351
1570.000000	39.920782
1560.000000	39.800182
1550.000000	39.569735
1540.000000	39.224682
1530.000000	38.953983
1520.000000	38.627765
1510.000000	38.475371
1500.000000	38.514457
1490.000000	38.728652
1480.000000	38.971191
1470.000000	39.164005
1460.000000	39.337241
1450.000000	39.604215
1440.000000	39.816550
1430.000000	40.228085
1420.000000	41.353182
1410.000000	42.806466
1400.000000	44.312001
1390.000000	44.779464
1380.000000	44.501489
1370.000000	45.121908
1360.000000	44.817860
1350.000000	44.653715
1340.000000	45.176719
1330.000000	46.520780
1320.000000	47.436661
1310.000000	47.904208
1300.000000	48.279724
1290.000000	48.442715
1280.000000	48.447310
1270.000000	47.905380
1260.000000	47.652348
1250.000000	47.611761
1240.000000	48.019481
1230.000000	48.104962
1220.000000	47.873638
1210.000000	47.445029
1200.000000	47.493205
1190.000000	48.042063
1180.000000	47.983908
1170.000000	48.294538
1160.000000	48.581757
1150.000000	48.460893
1140.000000	48.556311
1130.000000	48.628479
1120.000000	48.481664
1110.000000	48.641434
1100.000000	48.539121
1090.000000	48.330692
1080.000000	48.202501
1070.000000	47.987328
1060.000000	47.745454
1050.000000	47.486197
1040.000000	47.123564
1030.000000	47.090799
1020.000000	47.440989
1010.000000	47.647180
1000.000000	47.603407
990.000000	47.389046
980.000000	47.469439
970.000000	47.488327
960.000000	47.358580
950.000000	47.288706
940.000000	47.237179
930.000000	47.045068
920.000000	46.858416
910.000000	47.246420
900.000000	47.257902
890.000000	47.481610
880.000000	47.537008
870.000000	47.984233
860.000000	48.358649
850.000000	59.387847
840.000000	59.336968
830.000000	59.253846
820.000000	59.098255
810.000000	59.011202
800.000000	59.302236
790.000000	59.176230
780.000000	59.170955
770.000000	59.009634
760.000000	58.936135
750.000000	58.992167
740.000000	58.803875
730.000000	58.786251
720.000000	58.545185
710.000000	58.551151
700.000000	58.225234
690.000000	58.126060
680.000000	57.975355
670.000000	57.805620
660.000000	57.438131
650.000000	57.296030
640.000000	57.025906
630.000000	56.569703
620.000000	56.133892
610.000000	55.667558
600.000000	55.107079
590.000000	54.656948
580.000000	53.923820
570.000000	53.321023
560.000000	52.452606
550.000000	51.550330
540.000000	50.685612
530.000000	49.860528
520.000000	48.625750
510.000000	47.074011
500.000000	45.639287
490.000000	44.725405
480.000000	43.596887
470.000000	41.549211
460.000000	39.649807
450.000000	37.999962
440.000000	36.130857
430.000000	34.423521
420.000000	32.661176
410.000000	31.010273
400.000000	29.774605
390.000000	28.855606
380.000000	27.747025
370.000000	26.217998
360.000000	23.483024
350.000000	20.671176
340.000000	18.057651
330.000000	16.012850
320.000000	14.531830
310.000000	14.256349
300.000000	14.688475
290.000000	13.885847
280.000000	13.755605
270.000000	14.161944
260.000000	15.084322
250.000000	15.769197
