PE UV       SUBTECH     SPECTRUM    ASCII       PEDS        4.00        
   -1
S-11753-012.Sample.Raw.asc
23/05/05
16:15:03.00
23/05/05
16:15:03.00
Administrator

250.000000
1
Lambda 750
750N8071901
PerkinElmer UV WinLab 6.0.4.0738 / 1.61.00 Lambda 900

0
0
3350/servo 860.8/2
0
0
UV/VIS
1
1
1
CommonBeamDepol,150mm sphere / downward view
0
0
0
0
Program
Program
3350/servo 860.8/2
3350/0.2 860.8/0.2
3350/0.2 860.8/0.2
0
1
 
 
 
0
 
860.8
319.2
860.8
Front
100
on
 
 
0
0
0
 
0
 
 
 
0
 
 
0
0
0
0
0
 
 
 
 
0
0


0
0
#HDR
-1
-1
#GR
nm
%R
1.0
0.0
2500.000000
-10.000000
226
8
60.994764
21.962048
#DATA
2500.000000	25.632875
2490.000000	23.444324
2480.000000	23.607975
2470.000000	22.197137
2460.000000	21.962048
2450.000000	25.876544
2440.000000	29.915116
2430.000000	25.357681
2420.000000	30.151113
2410.000000	27.579506
2400.000000	26.528041
2390.000000	27.428414
2380.000000	31.367041
2370.000000	30.476537
2360.000000	29.941989
2350.000000	27.851530
2340.000000	30.744614
2330.000000	31.890733
2320.000000	28.846713
2310.000000	28.582570
2300.000000	26.563872
2290.000000	27.290442
2280.000000	28.285910
2270.000000	28.943847
2260.000000	30.250241
2250.000000	33.055597
2240.000000	33.150481
2230.000000	32.947742
2220.000000	32.130656
2210.000000	32.262977
2200.000000	30.112957
2190.000000	28.517051
2180.000000	29.185419
2170.000000	33.232718
2160.000000	32.844844
2150.000000	32.157655
2140.000000	34.684733
2130.000000	34.905538
2120.000000	34.780262
2110.000000	34.832154
2100.000000	34.995154
2090.000000	33.507352
2080.000000	32.301597
2070.000000	31.120547
2060.000000	31.003270
2050.000000	31.534885
2040.000000	31.200830
2030.000000	31.523235
2020.000000	30.830129
2010.000000	30.059008
2000.000000	29.140384
1990.000000	27.495887
1980.000000	26.202526
1970.000000	24.793382
1960.000000	24.800598
1950.000000	25.681761
1940.000000	27.518319
1930.000000	30.811845
1920.000000	34.414381
1910.000000	39.057699
1900.000000	42.691660
1890.000000	44.503663
1880.000000	47.154802
1870.000000	47.774045
1860.000000	47.423385
1850.000000	46.842679
1840.000000	47.225071
1830.000000	46.735953
1820.000000	46.758389
1810.000000	46.982874
1800.000000	46.097561
1790.000000	46.071173
1780.000000	45.695599
1770.000000	45.372969
1760.000000	44.948385
1750.000000	45.220352
1740.000000	44.943033
1730.000000	45.651179
1720.000000	46.160613
1710.000000	46.458093
1700.000000	47.374788
1690.000000	48.230490
1680.000000	48.640097
1670.000000	48.872258
1660.000000	49.169869
1650.000000	49.063171
1640.000000	48.818764
1630.000000	48.622988
1620.000000	47.968800
1610.000000	47.602066
1600.000000	47.080348
1590.000000	46.729756
1580.000000	46.413893
1570.000000	46.171689
1560.000000	45.918744
1550.000000	45.277075
1540.000000	44.688842
1530.000000	44.433778
1520.000000	44.146264
1510.000000	43.952485
1500.000000	43.976958
1490.000000	44.050283
1480.000000	44.206195
1470.000000	44.650641
1460.000000	45.142159
1450.000000	45.587900
1440.000000	45.594873
1430.000000	46.484502
1420.000000	48.698589
1410.000000	51.437391
1400.000000	53.700878
1390.000000	54.284686
1380.000000	54.007154
1370.000000	54.282412
1360.000000	54.144479
1350.000000	53.157914
1340.000000	52.169838
1330.000000	53.351114
1320.000000	55.308039
1310.000000	56.926286
1300.000000	57.934362
1290.000000	58.758565
1280.000000	58.357146
1270.000000	57.588294
1260.000000	56.877866
1250.000000	57.279160
1240.000000	57.384986
1230.000000	57.443811
1220.000000	57.022620
1210.000000	56.656876
1200.000000	57.020634
1190.000000	57.309520
1180.000000	57.367773
1170.000000	57.816481
1160.000000	57.984974
1150.000000	57.979467
1140.000000	58.259078
1130.000000	58.587265
1120.000000	58.701333
1110.000000	58.664041
1100.000000	58.698688
1090.000000	58.392302
1080.000000	58.060109
1070.000000	57.871638
1060.000000	57.818106
1050.000000	57.564232
1040.000000	57.231942
1030.000000	57.755651
1020.000000	58.447573
1010.000000	59.111640
1000.000000	59.208654
990.000000	58.911896
980.000000	58.855291
970.000000	58.889795
960.000000	58.719661
950.000000	59.160858
940.000000	59.003660
930.000000	58.474346
920.000000	58.786173
910.000000	58.717029
900.000000	58.867363
890.000000	60.319584
880.000000	59.221398
870.000000	57.946344
860.000000	58.475290
850.000000	59.732269
840.000000	59.629548
830.000000	59.849605
820.000000	60.195717
810.000000	60.287110
800.000000	60.055318
790.000000	60.207967
780.000000	60.448250
770.000000	60.231939
760.000000	60.392237
750.000000	60.411462
740.000000	60.726170
730.000000	60.654285
720.000000	60.639257
710.000000	60.883307
700.000000	60.837740
690.000000	60.728641
680.000000	60.939394
670.000000	60.830766
660.000000	60.972295
650.000000	60.871461
640.000000	60.800288
630.000000	60.994764
620.000000	60.831490
610.000000	60.922815
600.000000	60.974178
590.000000	60.747728
580.000000	60.670826
570.000000	60.600630
560.000000	60.256112
550.000000	60.282839
540.000000	60.026173
530.000000	59.875360
520.000000	59.870365
510.000000	59.584349
500.000000	59.225748
490.000000	58.943101
480.000000	58.454201
470.000000	58.111903
460.000000	57.630671
450.000000	56.775258
440.000000	55.539481
430.000000	54.282130
420.000000	52.666092
410.000000	50.318316
400.000000	47.991688
390.000000	45.542760
380.000000	42.934736
370.000000	40.566275
360.000000	37.648629
350.000000	34.624439
340.000000	32.229057
330.000000	28.618909
320.000000	27.653860
310.000000	25.013852
300.000000	26.212550
290.000000	23.556766
280.000000	22.327394
270.000000	24.029409
260.000000	26.470022
250.000000	29.989161
