PE UV       SUBTECH     SPECTRUM    ASCII       PEDS        4.00        
   -1
S-11775-020.Sample.Raw.asc
23/05/05
16:06:19.00
23/05/05
16:06:19.00
Administrator

250.000000
1
Lambda 750
750N8071901
PerkinElmer UV WinLab 6.0.4.0738 / 1.61.00 Lambda 900

0
0
3350/servo 860.8/2
0
0
UV/VIS
1
1
1
CommonBeamDepol,150mm sphere / downward view
0
0
0
0
Program
Program
3350/servo 860.8/2
3350/0.2 860.8/0.2
3350/0.2 860.8/0.2
0
1
 
 
 
0
 
860.8
319.2
860.8
Front
100
on
 
 
0
0
0
 
0
 
 
 
0
 
 
0
0
0
0
0
 
 
 
 
0
0


0
0
#HDR
-1
-1
#GR
nm
%R
1.0
0.0
2500.000000
-10.000000
226
8
59.577593
15.863709
#DATA
2500.000000	30.638733
2490.000000	26.421622
2480.000000	31.686029
2470.000000	26.636265
2460.000000	29.794885
2450.000000	26.961844
2440.000000	34.714383
2430.000000	32.290144
2420.000000	34.967929
2410.000000	34.114705
2400.000000	28.371028
2390.000000	34.414610
2380.000000	34.331359
2370.000000	37.260274
2360.000000	35.858423
2350.000000	34.844381
2340.000000	34.366626
2330.000000	32.724901
2320.000000	33.679491
2310.000000	33.122908
2300.000000	30.686340
2290.000000	31.824110
2280.000000	32.119860
2270.000000	36.719296
2260.000000	35.899413
2250.000000	37.361378
2240.000000	37.130089
2230.000000	37.334156
2220.000000	35.878139
2210.000000	35.671718
2200.000000	35.877361
2190.000000	34.890994
2180.000000	35.209759
2170.000000	37.466532
2160.000000	36.409457
2150.000000	37.113011
2140.000000	38.240972
2130.000000	39.135815
2120.000000	37.986324
2110.000000	38.815460
2100.000000	37.529473
2090.000000	38.274823
2080.000000	37.126440
2070.000000	36.662362
2060.000000	35.609994
2050.000000	36.079178
2040.000000	35.876608
2030.000000	36.310690
2020.000000	35.168643
2010.000000	34.859765
2000.000000	34.757071
1990.000000	33.853748
1980.000000	32.939046
1970.000000	31.688619
1960.000000	30.935821
1950.000000	31.009939
1940.000000	32.389096
1930.000000	36.264852
1920.000000	37.716106
1910.000000	42.543873
1900.000000	44.126897
1890.000000	44.618444
1880.000000	46.510286
1870.000000	47.118586
1860.000000	46.925847
1850.000000	46.193428
1840.000000	46.654076
1830.000000	46.463459
1820.000000	46.565965
1810.000000	46.564343
1800.000000	45.705100
1790.000000	46.047552
1780.000000	45.378176
1770.000000	44.892622
1760.000000	44.878825
1750.000000	45.261055
1740.000000	45.347148
1730.000000	45.492409
1720.000000	46.061560
1710.000000	46.334839
1700.000000	46.901232
1690.000000	47.498025
1680.000000	47.684926
1670.000000	47.736037
1660.000000	48.129163
1650.000000	47.806691
1640.000000	47.661138
1630.000000	47.816536
1620.000000	47.478065
1610.000000	47.162930
1600.000000	47.014953
1590.000000	46.751832
1580.000000	46.791068
1570.000000	46.723219
1560.000000	46.413106
1550.000000	46.323991
1540.000000	45.941738
1530.000000	45.700255
1520.000000	45.430538
1510.000000	45.283866
1500.000000	45.381378
1490.000000	45.310292
1480.000000	45.578276
1470.000000	45.855123
1460.000000	45.790411
1450.000000	45.957200
1440.000000	45.508585
1430.000000	45.933428
1420.000000	47.844008
1410.000000	50.357322
1400.000000	52.469697
1390.000000	52.615337
1380.000000	52.157979
1370.000000	52.598272
1360.000000	52.206466
1350.000000	50.975800
1340.000000	49.834119
1330.000000	50.025028
1320.000000	51.156033
1310.000000	52.524799
1300.000000	53.617256
1290.000000	54.256551
1280.000000	53.888332
1270.000000	53.149366
1260.000000	52.666290
1250.000000	52.823380
1240.000000	53.048445
1230.000000	53.130568
1220.000000	53.086199
1210.000000	52.719634
1200.000000	52.664794
1190.000000	52.861572
1180.000000	53.026162
1170.000000	53.354444
1160.000000	53.472064
1150.000000	53.406534
1140.000000	53.826465
1130.000000	54.019064
1120.000000	53.649985
1110.000000	53.798618
1100.000000	54.242059
1090.000000	54.191774
1080.000000	54.009708
1070.000000	53.934008
1060.000000	54.126513
1050.000000	53.990329
1040.000000	53.995580
1030.000000	54.543310
1020.000000	55.311608
1010.000000	56.067109
1000.000000	56.136521
990.000000	55.707872
980.000000	55.648457
970.000000	55.446111
960.000000	55.301817
950.000000	55.418536
940.000000	55.272537
930.000000	54.981145
920.000000	54.860205
910.000000	55.069089
900.000000	54.572322
890.000000	55.102676
880.000000	54.518671
870.000000	54.212602
860.000000	53.875070
850.000000	58.744548
840.000000	59.249666
830.000000	58.889155
820.000000	59.577593
810.000000	59.029257
800.000000	59.384941
790.000000	59.360869
780.000000	59.360376
770.000000	58.798698
760.000000	58.755991
750.000000	58.936397
740.000000	58.824982
730.000000	58.716019
720.000000	58.655427
710.000000	58.509420
700.000000	58.251944
690.000000	58.017819
680.000000	57.743904
670.000000	57.487809
660.000000	57.276269
650.000000	56.836714
640.000000	56.372841
630.000000	56.183689
620.000000	55.716063
610.000000	55.334334
600.000000	54.880213
590.000000	54.246764
580.000000	53.551898
570.000000	52.970538
560.000000	52.146357
550.000000	51.462428
540.000000	50.453913
530.000000	49.578100
520.000000	48.557987
510.000000	47.428881
500.000000	46.151625
490.000000	44.982484
480.000000	43.571623
470.000000	42.152836
460.000000	40.475976
450.000000	38.732973
440.000000	36.994248
430.000000	35.418024
420.000000	33.449926
410.000000	31.578764
400.000000	29.518439
390.000000	27.521985
380.000000	25.693675
370.000000	23.984765
360.000000	22.082349
350.000000	19.942730
340.000000	19.183930
330.000000	17.250591
320.000000	17.270216
310.000000	15.863709
300.000000	21.593607
290.000000	21.413714
280.000000	22.107762
270.000000	23.100247
260.000000	24.736795
250.000000	27.324022
