PE UV       SUBTECH     SPECTRUM    ASCII       PEDS        4.00        
   -1
S-11771-003.Sample.Raw.asc
23/01/26
17:19:40.00
23/01/26
17:19:40.00
Administrator

250.000000
1
Lambda 750
750N8071901
PerkinElmer UV WinLab 6.0.4.0738 / 1.61.00 Lambda 900

0
0
3350/servo 860.8/2
0
0
UV/VIS
1
1
1
CommonBeamDepol,150mm sphere / downward view
0
0
0
0
Program
Program
3350/servo 860.8/2
3350/0.2 860.8/0.2
3350/0.2 860.8/0.2
0
1
 
 
 
0
 
860.8
319.2
860.8
Front
100
on
 
 
0
0
0
 
0
 
 
 
0
 
 
0
0
0
0
0
 
 
 
 
0
0


0
0
#HDR
-1
-1
#GR
nm
%R
1.0
0.0
2500.000000
-10.000000
226
8
79.363946
20.168609
#DATA
2500.000000	41.048218
2490.000000	41.659433
2480.000000	43.830390
2470.000000	42.848988
2460.000000	43.381495
2450.000000	42.677591
2440.000000	43.735429
2430.000000	45.863609
2420.000000	45.862993
2410.000000	46.539946
2400.000000	46.388690
2390.000000	46.296587
2380.000000	45.133904
2370.000000	46.322499
2360.000000	46.356666
2350.000000	47.110769
2340.000000	46.421030
2330.000000	46.121694
2320.000000	45.022344
2310.000000	44.638230
2300.000000	44.768440
2290.000000	45.519794
2280.000000	46.331854
2270.000000	47.400626
2260.000000	49.323618
2250.000000	50.161597
2240.000000	50.561431
2230.000000	50.000907
2220.000000	49.372853
2210.000000	48.812906
2200.000000	48.764766
2190.000000	48.484236
2180.000000	49.132886
2170.000000	50.634026
2160.000000	51.618488
2150.000000	51.993628
2140.000000	53.153986
2130.000000	52.764785
2120.000000	53.600115
2110.000000	53.334332
2100.000000	52.901453
2090.000000	52.036860
2080.000000	51.174190
2070.000000	49.858416
2060.000000	49.676981
2050.000000	49.939010
2040.000000	50.606143
2030.000000	50.516068
2020.000000	50.065338
2010.000000	49.407583
2000.000000	48.723398
1990.000000	47.855356
1980.000000	46.818184
1970.000000	46.025560
1960.000000	46.103054
1950.000000	46.499384
1940.000000	48.339210
1930.000000	50.895473
1920.000000	53.851741
1910.000000	57.423712
1900.000000	60.290949
1890.000000	61.788793
1880.000000	63.027921
1870.000000	63.510083
1860.000000	63.453117
1850.000000	63.253677
1840.000000	63.187821
1830.000000	63.087102
1820.000000	63.061729
1810.000000	63.136982
1800.000000	62.893829
1790.000000	62.695091
1780.000000	62.639831
1770.000000	62.450027
1760.000000	62.331847
1750.000000	62.184116
1740.000000	62.193235
1730.000000	62.744825
1720.000000	63.150982
1710.000000	63.319798
1700.000000	63.901108
1690.000000	64.748435
1680.000000	65.273733
1670.000000	65.575343
1660.000000	65.777964
1650.000000	65.587601
1640.000000	65.507628
1630.000000	65.377849
1620.000000	65.149268
1610.000000	64.923433
1600.000000	64.701103
1590.000000	64.644685
1580.000000	64.419334
1570.000000	64.348937
1560.000000	64.211557
1550.000000	63.765856
1540.000000	63.507605
1530.000000	63.364011
1520.000000	63.217601
1510.000000	63.282213
1500.000000	63.412159
1490.000000	63.591477
1480.000000	63.807632
1470.000000	64.122327
1460.000000	64.572983
1450.000000	65.080728
1440.000000	65.581605
1430.000000	66.099215
1420.000000	67.023038
1410.000000	68.251510
1400.000000	69.390180
1390.000000	70.040687
1380.000000	70.062295
1370.000000	69.982660
1360.000000	69.978412
1350.000000	69.834735
1340.000000	70.184238
1330.000000	71.320544
1320.000000	72.242654
1310.000000	72.771618
1300.000000	72.991646
1290.000000	72.939289
1280.000000	72.928634
1270.000000	72.667290
1260.000000	72.747332
1250.000000	72.857061
1240.000000	73.106788
1230.000000	72.987176
1220.000000	72.748777
1210.000000	72.749879
1200.000000	72.964911
1190.000000	73.299147
1180.000000	73.343148
1170.000000	73.662806
1160.000000	73.950836
1150.000000	73.979424
1140.000000	74.139913
1130.000000	74.208092
1120.000000	74.452359
1110.000000	74.404104
1100.000000	74.454504
1090.000000	74.536829
1080.000000	74.569054
1070.000000	74.625516
1060.000000	74.513053
1050.000000	74.436325
1040.000000	74.219445
1030.000000	74.350715
1020.000000	74.767923
1010.000000	75.157939
1000.000000	75.207188
990.000000	75.178880
980.000000	75.238024
970.000000	75.450103
960.000000	75.524309
950.000000	75.607041
940.000000	75.739519
930.000000	75.941332
920.000000	76.026447
910.000000	76.369954
900.000000	76.471042
890.000000	76.516659
880.000000	76.365404
870.000000	76.700494
860.000000	77.289681
850.000000	77.852084
840.000000	78.254819
830.000000	77.805184
820.000000	78.072814
810.000000	78.110819
800.000000	78.150675
790.000000	78.411504
780.000000	78.437475
770.000000	78.650461
760.000000	78.607159
750.000000	78.788428
740.000000	78.914057
730.000000	78.902933
720.000000	78.750856
710.000000	79.015367
700.000000	79.060126
690.000000	79.163620
680.000000	79.255559
670.000000	79.306394
660.000000	79.264744
650.000000	79.363946
640.000000	79.333364
630.000000	79.337506
620.000000	79.286102
610.000000	79.163568
600.000000	79.014115
590.000000	79.049014
580.000000	78.673299
570.000000	78.626374
560.000000	78.463096
550.000000	77.970640
540.000000	77.533208
530.000000	77.267212
520.000000	76.794377
510.000000	76.219312
500.000000	75.541990
490.000000	75.032197
480.000000	74.267998
470.000000	73.404726
460.000000	72.485839
450.000000	71.254058
440.000000	69.713797
430.000000	67.968355
420.000000	65.577818
410.000000	63.051312
400.000000	60.014786
390.000000	56.621539
380.000000	52.830473
370.000000	48.573945
360.000000	44.726040
350.000000	40.857895
340.000000	36.627962
330.000000	32.998042
320.000000	30.126065
310.000000	26.824702
300.000000	26.238870
290.000000	23.563589
280.000000	21.603308
270.000000	20.999871
260.000000	20.831245
250.000000	20.168609
