PE UV       SUBTECH     SPECTRUM    ASCII       PEDS        4.00        
   -1
S-11768-012.Sample.Raw.asc
23/05/05
14:16:13.00
23/05/05
14:16:13.00
Administrator

250.000000
1
Lambda 750
750N8071901
PerkinElmer UV WinLab 6.0.4.0738 / 1.61.00 Lambda 900

0
0
3350/servo 860.8/2
0
0
UV/VIS
1
1
1
CommonBeamDepol,150mm sphere / downward view
0
0
0
0
Program
Program
3350/servo 860.8/2
3350/0.2 860.8/0.2
3350/0.2 860.8/0.2
0
1
 
 
 
0
 
860.8
319.2
860.8
Front
100
on
 
 
0
0
0
 
0
 
 
 
0
 
 
0
0
0
0
0
 
 
 
 
0
0


0
0
#HDR
-1
-1
#GR
nm
%R
1.0
0.0
2500.000000
-10.000000
226
8
74.188294
18.087824
#DATA
2500.000000	22.417069
2490.000000	23.610811
2480.000000	22.276860
2470.000000	26.386573
2460.000000	18.087824
2450.000000	29.092247
2440.000000	30.747355
2430.000000	23.047618
2420.000000	30.605383
2410.000000	26.673345
2400.000000	30.394089
2390.000000	24.131834
2380.000000	29.400749
2370.000000	31.278782
2360.000000	24.445587
2350.000000	24.742855
2340.000000	28.860494
2330.000000	28.926929
2320.000000	28.103668
2310.000000	31.081926
2300.000000	26.624968
2290.000000	24.769157
2280.000000	29.796755
2270.000000	30.355470
2260.000000	34.032693
2250.000000	34.765637
2240.000000	31.822969
2230.000000	30.452180
2220.000000	31.788299
2210.000000	31.505967
2200.000000	30.242201
2190.000000	30.226969
2180.000000	29.660073
2170.000000	31.902713
2160.000000	32.874707
2150.000000	34.528464
2140.000000	35.117865
2130.000000	36.914200
2120.000000	35.177971
2110.000000	35.407730
2100.000000	34.859904
2090.000000	35.857687
2080.000000	32.229955
2070.000000	32.721224
2060.000000	29.806075
2050.000000	29.754684
2040.000000	31.865563
2030.000000	31.791146
2020.000000	31.246071
2010.000000	30.383186
2000.000000	28.577317
1990.000000	26.847336
1980.000000	25.726859
1970.000000	24.479996
1960.000000	23.656718
1950.000000	26.461657
1940.000000	27.072540
1930.000000	31.202501
1920.000000	37.017537
1910.000000	43.068276
1900.000000	47.785128
1890.000000	51.518475
1880.000000	53.888560
1870.000000	54.263092
1860.000000	54.647608
1850.000000	53.836582
1840.000000	53.928722
1830.000000	53.852369
1820.000000	53.061768
1810.000000	53.094166
1800.000000	52.711752
1790.000000	52.384608
1780.000000	51.955472
1770.000000	51.481195
1760.000000	50.625671
1750.000000	49.967808
1740.000000	50.882342
1730.000000	51.792993
1720.000000	52.474091
1710.000000	53.228235
1700.000000	53.813528
1690.000000	55.422977
1680.000000	56.656757
1670.000000	57.346359
1660.000000	57.322191
1650.000000	56.997279
1640.000000	56.859432
1630.000000	56.104411
1620.000000	55.433138
1610.000000	54.803604
1600.000000	54.251809
1590.000000	53.655844
1580.000000	53.015565
1570.000000	52.806987
1560.000000	52.205785
1550.000000	51.353465
1540.000000	50.520933
1530.000000	49.928738
1520.000000	49.624160
1510.000000	49.360437
1500.000000	49.323907
1490.000000	49.701925
1480.000000	50.100109
1470.000000	50.690014
1460.000000	51.369349
1450.000000	52.327985
1440.000000	52.783350
1430.000000	54.424105
1420.000000	57.744319
1410.000000	61.454189
1400.000000	64.377219
1390.000000	65.165576
1380.000000	65.372317
1370.000000	65.927996
1360.000000	66.019682
1350.000000	65.269244
1340.000000	64.478480
1330.000000	65.020060
1320.000000	66.538924
1310.000000	67.544273
1300.000000	68.420895
1290.000000	69.285431
1280.000000	68.532039
1270.000000	68.016608
1260.000000	67.612994
1250.000000	67.753696
1240.000000	67.819161
1230.000000	67.763987
1220.000000	67.529924
1210.000000	67.205265
1200.000000	67.244224
1190.000000	67.534891
1180.000000	67.968733
1170.000000	68.666323
1160.000000	69.213166
1150.000000	69.440481
1140.000000	69.861316
1130.000000	70.309260
1120.000000	70.285543
1110.000000	70.466993
1100.000000	70.472640
1090.000000	70.469368
1080.000000	70.299965
1070.000000	70.204522
1060.000000	70.644838
1050.000000	70.596132
1040.000000	70.582832
1030.000000	71.054626
1020.000000	71.793360
1010.000000	72.731651
1000.000000	72.814925
990.000000	72.459440
980.000000	72.430027
970.000000	72.435187
960.000000	72.501959
950.000000	72.573321
940.000000	72.675517
930.000000	72.325306
920.000000	72.737843
910.000000	72.396131
900.000000	73.405548
890.000000	73.532703
880.000000	74.188294
870.000000	73.431561
860.000000	72.069681
850.000000	72.641750
840.000000	72.265280
830.000000	72.754399
820.000000	73.039491
810.000000	72.713236
800.000000	72.698719
790.000000	72.936673
780.000000	73.338646
770.000000	73.117604
760.000000	73.172224
750.000000	73.358725
740.000000	73.686630
730.000000	73.492040
720.000000	73.900568
710.000000	73.765096
700.000000	73.757733
690.000000	73.668071
680.000000	73.960981
670.000000	73.607216
660.000000	73.938545
650.000000	73.771025
640.000000	73.640023
630.000000	73.760353
620.000000	73.561653
610.000000	73.619131
600.000000	73.475646
590.000000	73.101763
580.000000	72.878045
570.000000	72.808915
560.000000	72.262299
550.000000	72.013054
540.000000	71.442862
530.000000	70.969543
520.000000	70.483691
510.000000	69.710745
500.000000	68.766591
490.000000	67.703272
480.000000	66.671322
470.000000	65.592344
460.000000	63.991588
450.000000	62.217611
440.000000	60.038210
430.000000	57.538434
420.000000	54.350305
410.000000	50.837234
400.000000	47.466960
390.000000	44.333336
380.000000	41.134163
370.000000	38.025942
360.000000	35.065886
350.000000	32.102343
340.000000	30.613329
330.000000	27.492721
320.000000	26.476834
310.000000	24.715066
300.000000	25.182218
290.000000	20.751189
280.000000	20.313862
270.000000	21.553814
260.000000	23.643256
250.000000	26.513026
