PE UV       SUBTECH     SPECTRUM    ASCII       PEDS        4.00        
   -1
S-11768-020.Sample.Raw.asc
23/05/05
14:41:34.00
23/05/05
14:41:34.00
Administrator

250.000000
1
Lambda 750
750N8071901
PerkinElmer UV WinLab 6.0.4.0738 / 1.61.00 Lambda 900

0
0
3350/servo 860.8/2
0
0
UV/VIS
1
1
1
CommonBeamDepol,150mm sphere / downward view
0
0
0
0
Program
Program
3350/servo 860.8/2
3350/0.2 860.8/0.2
3350/0.2 860.8/0.2
0
1
 
 
 
0
 
860.8
319.2
860.8
Front
100
on
 
 
0
0
0
 
0
 
 
 
0
 
 
0
0
0
0
0
 
 
 
 
0
0


0
0
#HDR
-1
-1
#GR
nm
%R
1.0
0.0
2500.000000
-10.000000
226
8
73.311602
18.692125
#DATA
2500.000000	21.267036
2490.000000	19.512072
2480.000000	20.376010
2470.000000	19.895339
2460.000000	21.347008
2450.000000	20.679848
2440.000000	29.997402
2430.000000	22.697700
2420.000000	30.478808
2410.000000	28.209976
2400.000000	27.775966
2390.000000	26.950681
2380.000000	29.673664
2370.000000	27.003789
2360.000000	29.547658
2350.000000	29.483195
2340.000000	25.898421
2330.000000	27.333756
2320.000000	26.604149
2310.000000	25.607917
2300.000000	23.009600
2290.000000	25.200863
2280.000000	27.706752
2270.000000	29.791267
2260.000000	33.418621
2250.000000	32.780571
2240.000000	31.912201
2230.000000	32.867264
2220.000000	30.618087
2210.000000	29.263489
2200.000000	29.119352
2190.000000	28.725286
2180.000000	29.493654
2170.000000	32.185693
2160.000000	30.948184
2150.000000	32.659537
2140.000000	34.241628
2130.000000	34.771723
2120.000000	34.693772
2110.000000	35.007803
2100.000000	34.676918
2090.000000	32.369577
2080.000000	32.082286
2070.000000	30.690100
2060.000000	29.330547
2050.000000	29.767092
2040.000000	29.942219
2030.000000	30.622675
2020.000000	29.672948
2010.000000	28.964814
2000.000000	28.293943
1990.000000	26.467355
1980.000000	25.291263
1970.000000	23.585463
1960.000000	23.240896
1950.000000	25.323290
1940.000000	26.750505
1930.000000	31.146588
1920.000000	35.426354
1910.000000	41.876182
1900.000000	46.690243
1890.000000	50.247109
1880.000000	52.799319
1870.000000	54.270541
1860.000000	53.798780
1850.000000	53.101692
1840.000000	53.160019
1830.000000	52.770474
1820.000000	52.189938
1810.000000	52.714895
1800.000000	51.818921
1790.000000	51.785227
1780.000000	50.826038
1770.000000	50.282536
1760.000000	49.802790
1750.000000	49.772433
1740.000000	50.071900
1730.000000	50.813050
1720.000000	51.501308
1710.000000	52.199392
1700.000000	53.266209
1690.000000	55.029424
1680.000000	56.154152
1670.000000	56.405530
1660.000000	56.448912
1650.000000	56.363878
1640.000000	55.909869
1630.000000	55.616412
1620.000000	54.510704
1610.000000	53.870808
1600.000000	53.256181
1590.000000	52.949401
1580.000000	52.171516
1570.000000	52.036759
1560.000000	51.299085
1550.000000	50.422381
1540.000000	49.695999
1530.000000	49.167374
1520.000000	48.761093
1510.000000	48.538352
1500.000000	48.504355
1490.000000	48.834933
1480.000000	49.191768
1470.000000	49.953901
1460.000000	50.437809
1450.000000	51.543775
1440.000000	52.055431
1430.000000	53.830186
1420.000000	57.119789
1410.000000	60.767542
1400.000000	63.876823
1390.000000	64.702684
1380.000000	64.978829
1370.000000	65.380760
1360.000000	65.535730
1350.000000	64.818589
1340.000000	63.979350
1330.000000	64.539675
1320.000000	65.948769
1310.000000	66.985864
1300.000000	67.924951
1290.000000	68.639084
1280.000000	68.337547
1270.000000	67.683409
1260.000000	67.138838
1250.000000	67.232456
1240.000000	67.165445
1230.000000	67.163144
1220.000000	66.671880
1210.000000	66.584377
1200.000000	66.712009
1190.000000	66.928150
1180.000000	67.558368
1170.000000	68.407099
1160.000000	68.681153
1150.000000	69.139688
1140.000000	69.442550
1130.000000	69.809579
1120.000000	69.494280
1110.000000	69.729674
1100.000000	70.239427
1090.000000	70.265105
1080.000000	70.090687
1070.000000	69.996669
1060.000000	70.260086
1050.000000	70.281467
1040.000000	70.210399
1030.000000	70.825173
1020.000000	71.458100
1010.000000	72.273448
1000.000000	72.445171
990.000000	71.956352
980.000000	72.024196
970.000000	72.078968
960.000000	72.271098
950.000000	72.460838
940.000000	72.019669
930.000000	71.925072
920.000000	72.248966
910.000000	72.313346
900.000000	72.392059
890.000000	73.073128
880.000000	72.763506
870.000000	73.311602
860.000000	72.766236
850.000000	71.751996
840.000000	71.629708
830.000000	72.101666
820.000000	72.293202
810.000000	72.127569
800.000000	72.308280
790.000000	72.603764
780.000000	72.474289
770.000000	72.397606
760.000000	72.690255
750.000000	72.493208
740.000000	72.797442
730.000000	72.810693
720.000000	72.763117
710.000000	72.905252
700.000000	72.882668
690.000000	72.873817
680.000000	73.167995
670.000000	72.871628
660.000000	72.946421
650.000000	72.770125
640.000000	72.505152
630.000000	72.486772
620.000000	72.240807
610.000000	72.169625
600.000000	71.963204
590.000000	71.478931
580.000000	71.199604
570.000000	70.846636
560.000000	70.281573
550.000000	69.736113
540.000000	69.050311
530.000000	68.329909
520.000000	67.621271
510.000000	66.717721
500.000000	65.607903
490.000000	64.339191
480.000000	62.648306
470.000000	61.392847
460.000000	59.623273
450.000000	57.651327
440.000000	54.958709
430.000000	52.041255
420.000000	49.033420
410.000000	45.482977
400.000000	42.137115
390.000000	39.205800
380.000000	36.213115
370.000000	33.408070
360.000000	31.243454
350.000000	28.545665
340.000000	26.179213
330.000000	24.413558
320.000000	23.648780
310.000000	21.481726
300.000000	21.842759
290.000000	18.738401
280.000000	18.692125
270.000000	20.084088
260.000000	21.702723
250.000000	24.210721
