PE UV       SUBTECH     SPECTRUM    ASCII       PEDS        4.00        
   -1
S-11775-008.Sample.Raw.asc
23/01/26
18:10:25.00
23/01/26
18:10:25.00
Administrator

250.000000
1
Lambda 750
750N8071901
PerkinElmer UV WinLab 6.0.4.0738 / 1.61.00 Lambda 900

0
0
3350/servo 860.8/2
0
0
UV/VIS
1
1
1
CommonBeamDepol,150mm sphere / downward view
0
0
0
0
Program
Program
3350/servo 860.8/2
3350/0.2 860.8/0.2
3350/0.2 860.8/0.2
0
1
 
 
 
0
 
860.8
319.2
860.8
Front
100
on
 
 
0
0
0
 
0
 
 
 
0
 
 
0
0
0
0
0
 
 
 
 
0
0


0
0
#HDR
-1
-1
#GR
nm
%R
1.0
0.0
2500.000000
-10.000000
226
8
55.949211
11.769275
#DATA
2500.000000	21.091334
2490.000000	20.123229
2480.000000	20.061141
2470.000000	18.741586
2460.000000	22.730130
2450.000000	20.953453
2440.000000	23.403072
2430.000000	22.616352
2420.000000	23.412698
2410.000000	24.370054
2400.000000	24.648812
2390.000000	23.420421
2380.000000	21.002993
2370.000000	22.101314
2360.000000	23.341458
2350.000000	23.366521
2340.000000	22.829133
2330.000000	21.684711
2320.000000	21.342762
2310.000000	22.853555
2300.000000	21.446495
2290.000000	22.777609
2280.000000	22.642328
2270.000000	23.837381
2260.000000	26.176571
2250.000000	27.282843
2240.000000	28.912978
2230.000000	28.616883
2220.000000	28.287329
2210.000000	28.428819
2200.000000	27.379558
2190.000000	28.348121
2180.000000	28.551447
2170.000000	29.261907
2160.000000	29.073966
2150.000000	29.862741
2140.000000	30.207320
2130.000000	30.222982
2120.000000	30.994898
2110.000000	31.321089
2100.000000	30.576503
2090.000000	30.313347
2080.000000	30.478889
2070.000000	28.920104
2060.000000	29.225990
2050.000000	29.653561
2040.000000	30.132457
2030.000000	30.029679
2020.000000	29.674514
2010.000000	29.112164
2000.000000	28.927348
1990.000000	28.215907
1980.000000	27.336708
1970.000000	26.566883
1960.000000	26.463142
1950.000000	26.414016
1940.000000	27.190673
1930.000000	29.001068
1920.000000	31.541333
1910.000000	34.495358
1900.000000	36.831395
1890.000000	38.390071
1880.000000	39.377921
1870.000000	39.333407
1860.000000	39.502184
1850.000000	39.331760
1840.000000	39.237776
1830.000000	39.028885
1820.000000	38.988962
1810.000000	38.876137
1800.000000	38.561378
1790.000000	38.309266
1780.000000	37.904368
1770.000000	37.621515
1760.000000	37.425537
1750.000000	36.997154
1740.000000	36.720239
1730.000000	37.199781
1720.000000	37.851270
1710.000000	38.194294
1700.000000	38.890185
1690.000000	39.708552
1680.000000	40.492685
1670.000000	41.027680
1660.000000	41.459496
1650.000000	41.599477
1640.000000	41.541501
1630.000000	41.517905
1620.000000	41.336718
1610.000000	41.054024
1600.000000	40.955888
1590.000000	40.808396
1580.000000	40.687544
1570.000000	40.705667
1560.000000	40.545724
1550.000000	40.215699
1540.000000	39.860525
1530.000000	39.752956
1520.000000	39.567215
1510.000000	39.489299
1500.000000	39.499009
1490.000000	39.555085
1480.000000	39.598903
1470.000000	39.668471
1460.000000	39.927985
1450.000000	40.121634
1440.000000	40.463351
1430.000000	40.931178
1420.000000	41.967821
1410.000000	43.201007
1400.000000	44.421640
1390.000000	44.922208
1380.000000	45.014620
1370.000000	45.139762
1360.000000	45.089877
1350.000000	45.010332
1340.000000	45.162628
1330.000000	45.881217
1320.000000	46.437202
1310.000000	46.804204
1300.000000	46.938909
1290.000000	46.914766
1280.000000	46.789890
1270.000000	46.521963
1260.000000	46.582916
1250.000000	46.549958
1240.000000	46.712321
1230.000000	46.568378
1220.000000	46.292479
1210.000000	46.104694
1200.000000	46.124049
1190.000000	46.406028
1180.000000	46.512721
1170.000000	46.842914
1160.000000	47.138275
1150.000000	47.358023
1140.000000	47.516508
1130.000000	47.669903
1120.000000	47.714913
1110.000000	47.833279
1100.000000	47.842098
1090.000000	47.850887
1080.000000	47.911964
1070.000000	47.898547
1060.000000	47.955887
1050.000000	47.986106
1040.000000	47.905933
1030.000000	48.104959
1020.000000	48.499271
1010.000000	48.716802
1000.000000	48.783330
990.000000	48.759037
980.000000	48.805562
970.000000	48.942119
960.000000	48.914935
950.000000	48.937217
940.000000	49.097680
930.000000	48.895534
920.000000	48.920145
910.000000	49.245084
900.000000	49.196328
890.000000	49.671902
880.000000	49.057330
870.000000	48.920979
860.000000	50.005757
850.000000	55.779471
840.000000	55.911191
830.000000	55.805001
820.000000	55.949211
810.000000	55.757941
800.000000	55.899523
790.000000	55.721937
780.000000	55.699913
770.000000	55.764433
760.000000	55.484675
750.000000	55.499559
740.000000	55.367612
730.000000	55.196275
720.000000	55.069061
710.000000	54.883973
700.000000	54.628581
690.000000	54.397145
680.000000	54.159925
670.000000	53.862626
660.000000	53.682593
650.000000	53.508264
640.000000	53.052695
630.000000	52.836116
620.000000	52.395741
610.000000	51.912890
600.000000	51.442053
590.000000	50.927059
580.000000	50.265465
570.000000	49.710962
560.000000	49.078123
550.000000	48.133609
540.000000	47.385824
530.000000	46.600171
520.000000	45.699342
510.000000	44.504088
500.000000	43.327806
490.000000	42.405559
480.000000	41.049584
470.000000	39.756388
460.000000	38.444660
450.000000	36.942437
440.000000	35.457406
430.000000	34.123731
420.000000	32.780892
410.000000	31.867249
400.000000	31.848366
390.000000	32.979299
380.000000	33.711370
370.000000	33.051229
360.000000	30.704856
350.000000	26.775637
340.000000	22.066481
330.000000	18.439270
320.000000	16.623558
310.000000	16.799277
300.000000	14.619390
290.000000	12.272890
280.000000	11.769275
270.000000	12.246571
260.000000	13.249511
250.000000	13.756399
