PE UV       SUBTECH     SPECTRUM    ASCII       PEDS        4.00        
   -1
S-11775-013.Sample.Raw.asc
23/05/05
15:45:24.00
23/05/05
15:45:24.00
Administrator

250.000000
1
Lambda 750
750N8071901
PerkinElmer UV WinLab 6.0.4.0738 / 1.61.00 Lambda 900

0
0
3350/servo 860.8/2
0
0
UV/VIS
1
1
1
CommonBeamDepol,150mm sphere / downward view
0
0
0
0
Program
Program
3350/servo 860.8/2
3350/0.2 860.8/0.2
3350/0.2 860.8/0.2
0
1
 
 
 
0
 
860.8
319.2
860.8
Front
100
on
 
 
0
0
0
 
0
 
 
 
0
 
 
0
0
0
0
0
 
 
 
 
0
0


0
0
#HDR
-1
-1
#GR
nm
%R
1.0
0.0
2500.000000
-10.000000
226
8
62.333120
16.602958
#DATA
2500.000000	31.976628
2490.000000	29.950991
2480.000000	29.295668
2470.000000	30.904945
2460.000000	28.311641
2450.000000	29.590529
2440.000000	35.963101
2430.000000	28.628125
2420.000000	32.469832
2410.000000	34.605071
2400.000000	31.033614
2390.000000	31.013270
2380.000000	33.794966
2370.000000	32.424220
2360.000000	34.119548
2350.000000	31.398274
2340.000000	35.021972
2330.000000	29.293904
2320.000000	30.609581
2310.000000	34.654012
2300.000000	31.227805
2290.000000	32.177869
2280.000000	32.353682
2270.000000	34.700355
2260.000000	35.040289
2250.000000	36.954014
2240.000000	37.293925
2230.000000	36.439875
2220.000000	35.619895
2210.000000	34.575738
2200.000000	33.698900
2190.000000	33.984909
2180.000000	35.881221
2170.000000	37.581901
2160.000000	36.443690
2150.000000	35.480435
2140.000000	36.772741
2130.000000	36.989021
2120.000000	37.405286
2110.000000	37.225912
2100.000000	37.877363
2090.000000	36.200399
2080.000000	36.233844
2070.000000	35.158718
2060.000000	34.359639
2050.000000	35.533951
2040.000000	34.867820
2030.000000	35.496764
2020.000000	35.082384
2010.000000	34.285714
2000.000000	34.473698
1990.000000	33.831613
1980.000000	32.444085
1970.000000	31.280993
1960.000000	30.768605
1950.000000	31.954999
1940.000000	31.785280
1930.000000	34.889093
1920.000000	36.385604
1910.000000	40.505347
1900.000000	42.840795
1890.000000	43.592724
1880.000000	45.512802
1870.000000	45.548463
1860.000000	45.356802
1850.000000	45.137938
1840.000000	45.043636
1830.000000	45.142123
1820.000000	44.992525
1810.000000	45.268008
1800.000000	44.798226
1790.000000	44.966156
1780.000000	44.752189
1770.000000	44.354072
1760.000000	44.192104
1750.000000	44.485476
1740.000000	44.234357
1730.000000	44.391357
1720.000000	44.838929
1710.000000	45.316329
1700.000000	45.763074
1690.000000	46.309245
1680.000000	46.910782
1670.000000	46.689032
1660.000000	46.707872
1650.000000	46.557585
1640.000000	46.615659
1630.000000	46.545674
1620.000000	46.430179
1610.000000	46.272869
1600.000000	46.141298
1590.000000	45.943838
1580.000000	45.841880
1570.000000	45.401461
1560.000000	45.322407
1550.000000	44.934005
1540.000000	44.578162
1530.000000	44.473655
1520.000000	44.732707
1510.000000	44.515507
1500.000000	44.369078
1490.000000	44.235015
1480.000000	44.344581
1470.000000	44.674244
1460.000000	44.734518
1450.000000	45.010410
1440.000000	44.666352
1430.000000	44.973111
1420.000000	46.785182
1410.000000	49.031179
1400.000000	50.789481
1390.000000	51.452230
1380.000000	50.734414
1370.000000	50.678558
1360.000000	50.652379
1350.000000	49.534151
1340.000000	48.356071
1330.000000	49.664926
1320.000000	52.189178
1310.000000	54.649294
1300.000000	56.409931
1290.000000	57.128873
1280.000000	56.297781
1270.000000	55.343113
1260.000000	54.927648
1250.000000	55.373147
1240.000000	55.360622
1230.000000	54.979313
1220.000000	54.868575
1210.000000	54.682678
1200.000000	55.359320
1190.000000	55.617188
1180.000000	55.136923
1170.000000	55.501141
1160.000000	55.658982
1150.000000	55.378970
1140.000000	55.421590
1130.000000	55.423593
1120.000000	54.967537
1110.000000	55.295220
1100.000000	55.603319
1090.000000	55.127008
1080.000000	54.623736
1070.000000	54.136068
1060.000000	54.150335
1050.000000	53.683603
1040.000000	53.291617
1030.000000	53.719138
1020.000000	54.567215
1010.000000	55.409195
1000.000000	55.461102
990.000000	54.840818
980.000000	54.948555
970.000000	55.091983
960.000000	54.795727
950.000000	55.038300
940.000000	54.622183
930.000000	54.983868
920.000000	54.567831
910.000000	54.972169
900.000000	55.048516
890.000000	55.666219
880.000000	53.993644
870.000000	54.135672
860.000000	55.389627
850.000000	61.807019
840.000000	61.515013
830.000000	61.930357
820.000000	62.333120
810.000000	62.221808
800.000000	62.122704
790.000000	62.114442
780.000000	62.207351
770.000000	61.944129
760.000000	61.948268
750.000000	61.666735
740.000000	61.961839
730.000000	61.609682
720.000000	61.444349
710.000000	61.507832
700.000000	61.110074
690.000000	60.875060
680.000000	60.741320
670.000000	60.180133
660.000000	60.184004
650.000000	59.762580
640.000000	59.391555
630.000000	59.210781
620.000000	58.637683
610.000000	58.159349
600.000000	57.697912
590.000000	57.018728
580.000000	56.322701
570.000000	55.701113
560.000000	54.960030
550.000000	53.943254
540.000000	53.124636
530.000000	52.102607
520.000000	51.057290
510.000000	49.880911
500.000000	48.482971
490.000000	47.304780
480.000000	45.672167
470.000000	44.315451
460.000000	42.617797
450.000000	40.934288
440.000000	39.108976
430.000000	37.267283
420.000000	35.218280
410.000000	33.173827
400.000000	31.109416
390.000000	29.220820
380.000000	27.174037
370.000000	25.372426
360.000000	23.601328
350.000000	21.584432
340.000000	21.085152
330.000000	19.074466
320.000000	18.372290
310.000000	16.602958
300.000000	20.579794
290.000000	20.489961
280.000000	20.948670
270.000000	22.273842
260.000000	23.678054
250.000000	26.122518
