PE UV       SUBTECH     SPECTRUM    ASCII       PEDS        4.00        
   -1
S-11753-005.Sample.Raw.asc
22/12/23
12:18:26.00
22/12/23
12:18:26.00
Administrator

250.000000
1
Lambda 750
750N8071901
PerkinElmer UV WinLab 6.0.4.0738 / 1.61.00 Lambda 900

0
0
3350/servo 860.8/2
0
0
UV/VIS
1
1
1
CommonBeamDepol,150mm sphere / downward view
0
0
0
0
Program
Program
3350/servo 860.8/2
3350/0.2 860.8/0.2
3350/0.2 860.8/0.2
0
1
 
 
 
0
 
860.8
319.2
860.8
Front
100
on
 
 
0
0
0
 
0
 
 
 
0
 
 
0
0
0
0
0
 
 
 
 
0
0


0
0
#HDR
-1
-1
#GR
nm
%R
1.0
0.0
2500.000000
-10.000000
226
8
72.257776
22.198803
#DATA
2500.000000	36.468918
2490.000000	35.498553
2480.000000	36.058282
2470.000000	35.182757
2460.000000	36.280055
2450.000000	35.215771
2440.000000	38.903600
2430.000000	39.865361
2420.000000	40.562001
2410.000000	39.004346
2400.000000	40.700046
2390.000000	39.848124
2380.000000	39.582882
2370.000000	39.719318
2360.000000	40.111107
2350.000000	40.619485
2340.000000	39.258862
2330.000000	39.582581
2320.000000	39.758068
2310.000000	38.833146
2300.000000	39.137152
2290.000000	39.439141
2280.000000	40.855134
2270.000000	40.933879
2260.000000	42.883902
2250.000000	43.274136
2240.000000	43.540792
2230.000000	43.398209
2220.000000	43.314455
2210.000000	42.515042
2200.000000	41.697072
2190.000000	41.068492
2180.000000	43.710179
2170.000000	43.907895
2160.000000	44.656170
2150.000000	45.384326
2140.000000	45.618710
2130.000000	46.078401
2120.000000	46.641252
2110.000000	46.698927
2100.000000	45.867799
2090.000000	44.835279
2080.000000	43.904637
2070.000000	43.320498
2060.000000	42.531393
2050.000000	42.752261
2040.000000	43.465106
2030.000000	43.483293
2020.000000	42.795619
2010.000000	41.980212
2000.000000	41.168760
1990.000000	40.178479
1980.000000	39.321233
1970.000000	38.636083
1960.000000	38.228640
1950.000000	38.983410
1940.000000	41.088000
1930.000000	43.396322
1920.000000	46.586860
1910.000000	50.192984
1900.000000	53.221979
1890.000000	55.174320
1880.000000	56.112963
1870.000000	56.570395
1860.000000	56.666958
1850.000000	56.531226
1840.000000	56.515678
1830.000000	56.428589
1820.000000	56.284026
1810.000000	56.262627
1800.000000	56.092114
1790.000000	56.001914
1780.000000	55.783793
1770.000000	55.709410
1760.000000	55.502558
1750.000000	55.318092
1740.000000	55.336942
1730.000000	55.956944
1720.000000	56.409877
1710.000000	56.637068
1700.000000	57.152381
1690.000000	57.861832
1680.000000	58.503301
1670.000000	58.786196
1660.000000	58.855601
1650.000000	58.799465
1640.000000	58.578711
1630.000000	58.409991
1620.000000	58.100690
1610.000000	57.873476
1600.000000	57.702532
1590.000000	57.446658
1580.000000	57.286870
1570.000000	57.127111
1560.000000	56.888249
1550.000000	56.507431
1540.000000	56.106843
1530.000000	55.923029
1520.000000	55.854522
1510.000000	55.745586
1500.000000	55.826774
1490.000000	55.983461
1480.000000	56.222046
1470.000000	56.531126
1460.000000	57.027055
1450.000000	57.552949
1440.000000	58.163460
1430.000000	58.811617
1420.000000	59.949100
1410.000000	61.346136
1400.000000	62.456476
1390.000000	63.034683
1380.000000	63.157180
1370.000000	63.335525
1360.000000	63.292798
1350.000000	62.962892
1340.000000	62.819514
1330.000000	63.586948
1320.000000	64.553276
1310.000000	65.313930
1300.000000	65.507927
1290.000000	65.763866
1280.000000	65.593604
1270.000000	65.315505
1260.000000	65.239685
1250.000000	65.406625
1240.000000	65.556521
1230.000000	65.473735
1220.000000	65.262163
1210.000000	65.174845
1200.000000	65.342858
1190.000000	65.646540
1180.000000	65.763640
1170.000000	66.124629
1160.000000	66.326416
1150.000000	66.510359
1140.000000	66.667393
1130.000000	66.763820
1120.000000	66.830138
1110.000000	66.998976
1100.000000	66.992097
1090.000000	67.035439
1080.000000	66.967083
1070.000000	66.949555
1060.000000	66.963642
1050.000000	67.135778
1040.000000	67.155283
1030.000000	67.133665
1020.000000	67.582078
1010.000000	67.916631
1000.000000	67.974114
990.000000	68.100410
980.000000	68.209740
970.000000	68.255869
960.000000	68.479676
950.000000	68.497175
940.000000	68.570759
930.000000	68.689469
920.000000	68.914184
910.000000	68.991501
900.000000	69.072319
890.000000	69.263156
880.000000	69.080319
870.000000	69.263235
860.000000	69.443039
850.000000	69.884219
840.000000	70.156601
830.000000	70.046614
820.000000	70.386631
810.000000	70.658506
800.000000	70.434877
790.000000	70.729944
780.000000	70.804386
770.000000	71.094510
760.000000	71.089726
750.000000	71.399161
740.000000	71.141721
730.000000	71.325417
720.000000	71.513393
710.000000	71.588540
700.000000	71.574316
690.000000	71.647801
680.000000	71.981972
670.000000	72.030535
660.000000	72.086149
650.000000	72.027551
640.000000	72.132496
630.000000	72.237537
620.000000	72.236091
610.000000	72.208959
600.000000	72.257776
590.000000	72.185474
580.000000	72.171473
570.000000	72.129439
560.000000	71.965409
550.000000	71.870281
540.000000	71.791625
530.000000	71.602258
520.000000	71.319101
510.000000	71.152723
500.000000	70.782360
490.000000	70.356106
480.000000	69.969041
470.000000	69.491567
460.000000	68.932889
450.000000	68.054370
440.000000	66.885916
430.000000	65.421782
420.000000	63.710760
410.000000	61.612309
400.000000	58.886068
390.000000	56.061371
380.000000	53.035079
370.000000	49.318464
360.000000	45.420054
350.000000	41.619407
340.000000	37.368134
330.000000	34.115200
320.000000	31.332090
310.000000	28.964860
300.000000	27.890985
290.000000	24.757296
280.000000	22.246851
270.000000	22.198803
260.000000	22.527010
250.000000	22.402469
