PE UV       SUBTECH     SPECTRUM    ASCII       PEDS        4.00        
   -1
S-11771-017.Sample.Raw.asc
23/05/05
15:20:59.00
23/05/05
15:20:59.00
Administrator

250.000000
1
Lambda 750
750N8071901
PerkinElmer UV WinLab 6.0.4.0738 / 1.61.00 Lambda 900

0
0
3350/servo 860.8/2
0
0
UV/VIS
1
1
1
CommonBeamDepol,150mm sphere / downward view
0
0
0
0
Program
Program
3350/servo 860.8/2
3350/0.2 860.8/0.2
3350/0.2 860.8/0.2
0
1
 
 
 
0
 
860.8
319.2
860.8
Front
100
on
 
 
0
0
0
 
0
 
 
 
0
 
 
0
0
0
0
0
 
 
 
 
0
0


0
0
#HDR
-1
-1
#GR
nm
%R
1.0
0.0
2500.000000
-10.000000
226
8
67.634393
24.727054
#DATA
2500.000000	39.087545
2490.000000	38.283243
2480.000000	41.231133
2470.000000	36.981273
2460.000000	39.015175
2450.000000	44.115037
2440.000000	48.261177
2430.000000	39.168074
2420.000000	38.901831
2410.000000	42.691966
2400.000000	47.156598
2390.000000	43.470734
2380.000000	45.067938
2370.000000	45.570533
2360.000000	44.612278
2350.000000	42.945730
2340.000000	45.139261
2330.000000	45.215322
2320.000000	44.470804
2310.000000	44.619799
2300.000000	41.494261
2290.000000	46.123636
2280.000000	43.528904
2270.000000	43.289773
2260.000000	46.905136
2250.000000	46.854207
2240.000000	47.698980
2230.000000	48.686784
2220.000000	46.309700
2210.000000	46.118310
2200.000000	45.460794
2190.000000	45.427405
2180.000000	46.306962
2170.000000	47.888898
2160.000000	49.079348
2150.000000	48.806571
2140.000000	49.359920
2130.000000	51.331674
2120.000000	48.780632
2110.000000	49.722373
2100.000000	49.242742
2090.000000	49.369396
2080.000000	48.986783
2070.000000	47.688357
2060.000000	46.489612
2050.000000	47.658149
2040.000000	46.207002
2030.000000	46.634731
2020.000000	46.364713
2010.000000	45.179573
2000.000000	45.330222
1990.000000	44.313193
1980.000000	42.861277
1970.000000	41.615246
1960.000000	41.216686
1950.000000	41.872195
1940.000000	44.411727
1930.000000	46.826559
1920.000000	49.382345
1910.000000	52.940351
1900.000000	55.282470
1890.000000	56.905148
1880.000000	58.120468
1870.000000	58.859501
1860.000000	58.364077
1850.000000	57.743066
1840.000000	57.765597
1830.000000	57.873669
1820.000000	57.970811
1810.000000	57.907642
1800.000000	57.537324
1790.000000	57.564238
1780.000000	57.096984
1770.000000	56.666298
1760.000000	56.727717
1750.000000	56.862165
1740.000000	57.072379
1730.000000	57.431914
1720.000000	57.549415
1710.000000	58.042541
1700.000000	58.366158
1690.000000	59.139205
1680.000000	59.379507
1670.000000	59.570876
1660.000000	59.649951
1650.000000	59.593561
1640.000000	59.577529
1630.000000	59.189420
1620.000000	58.935437
1610.000000	58.781618
1600.000000	58.651677
1590.000000	58.204309
1580.000000	57.912228
1570.000000	58.183853
1560.000000	57.930479
1550.000000	57.570772
1540.000000	57.290852
1530.000000	57.063102
1520.000000	56.898269
1510.000000	56.894623
1500.000000	56.901448
1490.000000	56.872645
1480.000000	57.104791
1470.000000	57.461074
1460.000000	57.628915
1450.000000	57.790235
1440.000000	57.451767
1430.000000	57.690660
1420.000000	59.493298
1410.000000	61.754045
1400.000000	63.727878
1390.000000	63.921646
1380.000000	63.383706
1370.000000	63.763196
1360.000000	63.413845
1350.000000	62.266612
1340.000000	61.259800
1330.000000	62.055569
1320.000000	63.408111
1310.000000	64.746249
1300.000000	65.696189
1290.000000	66.462426
1280.000000	65.869751
1270.000000	65.264547
1260.000000	64.768058
1250.000000	64.993058
1240.000000	65.222888
1230.000000	65.139215
1220.000000	64.949091
1210.000000	64.923969
1200.000000	65.165165
1190.000000	65.289355
1180.000000	65.272999
1170.000000	65.525444
1160.000000	65.658320
1150.000000	65.758160
1140.000000	65.832068
1130.000000	66.064167
1120.000000	65.762680
1110.000000	65.934718
1100.000000	65.907080
1090.000000	66.121478
1080.000000	66.261191
1070.000000	66.150292
1060.000000	66.229219
1050.000000	66.099163
1040.000000	65.775651
1030.000000	66.026677
1020.000000	66.694842
1010.000000	67.418062
1000.000000	67.428479
990.000000	67.006977
980.000000	66.861549
970.000000	66.672243
960.000000	66.847611
950.000000	67.156856
940.000000	66.487882
930.000000	66.201996
920.000000	66.416449
910.000000	66.829994
900.000000	67.027741
890.000000	66.954950
880.000000	66.339380
870.000000	65.608110
860.000000	65.393933
850.000000	66.334966
840.000000	66.847310
830.000000	67.276772
820.000000	67.610541
810.000000	67.208631
800.000000	67.634393
790.000000	67.412679
780.000000	67.501536
770.000000	67.071919
760.000000	67.359369
750.000000	67.498737
740.000000	67.632469
730.000000	67.599626
720.000000	67.620850
710.000000	67.613691
700.000000	67.531363
690.000000	67.242904
680.000000	67.560305
670.000000	67.136799
660.000000	67.341024
650.000000	67.208417
640.000000	67.128868
630.000000	67.181224
620.000000	66.922864
610.000000	66.800368
600.000000	66.684853
590.000000	66.334343
580.000000	66.286037
570.000000	66.055600
560.000000	65.619952
550.000000	65.371748
540.000000	64.960638
530.000000	64.564519
520.000000	64.391553
510.000000	63.901750
500.000000	63.248393
490.000000	62.670217
480.000000	62.114790
470.000000	61.559793
460.000000	60.820499
450.000000	60.046241
440.000000	58.862823
430.000000	57.580714
420.000000	55.800871
410.000000	53.786359
400.000000	51.294681
390.000000	49.093461
380.000000	46.572094
370.000000	43.766304
360.000000	40.898792
350.000000	38.575539
340.000000	35.322594
330.000000	32.507004
320.000000	31.205757
310.000000	28.028364
300.000000	27.428025
290.000000	25.947740
280.000000	24.727054
270.000000	25.817540
260.000000	27.401419
250.000000	29.204302
