PE UV       SUBTECH     SPECTRUM    ASCII       PEDS        4.00        
   -1
S-11768-015.Sample.Raw.asc
23/05/05
14:25:30.00
23/05/05
14:25:30.00
Administrator

250.000000
1
Lambda 750
750N8071901
PerkinElmer UV WinLab 6.0.4.0738 / 1.61.00 Lambda 900

0
0
3350/servo 860.8/2
0
0
UV/VIS
1
1
1
CommonBeamDepol,150mm sphere / downward view
0
0
0
0
Program
Program
3350/servo 860.8/2
3350/0.2 860.8/0.2
3350/0.2 860.8/0.2
0
1
 
 
 
0
 
860.8
319.2
860.8
Front
100
on
 
 
0
0
0
 
0
 
 
 
0
 
 
0
0
0
0
0
 
 
 
 
0
0


0
0
#HDR
-1
-1
#GR
nm
%R
1.0
0.0
2500.000000
-10.000000
226
8
74.270640
19.527530
#DATA
2500.000000	19.927712
2490.000000	21.669910
2480.000000	21.337206
2470.000000	19.527530
2460.000000	21.344727
2450.000000	27.159033
2440.000000	24.155852
2430.000000	27.589733
2420.000000	24.600475
2410.000000	22.979406
2400.000000	24.763606
2390.000000	25.515253
2380.000000	23.551955
2370.000000	25.931215
2360.000000	26.366574
2350.000000	27.852270
2340.000000	27.151694
2330.000000	25.092112
2320.000000	26.119976
2310.000000	25.881617
2300.000000	20.909417
2290.000000	24.612513
2280.000000	25.939063
2270.000000	26.171892
2260.000000	30.913324
2250.000000	29.818128
2240.000000	30.118050
2230.000000	29.918921
2220.000000	28.356612
2210.000000	28.519657
2200.000000	27.862778
2190.000000	26.535456
2180.000000	28.470544
2170.000000	29.529310
2160.000000	29.858552
2150.000000	29.515480
2140.000000	32.460658
2130.000000	33.718471
2120.000000	30.651636
2110.000000	33.284703
2100.000000	32.109329
2090.000000	31.056816
2080.000000	29.481987
2070.000000	28.894628
2060.000000	27.847889
2050.000000	29.233543
2040.000000	28.998444
2030.000000	29.366842
2020.000000	28.163423
2010.000000	26.986960
2000.000000	26.088781
1990.000000	24.596224
1980.000000	22.835008
1970.000000	21.439630
1960.000000	21.653077
1950.000000	23.009525
1940.000000	25.585365
1930.000000	30.045981
1920.000000	33.753158
1910.000000	39.875325
1900.000000	43.841179
1890.000000	45.802079
1880.000000	48.670268
1870.000000	49.243615
1860.000000	49.178364
1850.000000	49.059062
1840.000000	49.327569
1830.000000	49.056923
1820.000000	48.269661
1810.000000	47.655486
1800.000000	47.322986
1790.000000	47.181357
1780.000000	46.655249
1770.000000	46.254835
1760.000000	45.300625
1750.000000	45.183349
1740.000000	45.994617
1730.000000	47.122201
1720.000000	47.863722
1710.000000	48.284032
1700.000000	49.040348
1690.000000	50.266922
1680.000000	51.643217
1670.000000	51.870968
1660.000000	51.766103
1650.000000	51.766371
1640.000000	51.404055
1630.000000	50.856578
1620.000000	49.800385
1610.000000	49.237038
1600.000000	48.585914
1590.000000	48.064640
1580.000000	47.747609
1570.000000	47.658390
1560.000000	47.235564
1550.000000	46.301119
1540.000000	45.577970
1530.000000	45.127202
1520.000000	44.675907
1510.000000	44.419094
1500.000000	44.411747
1490.000000	44.734750
1480.000000	45.168271
1470.000000	45.761449
1460.000000	46.513716
1450.000000	47.179861
1440.000000	47.294826
1430.000000	48.529238
1420.000000	51.589713
1410.000000	55.482863
1400.000000	58.272679
1390.000000	59.128882
1380.000000	58.627537
1370.000000	59.848413
1360.000000	59.664323
1350.000000	58.688063
1340.000000	58.511240
1330.000000	61.013366
1320.000000	64.037860
1310.000000	66.195720
1300.000000	67.829347
1290.000000	68.568098
1280.000000	67.720411
1270.000000	66.788914
1260.000000	66.151075
1250.000000	66.339964
1240.000000	66.652288
1230.000000	66.021842
1220.000000	65.662637
1210.000000	65.448935
1200.000000	66.026670
1190.000000	66.790593
1180.000000	66.468729
1170.000000	67.202298
1160.000000	67.594316
1150.000000	67.562916
1140.000000	67.701481
1130.000000	67.775686
1120.000000	67.848072
1110.000000	67.934337
1100.000000	67.710641
1090.000000	67.198967
1080.000000	66.190705
1070.000000	65.644780
1060.000000	65.272033
1050.000000	64.535219
1040.000000	63.688879
1030.000000	63.573461
1020.000000	64.063898
1010.000000	64.834566
1000.000000	64.822588
990.000000	64.514021
980.000000	64.449613
970.000000	64.364835
960.000000	64.214555
950.000000	64.388241
940.000000	63.771092
930.000000	63.565079
920.000000	64.283480
910.000000	63.330125
900.000000	64.591649
890.000000	64.282261
880.000000	64.998676
870.000000	63.265639
860.000000	63.726441
850.000000	72.033148
840.000000	73.329880
830.000000	73.152700
820.000000	73.088220
810.000000	72.981445
800.000000	73.618227
790.000000	73.390885
780.000000	73.340671
770.000000	73.309423
760.000000	73.521634
750.000000	73.841313
740.000000	74.142201
730.000000	73.911013
720.000000	74.016171
710.000000	74.235733
700.000000	74.059098
690.000000	73.895987
680.000000	74.247010
670.000000	74.016107
660.000000	74.270640
650.000000	74.126116
640.000000	74.091620
630.000000	74.059531
620.000000	74.094553
610.000000	74.028534
600.000000	73.772609
590.000000	73.517626
580.000000	73.231618
570.000000	73.118567
560.000000	72.731815
550.000000	72.373615
540.000000	71.865601
530.000000	71.293552
520.000000	70.949958
510.000000	70.191315
500.000000	69.215116
490.000000	68.174370
480.000000	67.089615
470.000000	66.037999
460.000000	64.445493
450.000000	62.607594
440.000000	60.307484
430.000000	57.842023
420.000000	54.721639
410.000000	51.273264
400.000000	47.667056
390.000000	44.441937
380.000000	41.475675
370.000000	38.433402
360.000000	35.859945
350.000000	33.359949
340.000000	31.213279
330.000000	28.004312
320.000000	27.115315
310.000000	25.849190
300.000000	25.179465
290.000000	20.223830
280.000000	19.706685
270.000000	21.245541
260.000000	23.417440
250.000000	26.067939
