PE UV       SUBTECH     SPECTRUM    ASCII       PEDS        4.00        
   -1
S-11771-008.Sample.Raw.asc
23/01/26
17:35:13.00
23/01/26
17:35:13.00
Administrator

250.000000
1
Lambda 750
750N8071901
PerkinElmer UV WinLab 6.0.4.0738 / 1.61.00 Lambda 900

0
0
3350/servo 860.8/2
0
0
UV/VIS
1
1
1
CommonBeamDepol,150mm sphere / downward view
0
0
0
0
Program
Program
3350/servo 860.8/2
3350/0.2 860.8/0.2
3350/0.2 860.8/0.2
0
1
 
 
 
0
 
860.8
319.2
860.8
Front
100
on
 
 
0
0
0
 
0
 
 
 
0
 
 
0
0
0
0
0
 
 
 
 
0
0


0
0
#HDR
-1
-1
#GR
nm
%R
1.0
0.0
2500.000000
-10.000000
226
8
46.512180
16.477376
#DATA
2500.000000	19.232469
2490.000000	19.499994
2480.000000	20.300454
2470.000000	19.185390
2460.000000	19.806733
2450.000000	19.652066
2440.000000	19.876200
2430.000000	19.662309
2420.000000	19.583027
2410.000000	22.594174
2400.000000	20.989531
2390.000000	20.352942
2380.000000	18.749660
2370.000000	18.848896
2360.000000	20.156905
2350.000000	20.460572
2340.000000	19.619386
2330.000000	19.357803
2320.000000	18.233189
2310.000000	18.584982
2300.000000	19.446360
2290.000000	19.405839
2280.000000	20.059752
2270.000000	20.572323
2260.000000	22.557380
2250.000000	23.957015
2240.000000	24.779665
2230.000000	25.448054
2220.000000	25.586426
2210.000000	25.109326
2200.000000	24.792758
2190.000000	24.349074
2180.000000	25.428716
2170.000000	25.642766
2160.000000	25.221203
2150.000000	25.129421
2140.000000	26.688588
2130.000000	26.148266
2120.000000	26.998299
2110.000000	27.600845
2100.000000	27.059242
2090.000000	26.799102
2080.000000	26.458595
2070.000000	25.878842
2060.000000	26.314707
2050.000000	26.557964
2040.000000	26.562662
2030.000000	26.776664
2020.000000	26.666632
2010.000000	26.230384
2000.000000	26.034402
1990.000000	25.735199
1980.000000	25.166309
1970.000000	24.475213
1960.000000	24.630355
1950.000000	24.474794
1940.000000	25.161748
1930.000000	25.963441
1920.000000	27.259352
1910.000000	29.289612
1900.000000	30.866215
1890.000000	31.600429
1880.000000	32.460763
1870.000000	32.489515
1860.000000	32.538479
1850.000000	32.029754
1840.000000	32.161041
1830.000000	32.178055
1820.000000	32.205724
1810.000000	32.089941
1800.000000	31.892571
1790.000000	31.544242
1780.000000	31.450544
1770.000000	31.202774
1760.000000	30.924109
1750.000000	30.457215
1740.000000	30.183416
1730.000000	30.468175
1720.000000	31.095496
1710.000000	31.476434
1700.000000	31.709435
1690.000000	32.217768
1680.000000	33.083359
1670.000000	33.669373
1660.000000	34.017489
1650.000000	34.236783
1640.000000	34.163317
1630.000000	34.144931
1620.000000	34.134614
1610.000000	33.951028
1600.000000	33.901453
1590.000000	33.832614
1580.000000	33.807778
1570.000000	33.776525
1560.000000	33.564225
1550.000000	33.417159
1540.000000	33.253268
1530.000000	33.233597
1520.000000	33.087339
1510.000000	33.019550
1500.000000	33.032032
1490.000000	33.034035
1480.000000	32.951762
1470.000000	33.048985
1460.000000	33.199951
1450.000000	33.376497
1440.000000	33.330075
1430.000000	33.480286
1420.000000	34.069112
1410.000000	34.960329
1400.000000	35.945137
1390.000000	36.297328
1380.000000	36.307890
1370.000000	36.302254
1360.000000	36.223449
1350.000000	36.122818
1340.000000	36.224945
1330.000000	36.847587
1320.000000	37.486375
1310.000000	37.803101
1300.000000	38.015714
1290.000000	37.934554
1280.000000	37.801965
1270.000000	37.474678
1260.000000	37.514149
1250.000000	37.559873
1240.000000	37.748827
1230.000000	37.662338
1220.000000	37.403554
1210.000000	37.247479
1200.000000	37.319602
1190.000000	37.569467
1180.000000	37.567162
1170.000000	37.825849
1160.000000	38.081979
1150.000000	38.198826
1140.000000	38.392751
1130.000000	38.484368
1120.000000	38.487623
1110.000000	38.535304
1100.000000	38.526187
1090.000000	38.602617
1080.000000	38.680916
1070.000000	38.776826
1060.000000	38.739664
1050.000000	38.887932
1040.000000	38.786804
1030.000000	38.944232
1020.000000	39.340805
1010.000000	39.642959
1000.000000	39.614674
990.000000	39.546855
980.000000	39.637273
970.000000	39.757207
960.000000	39.841697
950.000000	39.850805
940.000000	39.845526
930.000000	39.848897
920.000000	39.867819
910.000000	40.253935
900.000000	40.608235
890.000000	40.226538
880.000000	40.215366
870.000000	40.841394
860.000000	40.777195
850.000000	46.150989
840.000000	46.181588
830.000000	46.247659
820.000000	46.374521
810.000000	46.374865
800.000000	46.326925
790.000000	46.261946
780.000000	46.291079
770.000000	46.280663
760.000000	46.214974
750.000000	46.442558
740.000000	46.512180
730.000000	46.423663
720.000000	46.387505
710.000000	46.444530
700.000000	46.350989
690.000000	46.405964
680.000000	46.307260
670.000000	46.275033
660.000000	46.294838
650.000000	46.376163
640.000000	46.410888
630.000000	46.415654
620.000000	46.344964
610.000000	46.311714
600.000000	46.227895
590.000000	46.227074
580.000000	46.123783
570.000000	46.108483
560.000000	46.110896
550.000000	45.869088
540.000000	45.826739
530.000000	45.815962
520.000000	45.741623
510.000000	45.451759
500.000000	45.167129
490.000000	45.182195
480.000000	44.835136
470.000000	44.357494
460.000000	43.893345
450.000000	43.556435
440.000000	42.879368
430.000000	42.246548
420.000000	41.360116
410.000000	40.787779
400.000000	41.074031
390.000000	42.299290
380.000000	43.028176
370.000000	42.284607
360.000000	38.089783
350.000000	33.409086
340.000000	27.583978
330.000000	23.316273
320.000000	20.859272
310.000000	20.647539
300.000000	23.678714
290.000000	18.678096
280.000000	16.708796
270.000000	16.477376
260.000000	16.964386
250.000000	16.925293
