PE UV       SUBTECH     SPECTRUM    ASCII       PEDS        4.00        
   -1
S-11775-006.Sample.Raw.asc
23/01/26
18:04:44.00
23/01/26
18:04:44.00
Administrator

250.000000
1
Lambda 750
750N8071901
PerkinElmer UV WinLab 6.0.4.0738 / 1.61.00 Lambda 900

0
0
3350/servo 860.8/2
0
0
UV/VIS
1
1
1
CommonBeamDepol,150mm sphere / downward view
0
0
0
0
Program
Program
3350/servo 860.8/2
3350/0.2 860.8/0.2
3350/0.2 860.8/0.2
0
1
 
 
 
0
 
860.8
319.2
860.8
Front
100
on
 
 
0
0
0
 
0
 
 
 
0
 
 
0
0
0
0
0
 
 
 
 
0
0


0
0
#HDR
-1
-1
#GR
nm
%R
1.0
0.0
2500.000000
-10.000000
226
8
58.576675
13.783143
#DATA
2500.000000	21.831044
2490.000000	21.422511
2480.000000	23.177408
2470.000000	21.342780
2460.000000	22.218422
2450.000000	21.235373
2440.000000	19.459237
2430.000000	22.617611
2420.000000	21.142714
2410.000000	25.424346
2400.000000	23.628081
2390.000000	21.968991
2380.000000	21.785490
2370.000000	22.730367
2360.000000	23.062940
2350.000000	22.708305
2340.000000	21.829351
2330.000000	21.258582
2320.000000	22.198639
2310.000000	21.015308
2300.000000	21.181832
2290.000000	22.169484
2280.000000	22.579701
2270.000000	24.026431
2260.000000	25.757510
2250.000000	25.862454
2240.000000	26.280096
2230.000000	26.679052
2220.000000	26.108124
2210.000000	25.410116
2200.000000	25.059836
2190.000000	24.479078
2180.000000	26.163986
2170.000000	27.018254
2160.000000	27.132752
2150.000000	27.703052
2140.000000	28.494420
2130.000000	27.765424
2120.000000	28.925395
2110.000000	28.901521
2100.000000	28.389634
2090.000000	28.137581
2080.000000	27.830001
2070.000000	26.595180
2060.000000	27.299965
2050.000000	27.554522
2040.000000	28.074640
2030.000000	27.825738
2020.000000	27.311122
2010.000000	26.487625
2000.000000	26.006420
1990.000000	25.240698
1980.000000	24.064227
1970.000000	23.343360
1960.000000	23.011428
1950.000000	23.655566
1940.000000	24.790292
1930.000000	27.362717
1920.000000	30.262014
1910.000000	33.285198
1900.000000	34.143973
1890.000000	35.424761
1880.000000	37.243651
1870.000000	36.567661
1860.000000	36.440514
1850.000000	36.914270
1840.000000	36.796260
1830.000000	36.653884
1820.000000	36.422202
1810.000000	35.999679
1800.000000	35.351630
1790.000000	34.929564
1780.000000	34.982346
1770.000000	34.675941
1760.000000	34.542493
1750.000000	34.318697
1740.000000	34.414952
1730.000000	35.274094
1720.000000	35.668890
1710.000000	35.882014
1700.000000	36.352207
1690.000000	37.180432
1680.000000	37.824737
1670.000000	38.150294
1660.000000	38.283098
1650.000000	38.355019
1640.000000	38.228644
1630.000000	38.110110
1620.000000	37.781702
1610.000000	37.421149
1600.000000	37.166565
1590.000000	36.923143
1580.000000	37.044251
1570.000000	37.208674
1560.000000	37.216679
1550.000000	36.937581
1540.000000	36.715048
1530.000000	36.425975
1520.000000	35.997090
1510.000000	35.785374
1500.000000	35.863364
1490.000000	36.087749
1480.000000	36.479021
1470.000000	36.573207
1460.000000	36.705156
1450.000000	36.877066
1440.000000	36.942059
1430.000000	37.196095
1420.000000	38.335813
1410.000000	39.815863
1400.000000	41.313670
1390.000000	41.693454
1380.000000	41.238764
1370.000000	42.105918
1360.000000	41.713133
1350.000000	41.345982
1340.000000	42.088919
1330.000000	43.521505
1320.000000	44.469814
1310.000000	45.025427
1300.000000	45.361512
1290.000000	45.656167
1280.000000	45.690846
1270.000000	44.992952
1260.000000	44.645609
1250.000000	44.599856
1240.000000	45.111590
1230.000000	45.290882
1220.000000	45.083661
1210.000000	44.599575
1200.000000	44.647262
1190.000000	45.245050
1180.000000	44.894578
1170.000000	45.242245
1160.000000	45.485557
1150.000000	45.584312
1140.000000	45.624207
1130.000000	45.662311
1120.000000	45.346135
1110.000000	45.170024
1100.000000	45.079173
1090.000000	45.055905
1080.000000	44.909113
1070.000000	44.591542
1060.000000	44.316819
1050.000000	44.120290
1040.000000	43.655446
1030.000000	43.442722
1020.000000	43.701226
1010.000000	43.875116
1000.000000	43.825248
990.000000	43.656295
980.000000	43.583765
970.000000	43.476222
960.000000	43.378028
950.000000	43.278076
940.000000	43.188083
930.000000	42.970548
920.000000	42.858665
910.000000	43.000678
900.000000	43.044570
890.000000	43.152442
880.000000	43.064893
870.000000	44.207220
860.000000	44.415101
850.000000	58.488058
840.000000	58.576675
830.000000	58.224597
820.000000	58.393385
810.000000	58.059134
800.000000	58.229502
790.000000	58.075932
780.000000	58.223578
770.000000	58.102986
760.000000	57.930481
750.000000	57.922809
740.000000	57.783281
730.000000	57.703379
720.000000	57.438567
710.000000	57.512984
700.000000	57.234178
690.000000	57.123110
680.000000	56.834717
670.000000	56.660074
660.000000	56.397284
650.000000	56.108514
640.000000	55.941199
630.000000	55.596734
620.000000	55.100562
610.000000	54.670081
600.000000	54.139852
590.000000	53.684416
580.000000	53.039118
570.000000	52.397185
560.000000	51.541967
550.000000	50.739693
540.000000	49.915707
530.000000	49.029964
520.000000	47.859761
510.000000	46.162788
500.000000	44.735189
490.000000	44.124755
480.000000	43.160082
470.000000	40.985916
460.000000	39.263389
450.000000	37.686712
440.000000	35.958053
430.000000	34.351260
420.000000	32.645410
410.000000	31.080268
400.000000	30.076686
390.000000	29.431689
380.000000	28.713591
370.000000	27.198490
360.000000	24.909385
350.000000	21.966899
340.000000	19.053657
330.000000	16.704387
320.000000	15.519205
310.000000	14.415811
300.000000	14.836541
290.000000	14.021599
280.000000	13.783143
270.000000	14.315727
260.000000	15.239551
250.000000	15.687265
