PE UV       SUBTECH     SPECTRUM    ASCII       PEDS        4.00        
   -1
S-11768-008.Sample.Raw.asc
23/01/26
16:57:19.00
23/01/26
16:57:19.00
Administrator

250.000000
1
Lambda 750
750N8071901
PerkinElmer UV WinLab 6.0.4.0738 / 1.61.00 Lambda 900

0
0
3350/servo 860.8/2
0
0
UV/VIS
1
1
1
CommonBeamDepol,150mm sphere / downward view
0
0
0
0
Program
Program
3350/servo 860.8/2
3350/0.2 860.8/0.2
3350/0.2 860.8/0.2
0
1
 
 
 
0
 
860.8
319.2
860.8
Front
100
on
 
 
0
0
0
 
0
 
 
 
0
 
 
0
0
0
0
0
 
 
 
 
0
0


0
0
#HDR
-1
-1
#GR
nm
%R
1.0
0.0
2500.000000
-10.000000
226
8
84.720726
16.084163
#DATA
2500.000000	24.280318
2490.000000	21.648186
2480.000000	24.067771
2470.000000	23.776254
2460.000000	24.529279
2450.000000	23.210107
2440.000000	26.341541
2430.000000	27.711441
2420.000000	26.525425
2410.000000	28.539510
2400.000000	27.007758
2390.000000	27.353034
2380.000000	27.943805
2370.000000	28.973497
2360.000000	29.271587
2350.000000	29.013800
2340.000000	27.900738
2330.000000	26.753199
2320.000000	26.758143
2310.000000	26.842429
2300.000000	26.120475
2290.000000	27.072477
2280.000000	27.684023
2270.000000	29.014664
2260.000000	31.354589
2250.000000	32.902928
2240.000000	33.244016
2230.000000	32.716150
2220.000000	31.624801
2210.000000	31.162414
2200.000000	30.109656
2190.000000	29.502359
2180.000000	31.071389
2170.000000	32.102710
2160.000000	33.843506
2150.000000	35.075256
2140.000000	35.876446
2130.000000	36.068980
2120.000000	36.916288
2110.000000	37.090730
2100.000000	36.337954
2090.000000	34.997124
2080.000000	33.454974
2070.000000	31.936755
2060.000000	31.582534
2050.000000	31.956937
2040.000000	32.851261
2030.000000	33.113321
2020.000000	32.146105
2010.000000	30.825171
2000.000000	29.758090
1990.000000	28.372622
1980.000000	26.743790
1970.000000	25.852028
1960.000000	25.815946
1950.000000	26.566536
1940.000000	29.002516
1930.000000	33.073542
1920.000000	38.200895
1910.000000	44.997400
1900.000000	50.781631
1890.000000	54.524393
1880.000000	56.804751
1870.000000	57.687446
1860.000000	57.685398
1850.000000	57.540815
1840.000000	57.264982
1830.000000	56.752437
1820.000000	56.554510
1810.000000	56.057663
1800.000000	55.763582
1790.000000	55.287525
1780.000000	54.745340
1770.000000	54.275946
1760.000000	53.676028
1750.000000	53.251648
1740.000000	53.570893
1730.000000	54.783039
1720.000000	55.612826
1710.000000	56.043099
1700.000000	57.325635
1690.000000	59.325406
1680.000000	60.853904
1670.000000	61.496112
1660.000000	61.540884
1650.000000	61.341620
1640.000000	60.869682
1630.000000	60.302204
1620.000000	59.607696
1610.000000	58.794000
1600.000000	58.186805
1590.000000	57.678630
1580.000000	57.152736
1570.000000	56.953728
1560.000000	56.421668
1550.000000	55.416625
1540.000000	54.479505
1530.000000	53.955267
1520.000000	53.574316
1510.000000	53.407518
1500.000000	53.727659
1490.000000	54.149353
1480.000000	54.663447
1470.000000	55.273072
1460.000000	56.244636
1450.000000	57.489029
1440.000000	58.939268
1430.000000	60.848001
1420.000000	63.459595
1410.000000	66.290178
1400.000000	68.659703
1390.000000	69.914706
1380.000000	70.268684
1370.000000	70.897547
1360.000000	71.225673
1350.000000	71.584197
1340.000000	72.306000
1330.000000	73.286157
1320.000000	74.103762
1310.000000	74.529934
1300.000000	74.622862
1290.000000	74.659902
1280.000000	74.705355
1270.000000	74.602274
1260.000000	74.566813
1250.000000	74.507693
1240.000000	74.597293
1230.000000	74.462318
1220.000000	74.061611
1210.000000	73.784615
1200.000000	73.872946
1190.000000	74.391204
1180.000000	75.010186
1170.000000	75.758933
1160.000000	76.432627
1150.000000	76.940675
1140.000000	77.317330
1130.000000	77.496764
1120.000000	77.597367
1110.000000	77.787524
1100.000000	77.888206
1090.000000	77.798904
1080.000000	77.872974
1070.000000	77.872345
1060.000000	77.740415
1050.000000	77.777210
1040.000000	77.764698
1030.000000	77.869405
1020.000000	78.368868
1010.000000	78.764231
1000.000000	78.912386
990.000000	78.896170
980.000000	78.995955
970.000000	79.250208
960.000000	79.311802
950.000000	79.553205
940.000000	79.703904
930.000000	79.651649
920.000000	79.694574
910.000000	80.176392
900.000000	80.272063
890.000000	80.429913
880.000000	80.723608
870.000000	80.363386
860.000000	81.546630
850.000000	82.674521
840.000000	83.418844
830.000000	83.267863
820.000000	83.211197
810.000000	83.404045
800.000000	83.465653
790.000000	83.729741
780.000000	83.982294
770.000000	84.086185
760.000000	83.779914
750.000000	84.065663
740.000000	84.327160
730.000000	84.455532
720.000000	84.357705
710.000000	84.676233
700.000000	84.532307
690.000000	84.517505
680.000000	84.702116
670.000000	84.623290
660.000000	84.720726
650.000000	84.666819
640.000000	84.553179
630.000000	84.635893
620.000000	84.374637
610.000000	84.075786
600.000000	83.841869
590.000000	83.573060
580.000000	83.115742
570.000000	82.809365
560.000000	82.151957
550.000000	81.507546
540.000000	80.731193
530.000000	79.961226
520.000000	79.031944
510.000000	77.817540
500.000000	76.457657
490.000000	75.171125
480.000000	73.566768
470.000000	71.559478
460.000000	69.344257
450.000000	67.021251
440.000000	63.903327
430.000000	60.518455
420.000000	56.452923
410.000000	51.986746
400.000000	47.533004
390.000000	43.377148
380.000000	39.161911
370.000000	34.860365
360.000000	30.933450
350.000000	27.908340
340.000000	25.438618
330.000000	23.311589
320.000000	20.766983
310.000000	20.410698
300.000000	19.557093
290.000000	17.048489
280.000000	16.084163
270.000000	16.215593
260.000000	17.010720
250.000000	16.965918
