PE UV       SUBTECH     SPECTRUM    ASCII       PEDS        4.00        
   -1
S-11771-010.Sample.Raw.asc
23/01/26
17:41:32.00
23/01/26
17:41:32.00
Administrator

250.000000
1
Lambda 750
750N8071901
PerkinElmer UV WinLab 6.0.4.0738 / 1.61.00 Lambda 900

0
0
3350/servo 860.8/2
0
0
UV/VIS
1
1
1
CommonBeamDepol,150mm sphere / downward view
0
0
0
0
Program
Program
3350/servo 860.8/2
3350/0.2 860.8/0.2
3350/0.2 860.8/0.2
0
1
 
 
 
0
 
860.8
319.2
860.8
Front
100
on
 
 
0
0
0
 
0
 
 
 
0
 
 
0
0
0
0
0
 
 
 
 
0
0


0
0
#HDR
-1
-1
#GR
nm
%R
1.0
0.0
2500.000000
-10.000000
226
8
47.029848
16.590359
#DATA
2500.000000	20.610413
2490.000000	19.494859
2480.000000	20.599223
2470.000000	18.017151
2460.000000	19.533403
2450.000000	18.016465
2440.000000	20.945286
2430.000000	21.028639
2420.000000	21.394821
2410.000000	21.400080
2400.000000	20.875895
2390.000000	20.369911
2380.000000	19.099909
2370.000000	20.862622
2360.000000	20.104349
2350.000000	19.902148
2340.000000	19.949320
2330.000000	19.327511
2320.000000	19.088302
2310.000000	19.799501
2300.000000	19.908029
2290.000000	20.374116
2280.000000	19.639333
2270.000000	20.554737
2260.000000	22.865446
2250.000000	23.957015
2240.000000	25.380615
2230.000000	25.643417
2220.000000	25.919167
2210.000000	25.621698
2200.000000	26.174628
2190.000000	25.009711
2180.000000	25.834312
2170.000000	26.714830
2160.000000	26.241804
2150.000000	26.081947
2140.000000	27.181942
2130.000000	26.465972
2120.000000	27.778717
2110.000000	27.872761
2100.000000	27.436430
2090.000000	27.410443
2080.000000	27.121202
2070.000000	26.132475
2060.000000	27.007808
2050.000000	26.762300
2040.000000	26.981660
2030.000000	27.247001
2020.000000	27.178095
2010.000000	26.614797
2000.000000	26.657392
1990.000000	26.113222
1980.000000	25.588531
1970.000000	24.960598
1960.000000	25.022255
1950.000000	24.841804
1940.000000	25.439941
1930.000000	26.282912
1920.000000	27.732536
1910.000000	29.676895
1900.000000	31.385180
1890.000000	32.146572
1880.000000	32.867857
1870.000000	33.201379
1860.000000	32.944903
1850.000000	32.724590
1840.000000	32.933401
1830.000000	32.690231
1820.000000	32.890442
1810.000000	32.791620
1800.000000	32.562395
1790.000000	32.196686
1780.000000	32.097265
1770.000000	31.680797
1760.000000	31.649284
1750.000000	31.133650
1740.000000	30.703525
1730.000000	31.081526
1720.000000	31.717123
1710.000000	31.967461
1700.000000	32.299968
1690.000000	32.982988
1680.000000	33.596549
1670.000000	34.216155
1660.000000	34.787231
1650.000000	34.799669
1640.000000	34.823846
1630.000000	34.848118
1620.000000	34.697548
1610.000000	34.680729
1600.000000	34.568188
1590.000000	34.519518
1580.000000	34.400992
1570.000000	34.391194
1560.000000	34.300326
1550.000000	34.018062
1540.000000	33.892349
1530.000000	33.778769
1520.000000	33.747712
1510.000000	33.656234
1500.000000	33.687498
1490.000000	33.682621
1480.000000	33.611414
1470.000000	33.669012
1460.000000	33.831305
1450.000000	34.013653
1440.000000	34.000771
1430.000000	34.206997
1420.000000	34.764510
1410.000000	35.663571
1400.000000	36.672104
1390.000000	37.027264
1380.000000	37.054188
1370.000000	37.073497
1360.000000	36.904710
1350.000000	36.830087
1340.000000	36.977723
1330.000000	37.537328
1320.000000	38.184121
1310.000000	38.543531
1300.000000	38.776274
1290.000000	38.651999
1280.000000	38.469836
1270.000000	38.150027
1260.000000	38.229558
1250.000000	38.272205
1240.000000	38.432828
1230.000000	38.337108
1220.000000	38.095005
1210.000000	37.944475
1200.000000	38.015107
1190.000000	38.154469
1180.000000	38.377728
1170.000000	38.600664
1160.000000	38.815797
1150.000000	38.811049
1140.000000	39.019181
1130.000000	39.116648
1120.000000	39.205894
1110.000000	39.365660
1100.000000	39.409100
1090.000000	39.351263
1080.000000	39.453433
1070.000000	39.484372
1060.000000	39.511881
1050.000000	39.537168
1040.000000	39.594437
1030.000000	39.729146
1020.000000	40.140747
1010.000000	40.444506
1000.000000	40.425521
990.000000	40.447920
980.000000	40.521117
970.000000	40.668808
960.000000	40.680750
950.000000	40.813862
940.000000	40.654087
930.000000	40.844520
920.000000	40.898034
910.000000	41.215346
900.000000	41.218990
890.000000	41.287449
880.000000	41.358772
870.000000	42.026153
860.000000	42.281120
850.000000	46.776462
840.000000	46.777486
830.000000	46.599877
820.000000	46.869251
810.000000	46.850264
800.000000	47.016027
790.000000	46.844911
780.000000	46.811076
770.000000	46.926373
760.000000	46.703718
750.000000	47.010573
740.000000	46.959975
730.000000	47.029848
720.000000	46.973580
710.000000	47.022267
700.000000	46.991302
690.000000	46.946282
680.000000	46.844361
670.000000	46.805810
660.000000	46.906611
650.000000	46.948100
640.000000	46.928687
630.000000	46.942927
620.000000	46.899605
610.000000	46.838167
600.000000	46.855768
590.000000	46.822828
580.000000	46.674727
570.000000	46.734213
560.000000	46.686849
550.000000	46.491987
540.000000	46.433216
530.000000	46.473378
520.000000	46.409324
510.000000	46.092376
500.000000	45.780604
490.000000	45.752155
480.000000	45.410553
470.000000	44.931711
460.000000	44.510311
450.000000	44.056770
440.000000	43.532901
430.000000	42.805566
420.000000	41.963241
410.000000	41.408421
400.000000	41.682433
390.000000	42.895591
380.000000	43.450286
370.000000	42.612376
360.000000	38.546709
350.000000	33.704929
340.000000	27.914977
330.000000	23.792090
320.000000	20.964026
310.000000	20.519123
300.000000	23.948385
290.000000	18.876141
280.000000	16.899852
270.000000	16.590359
260.000000	17.116911
250.000000	16.973940
