PE UV       SUBTECH     SPECTRUM    ASCII       PEDS        4.00        
   -1
S-11753-006.Sample.Raw.asc
22/12/23
12:21:27.00
22/12/23
12:21:27.00
Administrator

250.000000
1
Lambda 750
750N8071901
PerkinElmer UV WinLab 6.0.4.0738 / 1.61.00 Lambda 900

0
0
3350/servo 860.8/2
0
0
UV/VIS
1
1
1
CommonBeamDepol,150mm sphere / downward view
0
0
0
0
Program
Program
3350/servo 860.8/2
3350/0.2 860.8/0.2
3350/0.2 860.8/0.2
0
1
 
 
 
0
 
860.8
319.2
860.8
Front
100
on
 
 
0
0
0
 
0
 
 
 
0
 
 
0
0
0
0
0
 
 
 
 
0
0


0
0
#HDR
-1
-1
#GR
nm
%R
1.0
0.0
2500.000000
-10.000000
226
8
72.258742
22.221214
#DATA
2500.000000	33.225244
2490.000000	36.216625
2480.000000	36.559367
2470.000000	35.097303
2460.000000	36.966203
2450.000000	38.380815
2440.000000	39.604571
2430.000000	41.480825
2420.000000	41.358844
2410.000000	39.928423
2400.000000	40.110911
2390.000000	39.900388
2380.000000	40.998969
2370.000000	38.439378
2360.000000	39.522345
2350.000000	40.021096
2340.000000	39.967448
2330.000000	39.197859
2320.000000	39.865439
2310.000000	39.161250
2300.000000	39.500893
2290.000000	39.370136
2280.000000	41.253962
2270.000000	41.621737
2260.000000	42.037598
2250.000000	43.260902
2240.000000	43.174490
2230.000000	43.671356
2220.000000	42.534108
2210.000000	42.138708
2200.000000	42.245009
2190.000000	41.659374
2180.000000	42.934439
2170.000000	43.819036
2160.000000	44.361073
2150.000000	45.228772
2140.000000	45.483913
2130.000000	45.839811
2120.000000	46.794458
2110.000000	46.336448
2100.000000	45.897443
2090.000000	45.084844
2080.000000	43.821767
2070.000000	43.105617
2060.000000	42.512794
2050.000000	42.794073
2040.000000	43.578338
2030.000000	43.579384
2020.000000	42.968727
2010.000000	42.143445
2000.000000	41.100175
1990.000000	40.327965
1980.000000	39.316424
1970.000000	38.589972
1960.000000	38.277872
1950.000000	39.001125
1940.000000	41.058759
1930.000000	43.421060
1920.000000	46.486149
1910.000000	50.336062
1900.000000	53.410528
1890.000000	55.083712
1880.000000	56.266182
1870.000000	56.727199
1860.000000	56.564412
1850.000000	56.588103
1840.000000	56.435182
1830.000000	56.489634
1820.000000	56.395049
1810.000000	56.341670
1800.000000	56.046428
1790.000000	56.007829
1780.000000	55.770348
1770.000000	55.728504
1760.000000	55.473284
1750.000000	55.366677
1740.000000	55.394968
1730.000000	55.953455
1720.000000	56.370605
1710.000000	56.643789
1700.000000	57.168779
1690.000000	57.844876
1680.000000	58.559881
1670.000000	58.765941
1660.000000	58.963890
1650.000000	58.787314
1640.000000	58.580873
1630.000000	58.391339
1620.000000	58.031465
1610.000000	57.871580
1600.000000	57.680018
1590.000000	57.372550
1580.000000	57.244221
1570.000000	57.103491
1560.000000	56.892047
1550.000000	56.435598
1540.000000	56.109012
1530.000000	55.925742
1520.000000	55.806707
1510.000000	55.794528
1500.000000	55.782714
1490.000000	55.993798
1480.000000	56.205733
1470.000000	56.512636
1460.000000	56.939465
1450.000000	57.598121
1440.000000	58.185801
1430.000000	58.808891
1420.000000	59.941206
1410.000000	61.395912
1400.000000	62.491214
1390.000000	63.023543
1380.000000	63.153104
1370.000000	63.289334
1360.000000	63.320850
1350.000000	63.001336
1340.000000	62.868000
1330.000000	63.625404
1320.000000	64.566673
1310.000000	65.304338
1300.000000	65.484294
1290.000000	65.773191
1280.000000	65.596613
1270.000000	65.299076
1260.000000	65.255056
1250.000000	65.359098
1240.000000	65.577900
1230.000000	65.437125
1220.000000	65.297663
1210.000000	65.168008
1200.000000	65.349724
1190.000000	65.635817
1180.000000	65.783853
1170.000000	66.091599
1160.000000	66.371698
1150.000000	66.560279
1140.000000	66.684283
1130.000000	66.763003
1120.000000	66.849188
1110.000000	66.933876
1100.000000	66.993731
1090.000000	67.045776
1080.000000	66.989885
1070.000000	66.950639
1060.000000	66.980176
1050.000000	67.105213
1040.000000	67.104531
1030.000000	67.196255
1020.000000	67.590164
1010.000000	67.905333
1000.000000	68.000709
990.000000	68.102285
980.000000	68.197176
970.000000	68.233250
960.000000	68.357683
950.000000	68.467005
940.000000	68.547044
930.000000	68.609677
920.000000	68.875598
910.000000	69.050418
900.000000	69.100899
890.000000	68.891974
880.000000	69.566872
870.000000	69.854365
860.000000	69.291514
850.000000	70.151048
840.000000	69.926855
830.000000	70.163659
820.000000	70.238153
810.000000	70.360303
800.000000	70.541184
790.000000	70.682530
780.000000	70.835361
770.000000	70.975195
760.000000	71.086571
750.000000	71.242773
740.000000	71.078036
730.000000	71.335812
720.000000	71.391213
710.000000	71.662584
700.000000	71.502326
690.000000	71.758109
680.000000	71.858909
670.000000	71.973999
660.000000	72.085336
650.000000	72.037039
640.000000	72.123807
630.000000	72.258742
620.000000	72.094686
610.000000	72.224203
600.000000	72.197047
590.000000	72.174304
580.000000	72.090831
570.000000	72.166534
560.000000	71.986674
550.000000	71.854445
540.000000	71.772206
530.000000	71.556414
520.000000	71.368806
510.000000	71.110994
500.000000	70.771807
490.000000	70.315828
480.000000	70.014287
470.000000	69.514685
460.000000	68.930973
450.000000	67.971206
440.000000	66.783702
430.000000	65.464538
420.000000	63.731246
410.000000	61.485793
400.000000	58.918640
390.000000	56.125355
380.000000	53.029047
370.000000	49.308641
360.000000	45.443800
350.000000	41.889611
340.000000	37.646780
330.000000	34.215732
320.000000	31.086094
310.000000	28.806723
300.000000	27.874361
290.000000	24.754244
280.000000	22.221214
270.000000	22.246583
260.000000	22.386204
250.000000	22.317498
