PE UV       SUBTECH     SPECTRUM    ASCII       PEDS        4.00        
   -1
Empty Chamber.Sample.asc
18/02/28
11:18:34.00
18/02/28
11:18:34.00
Administrator

200.000000
1
Lambda 750
750N8071901
PerkinElmer UV WinLab 6.0.4.0738 / 1.61.00 Lambda 900

0
0
3350/servo 860.8/2
0
0
UV/VIS
1
1
1
CommonBeamDepol,150mm sphere / downward view
0
0
0
0
Program
Program
3350/servo 860.8/2
3350/0.2 860.8/0.2
3350/0.2 860.8/0.2
0
1
 
 
 
0
 
860.8
319.2
860.8
Front
100
on
 
 
0
0
0
 
0
 
 
 
0
 
 
0
0
0
0
0
 
 
 
 
0
0


0
0
#HDR
-1
-1
#GR
nm
%T
1.0
0.0
2350.000000
-1.000000
2151
8
100.609546
99.076100
#DATA
2350.000000	99.934722
2349.000000	100.554199
2348.000000	99.969313
2347.000000	100.321583
2346.000000	99.991848
2345.000000	100.123848
2344.000000	99.872273
2343.000000	99.899294
2342.000000	99.823642
2341.000000	99.994363
2340.000000	99.930917
2339.000000	99.960731
2338.000000	99.799263
2337.000000	99.952032
2336.000000	99.820109
2335.000000	100.046629
2334.000000	99.744926
2333.000000	99.945317
2332.000000	100.210487
2331.000000	100.051610
2330.000000	99.912793
2329.000000	99.800612
2328.000000	100.208666
2327.000000	99.956598
2326.000000	100.118310
2325.000000	100.052636
2324.000000	100.186070
2323.000000	99.876673
2322.000000	99.793479
2321.000000	100.185370
2320.000000	100.088203
2319.000000	100.136192
2318.000000	99.864566
2317.000000	100.053147
2316.000000	100.095584
2315.000000	100.127515
2314.000000	100.164941
2313.000000	99.790834
2312.000000	99.880447
2311.000000	99.867468
2310.000000	99.960183
2309.000000	100.124142
2308.000000	99.894198
2307.000000	99.603707
2306.000000	99.818570
2305.000000	100.191564
2304.000000	100.042150
2303.000000	100.275565
2302.000000	100.172030
2301.000000	99.975938
2300.000000	99.958123
2299.000000	99.995449
2298.000000	99.917690
2297.000000	99.678684
2296.000000	99.886246
2295.000000	99.740312
2294.000000	100.044955
2293.000000	100.156371
2292.000000	99.810147
2291.000000	99.915900
2290.000000	99.800989
2289.000000	99.960862
2288.000000	100.378207
2287.000000	100.409202
2286.000000	100.026178
2285.000000	99.924732
2284.000000	99.982207
2283.000000	100.051137
2282.000000	100.065507
2281.000000	100.114390
2280.000000	99.893689
2279.000000	100.012127
2278.000000	100.168786
2277.000000	100.044588
2276.000000	100.079736
2275.000000	100.271493
2274.000000	100.202401
2273.000000	100.106017
2272.000000	100.122372
2271.000000	99.940316
2270.000000	99.860707
2269.000000	99.872881
2268.000000	99.849193
2267.000000	100.116420
2266.000000	100.214842
2265.000000	100.000000
2264.000000	99.961767
2263.000000	100.031757
2262.000000	99.875997
2261.000000	99.883978
2260.000000	100.078904
2259.000000	100.187787
2258.000000	100.164520
2257.000000	99.987162
2256.000000	99.953640
2255.000000	100.044866
2254.000000	100.144045
2253.000000	100.081314
2252.000000	100.141062
2251.000000	100.116741
2250.000000	100.077452
2249.000000	100.092620
2248.000000	100.001819
2247.000000	99.989389
2246.000000	99.891853
2245.000000	99.773079
2244.000000	99.763102
2243.000000	99.757543
2242.000000	99.841979
2241.000000	99.926026
2240.000000	100.022551
2239.000000	99.933603
2238.000000	99.942572
2237.000000	100.205159
2236.000000	100.172046
2235.000000	99.982710
2234.000000	99.982929
2233.000000	99.911369
2232.000000	99.853913
2231.000000	99.914830
2230.000000	99.990903
2229.000000	99.923863
2228.000000	100.093265
2227.000000	100.049425
2226.000000	99.960099
2225.000000	100.087687
2224.000000	100.095380
2223.000000	100.043979
2222.000000	100.055338
2221.000000	100.096456
2220.000000	100.033587
2219.000000	99.855578
2218.000000	99.924187
2217.000000	99.990296
2216.000000	99.909150
2215.000000	99.920375
2214.000000	99.929635
2213.000000	100.047988
2212.000000	100.140172
2211.000000	100.050529
2210.000000	99.978991
2209.000000	99.943842
2208.000000	99.912440
2207.000000	99.963627
2206.000000	99.955155
2205.000000	99.882708
2204.000000	99.899706
2203.000000	99.905553
2202.000000	99.994847
2201.000000	100.012323
2200.000000	99.994849
2199.000000	100.130346
2198.000000	100.269830
2197.000000	100.055562
2196.000000	99.953661
2195.000000	100.009998
2194.000000	99.968911
2193.000000	100.115922
2192.000000	100.221457
2191.000000	100.019899
2190.000000	100.097563
2189.000000	100.082688
2188.000000	100.087060
2187.000000	99.870298
2186.000000	99.946243
2185.000000	99.970170
2184.000000	99.846233
2183.000000	100.013698
2182.000000	99.975404
2181.000000	100.109659
2180.000000	100.217485
2179.000000	99.998084
2178.000000	99.941143
2177.000000	100.033488
2176.000000	100.162494
2175.000000	100.027112
2174.000000	99.933805
2173.000000	99.999698
2172.000000	99.974625
2171.000000	100.011582
2170.000000	99.922752
2169.000000	99.988429
2168.000000	100.166910
2167.000000	100.057128
2166.000000	100.115635
2165.000000	100.112649
2164.000000	99.905625
2163.000000	100.075309
2162.000000	99.997886
2161.000000	100.113949
2160.000000	100.051976
2159.000000	99.980369
2158.000000	99.974236
2157.000000	99.978357
2156.000000	99.909540
2155.000000	100.092226
2154.000000	100.143911
2153.000000	99.988034
2152.000000	100.084960
2151.000000	99.821847
2150.000000	100.198453
2149.000000	99.890288
2148.000000	99.947087
2147.000000	100.259250
2146.000000	99.908101
2145.000000	99.967119
2144.000000	99.906359
2143.000000	100.078524
2142.000000	99.922084
2141.000000	99.866807
2140.000000	100.223614
2139.000000	100.068816
2138.000000	99.919819
2137.000000	99.945584
2136.000000	99.984495
2135.000000	100.241020
2134.000000	100.089749
2133.000000	100.018995
2132.000000	99.974952
2131.000000	100.004626
2130.000000	100.026240
2129.000000	99.685526
2128.000000	99.869412
2127.000000	100.082468
2126.000000	99.724805
2125.000000	100.042888
2124.000000	100.098274
2123.000000	100.182800
2122.000000	100.012182
2121.000000	99.911939
2120.000000	100.023732
2119.000000	99.978666
2118.000000	99.689570
2117.000000	100.008956
2116.000000	99.933809
2115.000000	100.210840
2114.000000	99.975503
2113.000000	100.032021
2112.000000	100.229675
2111.000000	100.030591
2110.000000	100.107386
2109.000000	100.041344
2108.000000	100.088810
2107.000000	99.961522
2106.000000	100.039225
2105.000000	99.768841
2104.000000	99.782827
2103.000000	100.130542
2102.000000	100.134122
2101.000000	99.979144
2100.000000	100.084919
2099.000000	100.043778
2098.000000	100.017948
2097.000000	100.027456
2096.000000	100.092268
2095.000000	100.100575
2094.000000	100.103815
2093.000000	100.205379
2092.000000	100.026338
2091.000000	100.047334
2090.000000	99.925424
2089.000000	99.876261
2088.000000	99.913240
2087.000000	100.001007
2086.000000	100.133011
2085.000000	100.114475
2084.000000	100.004537
2083.000000	99.993548
2082.000000	100.011093
2081.000000	100.051135
2080.000000	100.048911
2079.000000	99.977905
2078.000000	99.907136
2077.000000	100.034010
2076.000000	100.086326
2075.000000	100.028139
2074.000000	99.880704
2073.000000	100.003026
2072.000000	100.033586
2071.000000	100.007564
2070.000000	99.942426
2069.000000	99.957436
2068.000000	99.971754
2067.000000	100.003533
2066.000000	100.021500
2065.000000	100.075145
2064.000000	100.074112
2063.000000	100.090877
2062.000000	100.044835
2061.000000	100.000606
2060.000000	100.010293
2059.000000	99.944808
2058.000000	100.046042
2057.000000	100.132116
2056.000000	100.125179
2055.000000	100.070073
2054.000000	99.939474
2053.000000	100.043613
2052.000000	100.006967
2051.000000	99.982332
2050.000000	99.999899
2049.000000	100.012120
2048.000000	100.024236
2047.000000	99.968795
2046.000000	100.002829
2045.000000	99.932265
2044.000000	99.861925
2043.000000	99.995556
2042.000000	100.042725
2041.000000	100.072941
2040.000000	100.029701
2039.000000	99.970611
2038.000000	100.032839
2037.000000	100.021423
2036.000000	99.965343
2035.000000	99.993632
2034.000000	100.039328
2033.000000	100.048217
2032.000000	99.974945
2031.000000	99.924552
2030.000000	99.997070
2029.000000	100.005659
2028.000000	100.030631
2027.000000	100.071093
2026.000000	100.053906
2025.000000	100.017397
2024.000000	99.950258
2023.000000	99.971595
2022.000000	99.998787
2021.000000	99.996360
2020.000000	100.041375
2019.000000	100.090470
2018.000000	100.028028
2017.000000	99.954888
2016.000000	99.999494
2015.000000	100.013757
2014.000000	99.959550
2013.000000	99.993629
2012.000000	100.033291
2011.000000	100.026310
2010.000000	99.996661
2009.000000	100.024091
2008.000000	100.056689
2007.000000	99.959729
2006.000000	99.945565
2005.000000	100.020648
2004.000000	100.015689
2003.000000	99.963768
2002.000000	99.972772
2001.000000	99.978846
2000.000000	99.961245
1999.000000	99.973787
1998.000000	99.957891
1997.000000	99.997874
1996.000000	100.008100
1995.000000	99.966789
1994.000000	99.975394
1993.000000	100.030186
1992.000000	99.971139
1991.000000	99.952815
1990.000000	99.983087
1989.000000	100.033739
1988.000000	100.004154
1987.000000	100.005572
1986.000000	100.023098
1985.000000	99.950483
1984.000000	99.923565
1983.000000	99.894411
1982.000000	99.994124
1981.000000	99.992706
1980.000000	100.002330
1979.000000	100.025030
1978.000000	100.026351
1977.000000	100.018846
1976.000000	99.996657
1975.000000	100.000912
1974.000000	100.013984
1973.000000	100.031214
1972.000000	100.049959
1971.000000	99.953615
1970.000000	99.885988
1969.000000	99.947338
1968.000000	100.035160
1967.000000	100.007396
1966.000000	100.051885
1965.000000	99.954818
1964.000000	99.994226
1963.000000	100.009829
1962.000000	99.991489
1961.000000	99.992605
1960.000000	100.030195
1959.000000	100.052691
1958.000000	100.013878
1957.000000	100.027866
1956.000000	100.020561
1955.000000	99.990481
1954.000000	99.982889
1953.000000	99.953334
1952.000000	100.024607
1951.000000	100.004861
1950.000000	100.004659
1949.000000	100.014582
1948.000000	99.932891
1947.000000	100.003443
1946.000000	99.930572
1945.000000	99.987650
1944.000000	100.049409
1943.000000	100.025007
1942.000000	100.017407
1941.000000	99.999696
1940.000000	99.902978
1939.000000	100.007995
1938.000000	99.959846
1937.000000	100.014876
1936.000000	100.064472
1935.000000	99.987050
1934.000000	100.044220
1933.000000	99.962973
1932.000000	99.955303
1931.000000	100.018917
1930.000000	100.045223
1929.000000	100.023882
1928.000000	99.986246
1927.000000	100.039446
1926.000000	100.005158
1925.000000	100.014667
1924.000000	99.950453
1923.000000	100.098935
1922.000000	99.950068
1921.000000	100.005868
1920.000000	99.952271
1919.000000	99.967226
1918.000000	100.025306
1917.000000	100.040865
1916.000000	99.973501
1915.000000	99.896985
1914.000000	99.990392
1913.000000	99.925273
1912.000000	99.993325
1911.000000	99.976628
1910.000000	100.028241
1909.000000	99.979971
1908.000000	100.066603
1907.000000	100.031461
1906.000000	100.058205
1905.000000	99.955880
1904.000000	100.011234
1903.000000	100.017002
1902.000000	99.853237
1901.000000	99.921411
1900.000000	99.919897
1899.000000	100.019133
1898.000000	100.040295
1897.000000	99.934320
1896.000000	100.086204
1895.000000	100.051543
1894.000000	100.025209
1893.000000	100.019543
1892.000000	100.032822
1891.000000	100.058550
1890.000000	99.985013
1889.000000	100.056209
1888.000000	99.944040
1887.000000	99.935352
1886.000000	99.934866
1885.000000	99.958130
1884.000000	100.022054
1883.000000	100.003035
1882.000000	100.008397
1881.000000	99.999595
1880.000000	100.025696
1879.000000	99.955618
1878.000000	99.925713
1877.000000	99.990597
1876.000000	100.004954
1875.000000	99.986457
1874.000000	99.988678
1873.000000	99.988784
1872.000000	99.969489
1871.000000	99.989086
1870.000000	99.945848
1869.000000	100.010007
1868.000000	100.025575
1867.000000	99.963719
1866.000000	100.015466
1865.000000	99.991813
1864.000000	99.995349
1863.000000	99.989282
1862.000000	99.999393
1861.000000	100.013658
1860.000000	100.023466
1859.000000	99.997775
1858.000000	99.987864
1857.000000	100.016485
1856.000000	100.000708
1855.000000	100.060488
1854.000000	100.011932
1853.000000	99.985542
1852.000000	99.983927
1851.000000	100.013650
1850.000000	100.047034
1849.000000	100.032159
1848.000000	100.051862
1847.000000	100.021129
1846.000000	99.982613
1845.000000	99.996563
1844.000000	100.055318
1843.000000	100.029224
1842.000000	99.993328
1841.000000	99.997978
1840.000000	99.996159
1839.000000	99.978768
1838.000000	99.985742
1837.000000	99.983215
1836.000000	100.014161
1835.000000	100.030860
1834.000000	100.012443
1833.000000	100.021954
1832.000000	100.026106
1831.000000	100.034408
1830.000000	100.016193
1829.000000	99.972176
1828.000000	99.957908
1827.000000	99.984012
1826.000000	99.986034
1825.000000	100.010529
1824.000000	100.051047
1823.000000	100.013772
1822.000000	99.990077
1821.000000	99.997772
1820.000000	99.989772
1819.000000	99.968512
1818.000000	100.002937
1817.000000	100.025122
1816.000000	100.015598
1815.000000	100.027550
1814.000000	99.999494
1813.000000	99.993113
1812.000000	100.023803
1811.000000	100.016509
1810.000000	99.994024
1809.000000	99.997366
1808.000000	100.012362
1807.000000	99.997568
1806.000000	99.990476
1805.000000	99.993718
1804.000000	99.985005
1803.000000	99.985307
1802.000000	99.984800
1801.000000	99.979737
1800.000000	99.983787
1799.000000	100.001622
1798.000000	99.997568
1797.000000	99.972340
1796.000000	99.958058
1795.000000	99.980140
1794.000000	100.001318
1793.000000	99.981251
1792.000000	99.991385
1791.000000	100.002027
1790.000000	99.978109
1789.000000	99.987738
1788.000000	99.998885
1787.000000	99.976887
1786.000000	99.990268
1785.000000	99.998480
1784.000000	99.995236
1783.000000	99.985202
1782.000000	99.980846
1781.000000	99.995541
1780.000000	99.980036
1779.000000	99.989763
1778.000000	99.993717
1777.000000	100.019562
1776.000000	100.026661
1775.000000	99.997669
1774.000000	99.950555
1773.000000	99.974866
1772.000000	99.973243
1771.000000	100.010439
1770.000000	100.035379
1769.000000	99.988040
1768.000000	99.999595
1767.000000	99.969903
1766.000000	99.963622
1765.000000	99.990675
1764.000000	100.014799
1763.000000	99.979226
1762.000000	100.007601
1761.000000	100.003447
1760.000000	99.979022
1759.000000	99.970005
1758.000000	99.983280
1757.000000	99.974256
1756.000000	99.999696
1755.000000	99.979226
1754.000000	99.980744
1753.000000	99.958668
1752.000000	99.964841
1751.000000	99.978216
1750.000000	99.998075
1749.000000	99.994325
1748.000000	99.980346
1747.000000	99.983384
1746.000000	99.999291
1745.000000	99.993919
1744.000000	100.015505
1743.000000	100.015711
1742.000000	99.962708
1741.000000	100.024625
1740.000000	100.026149
1739.000000	99.985003
1738.000000	100.001824
1737.000000	100.003547
1736.000000	100.000304
1735.000000	99.986626
1734.000000	100.013074
1733.000000	99.995440
1732.000000	100.014288
1731.000000	100.027468
1730.000000	99.993109
1729.000000	100.003951
1728.000000	99.957855
1727.000000	100.002837
1726.000000	100.000304
1725.000000	100.015201
1724.000000	99.987234
1723.000000	99.957452
1722.000000	99.960998
1721.000000	99.992301
1720.000000	99.958471
1719.000000	99.958465
1718.000000	99.958565
1717.000000	99.981968
1716.000000	99.997669
1715.000000	99.975181
1714.000000	99.993617
1713.000000	99.988450
1712.000000	100.001317
1711.000000	99.988448
1710.000000	99.964949
1709.000000	99.980752
1708.000000	99.974875
1707.000000	100.005370
1706.000000	100.005572
1705.000000	99.998784
1704.000000	100.046009
1703.000000	99.999899
1702.000000	99.982778
1701.000000	100.005675
1700.000000	100.015503
1699.000000	100.018341
1698.000000	100.005370
1697.000000	100.011450
1696.000000	99.965158
1695.000000	99.948037
1694.000000	99.986627
1693.000000	99.994833
1692.000000	99.975688
1691.000000	99.969721
1690.000000	99.971434
1689.000000	99.998480
1688.000000	100.001115
1687.000000	99.992705
1686.000000	99.997569
1685.000000	99.991694
1684.000000	99.978425
1683.000000	99.953106
1682.000000	99.978726
1681.000000	100.054512
1680.000000	100.000101
1679.000000	99.989059
1678.000000	100.012056
1677.000000	99.997873
1676.000000	99.999190
1675.000000	100.003546
1674.000000	99.995643
1673.000000	99.994833
1672.000000	99.988047
1671.000000	99.989970
1670.000000	99.978119
1669.000000	100.013368
1668.000000	100.015393
1667.000000	99.965275
1666.000000	99.992812
1665.000000	99.996253
1664.000000	100.008506
1663.000000	99.999696
1662.000000	100.016607
1661.000000	100.006886
1660.000000	100.014785
1659.000000	100.009214
1658.000000	100.012759
1657.000000	99.993418
1656.000000	99.974790
1655.000000	99.984308
1654.000000	99.995849
1653.000000	99.996355
1652.000000	99.972461
1651.000000	99.998178
1650.000000	100.027745
1649.000000	100.028357
1648.000000	99.992305
1647.000000	99.988559
1646.000000	100.002936
1645.000000	99.970539
1644.000000	99.976916
1643.000000	99.965880
1642.000000	99.994431
1641.000000	99.994634
1640.000000	100.008506
1639.000000	100.009012
1638.000000	99.986232
1637.000000	99.995140
1636.000000	100.009417
1635.000000	99.974992
1634.000000	99.985825
1633.000000	99.997975
1632.000000	100.014783
1631.000000	100.022077
1630.000000	100.002835
1629.000000	99.994937
1628.000000	100.005772
1627.000000	99.989571
1626.000000	99.997874
1625.000000	100.008202
1624.000000	99.994331
1623.000000	99.993217
1622.000000	99.989167
1621.000000	99.990180
1620.000000	99.995242
1619.000000	99.998583
1618.000000	99.999494
1617.000000	100.005265
1616.000000	99.989876
1615.000000	100.001215
1614.000000	99.990787
1613.000000	99.977626
1612.000000	99.987548
1611.000000	99.995951
1610.000000	99.986132
1609.000000	99.982792
1608.000000	99.982590
1607.000000	100.004758
1606.000000	100.004758
1605.000000	99.998785
1604.000000	99.993521
1603.000000	99.988865
1602.000000	100.003240
1601.000000	100.004151
1600.000000	99.994027
1599.000000	100.000911
1598.000000	100.000810
1597.000000	99.992813
1596.000000	99.999190
1595.000000	99.999393
1594.000000	99.999190
1593.000000	99.989776
1592.000000	99.992003
1591.000000	99.979452
1590.000000	99.991091
1589.000000	100.004455
1588.000000	99.984412
1587.000000	100.001417
1586.000000	100.017414
1585.000000	100.007897
1584.000000	100.008807
1583.000000	100.007795
1582.000000	99.994028
1581.000000	99.995242
1580.000000	99.983501
1579.000000	99.979657
1578.000000	99.994028
1577.000000	99.986133
1576.000000	99.981883
1575.000000	99.990992
1574.000000	99.990385
1573.000000	99.995749
1572.000000	99.974295
1571.000000	99.974901
1570.000000	99.987449
1569.000000	100.005466
1568.000000	100.001822
1567.000000	99.987958
1566.000000	99.985530
1565.000000	99.999798
1564.000000	100.003947
1563.000000	99.989678
1562.000000	99.985933
1561.000000	99.995142
1560.000000	100.003542
1559.000000	99.982999
1558.000000	99.989274
1557.000000	100.001822
1556.000000	99.980470
1555.000000	99.963171
1554.000000	99.984923
1553.000000	100.001214
1552.000000	100.006275
1551.000000	100.001417
1550.000000	99.986339
1549.000000	99.985631
1548.000000	100.003238
1547.000000	100.001720
1546.000000	100.011334
1545.000000	100.002226
1544.000000	99.990589
1543.000000	99.995750
1542.000000	99.990487
1541.000000	99.976727
1540.000000	99.965500
1539.000000	99.981483
1538.000000	99.989375
1537.000000	99.991703
1536.000000	99.989276
1535.000000	99.977540
1534.000000	99.980171
1533.000000	99.985229
1532.000000	99.992918
1531.000000	100.005464
1530.000000	100.000506
1529.000000	100.001821
1528.000000	99.986845
1527.000000	100.013968
1526.000000	99.995142
1525.000000	100.003846
1524.000000	99.997773
1523.000000	100.003340
1522.000000	99.995142
1521.000000	99.973590
1520.000000	99.967724
1519.000000	99.990994
1518.000000	99.990691
1517.000000	99.994839
1516.000000	100.005364
1515.000000	100.022874
1514.000000	100.015079
1513.000000	100.003137
1512.000000	99.953965
1511.000000	99.988160
1510.000000	100.016296
1509.000000	99.991298
1508.000000	99.986541
1507.000000	100.005870
1506.000000	99.974802
1505.000000	99.967623
1504.000000	99.985429
1503.000000	100.009311
1502.000000	99.978040
1501.000000	99.985528
1500.000000	99.988463
1499.000000	99.971665
1498.000000	100.007390
1497.000000	99.985024
1496.000000	99.983810
1495.000000	100.007287
1494.000000	99.995142
1493.000000	99.988768
1492.000000	99.978752
1491.000000	100.003744
1490.000000	99.984823
1489.000000	100.028134
1488.000000	99.997470
1487.000000	100.010625
