PE UV       SUBTECH     SPECTRUM    ASCII       PEDS        4.00        
   -1
TTAgneau 52.Sample.asc
18/02/28
15:45:30.00
18/02/28
15:45:30.00
Administrator

200.000000
1
Lambda 750
750N8071901
PerkinElmer UV WinLab 6.0.4.0738 / 1.61.00 Lambda 900

0
0
3350/servo 860.8/2
0
0
UV/VIS
1
1
1
CommonBeamDepol,150mm sphere / downward view
0
0
0
0
Program
Program
3350/servo 860.8/2
3350/0.2 860.8/0.2
3350/0.2 860.8/0.2
0
1
 
 
 
0
 
860.8
319.2
860.8
Front
100
on
 
 
0
0
0
 
0
 
 
 
0
 
 
0
0
0
0
0
 
 
 
 
0
0


0
0
#HDR
-1
-1
#GR
nm
%T
1.0
0.0
2350.000000
-1.000000
2151
8
27.350996
0.066389
#DATA
2350.000000	6.638403
2349.000000	6.701024
2348.000000	6.804974
2347.000000	7.194708
2346.000000	7.052599
2345.000000	6.953316
2344.000000	7.038572
2343.000000	6.437213
2342.000000	6.626027
2341.000000	6.858836
2340.000000	6.841494
2339.000000	7.280636
2338.000000	7.113045
2337.000000	7.009240
2336.000000	7.270229
2335.000000	7.362383
2334.000000	7.486534
2333.000000	7.577873
2332.000000	7.606317
2331.000000	7.561957
2330.000000	7.589626
2329.000000	7.404636
2328.000000	7.367069
2327.000000	7.282782
2326.000000	7.313556
2325.000000	7.400302
2324.000000	7.015396
2323.000000	7.202191
2322.000000	7.112555
2321.000000	7.092261
2320.000000	7.295769
2319.000000	7.224835
2318.000000	6.885869
2317.000000	7.148562
2316.000000	7.093594
2315.000000	6.999709
2314.000000	6.900723
2313.000000	7.006765
2312.000000	6.971289
2311.000000	6.850691
2310.000000	6.880644
2309.000000	6.979852
2308.000000	6.766148
2307.000000	6.706853
2306.000000	6.707982
2305.000000	6.903966
2304.000000	6.878964
2303.000000	6.676247
2302.000000	6.655671
2301.000000	6.516783
2300.000000	6.395610
2299.000000	6.412229
2298.000000	6.351205
2297.000000	6.225216
2296.000000	6.319532
2295.000000	6.342692
2294.000000	6.477195
2293.000000	6.316137
2292.000000	6.141333
2291.000000	6.081257
2290.000000	6.149890
2289.000000	6.084919
2288.000000	5.959892
2287.000000	6.175867
2286.000000	6.055075
2285.000000	5.876844
2284.000000	5.972908
2283.000000	5.985388
2282.000000	6.000196
2281.000000	6.135775
2280.000000	6.049045
2279.000000	6.050338
2278.000000	5.908918
2277.000000	5.893814
2276.000000	5.877086
2275.000000	5.966373
2274.000000	6.028868
2273.000000	6.077426
2272.000000	6.220842
2271.000000	6.105442
2270.000000	6.066800
2269.000000	6.086286
2268.000000	5.946065
2267.000000	6.098929
2266.000000	6.301370
2265.000000	6.375395
2264.000000	6.423266
2263.000000	6.448817
2262.000000	6.418257
2261.000000	6.431587
2260.000000	6.572891
2259.000000	6.824524
2258.000000	7.012472
2257.000000	6.936332
2256.000000	6.881227
2255.000000	7.068434
2254.000000	7.271642
2253.000000	7.250691
2252.000000	7.361455
2251.000000	7.392713
2250.000000	7.482197
2249.000000	7.687734
2248.000000	7.782446
2247.000000	7.764176
2246.000000	7.838686
2245.000000	7.909643
2244.000000	8.161837
2243.000000	8.369919
2242.000000	8.345408
2241.000000	8.380956
2240.000000	8.435316
2239.000000	8.529205
2238.000000	8.568150
2237.000000	8.566551
2236.000000	8.646962
2235.000000	8.797942
2234.000000	8.795273
2233.000000	8.783546
2232.000000	8.901134
2231.000000	8.966861
2230.000000	9.004741
2229.000000	9.034040
2228.000000	9.174970
2227.000000	9.188069
2226.000000	8.965631
2225.000000	9.028644
2224.000000	9.136701
2223.000000	8.961590
2222.000000	9.072653
2221.000000	9.060969
2220.000000	8.956311
2219.000000	8.997305
2218.000000	9.022502
2217.000000	8.887633
2216.000000	8.819324
2215.000000	8.876130
2214.000000	8.848242
2213.000000	8.901942
2212.000000	8.829606
2211.000000	8.857904
2210.000000	8.727939
2209.000000	8.675803
2208.000000	8.606718
2207.000000	8.636225
2206.000000	8.567273
2205.000000	8.597460
2204.000000	8.477863
2203.000000	8.389715
2202.000000	8.416762
2201.000000	8.518999
2200.000000	8.302657
2199.000000	8.277793
2198.000000	8.288378
2197.000000	8.231294
2196.000000	8.144796
2195.000000	8.165108
2194.000000	8.131913
2193.000000	8.026185
2192.000000	7.878599
2191.000000	7.793613
2190.000000	7.868531
2189.000000	7.903691
2188.000000	7.883412
2187.000000	7.967718
2186.000000	8.041533
2185.000000	7.735045
2184.000000	7.628743
2183.000000	7.753136
2182.000000	7.717835
2181.000000	7.657286
2180.000000	7.714619
2179.000000	7.584872
2178.000000	7.592393
2177.000000	7.585209
2176.000000	7.485328
2175.000000	7.647776
2174.000000	7.713815
2173.000000	7.691479
2172.000000	7.688884
2171.000000	7.754571
2170.000000	7.592730
2169.000000	7.640142
2168.000000	7.847983
2167.000000	7.815082
2166.000000	7.834876
2165.000000	7.819407
2164.000000	7.964798
2163.000000	7.893327
2162.000000	8.116364
2161.000000	8.053338
2160.000000	8.038885
2159.000000	8.201141
2158.000000	8.084672
2157.000000	8.381669
2156.000000	8.295985
2155.000000	8.450410
2154.000000	8.607669
2153.000000	8.709550
2152.000000	8.701828
2151.000000	8.736539
2150.000000	8.938557
2149.000000	8.977595
2148.000000	8.954200
2147.000000	9.113350
2146.000000	9.008974
2145.000000	9.112775
2144.000000	9.168832
2143.000000	9.218242
2142.000000	9.243196
2141.000000	9.458587
2140.000000	9.668321
2139.000000	9.795940
2138.000000	9.728339
2137.000000	9.721604
2136.000000	9.777560
2135.000000	9.847515
2134.000000	10.014197
2133.000000	9.701385
2132.000000	10.050659
2131.000000	10.007221
2130.000000	10.281666
2129.000000	10.286947
2128.000000	10.123742
2127.000000	10.158439
2126.000000	10.199122
2125.000000	10.158847
2124.000000	10.325380
2123.000000	10.241752
2122.000000	10.419840
2121.000000	10.336945
2120.000000	10.466399
2119.000000	10.382135
2118.000000	10.556433
2117.000000	10.534710
2116.000000	10.648156
2115.000000	10.637136
2114.000000	10.603366
2113.000000	10.614455
2112.000000	10.644068
2111.000000	10.633534
2110.000000	10.756045
2109.000000	10.576130
2108.000000	10.462702
2107.000000	10.664101
2106.000000	10.812511
2105.000000	10.694513
2104.000000	10.652244
2103.000000	10.739109
2102.000000	10.728429
2101.000000	10.658755
2100.000000	10.772961
2099.000000	10.757390
2098.000000	10.750476
2097.000000	10.761865
2096.000000	10.705390
2095.000000	10.765719
2094.000000	10.746520
2093.000000	10.778513
2092.000000	10.850717
2091.000000	10.759075
2090.000000	10.807826
2089.000000	10.771916
2088.000000	10.790249
2087.000000	10.755225
2086.000000	10.833672
2085.000000	10.793092
2084.000000	10.692736
2083.000000	10.611023
2082.000000	10.643486
2081.000000	10.585929
2080.000000	10.516523
2079.000000	10.484319
2078.000000	10.440605
2077.000000	10.396001
2076.000000	10.254005
2075.000000	10.285715
2074.000000	10.289688
2073.000000	10.343043
2072.000000	10.204512
2071.000000	10.113080
2070.000000	10.020842
2069.000000	9.962732
2068.000000	9.852758
2067.000000	9.738921
2066.000000	9.731584
2065.000000	9.619102
2064.000000	9.523463
2063.000000	9.476640
2062.000000	9.447869
2061.000000	9.308504
2060.000000	9.211583
2059.000000	9.188598
2058.000000	9.189335
2057.000000	9.082039
2056.000000	8.995516
2055.000000	8.885308
2054.000000	8.746077
2053.000000	8.727067
2052.000000	8.668045
2051.000000	8.567465
2050.000000	8.519714
2049.000000	8.516146
2048.000000	8.463701
2047.000000	8.449417
2046.000000	8.400064
2045.000000	8.333510
2044.000000	8.283002
2043.000000	8.307773
2042.000000	8.299539
2041.000000	8.308119
2040.000000	8.319375
2039.000000	8.330598
2038.000000	8.355226
2037.000000	8.369292
2036.000000	8.420724
2035.000000	8.498495
2034.000000	8.557659
2033.000000	8.578334
2032.000000	8.632702
2031.000000	8.704360
2030.000000	8.796318
2029.000000	8.884409
2028.000000	8.937477
2027.000000	9.032163
2026.000000	9.134324
2025.000000	9.190857
2024.000000	9.267754
2023.000000	9.296416
2022.000000	9.314124
2021.000000	9.432270
2020.000000	9.539620
2019.000000	9.559826
2018.000000	9.578939
2017.000000	9.604194
2016.000000	9.645411
2015.000000	9.706842
2014.000000	9.704815
2013.000000	9.687781
2012.000000	9.704071
2011.000000	9.734632
2010.000000	9.730703
2009.000000	9.711377
2008.000000	9.690135
2007.000000	9.683409
2006.000000	9.663607
2005.000000	9.628774
2004.000000	9.584707
2003.000000	9.552716
2002.000000	9.557053
2001.000000	9.538139
2000.000000	9.467255
1999.000000	9.398891
1998.000000	9.387422
1997.000000	9.366842
1996.000000	9.322339
1995.000000	9.312255
1994.000000	9.240026
1993.000000	9.192989
1992.000000	9.175503
1991.000000	9.122436
1990.000000	9.049109
1989.000000	9.024094
1988.000000	8.982873
1987.000000	8.925447
1986.000000	8.836422
1985.000000	8.792820
1984.000000	8.780134
1983.000000	8.759158
1982.000000	8.721993
1981.000000	8.692450
1980.000000	8.621140
1979.000000	8.559865
1978.000000	8.539214
1977.000000	8.492734
1976.000000	8.422745
1975.000000	8.395070
1974.000000	8.363590
1973.000000	8.349447
1972.000000	8.303025
1971.000000	8.214468
1970.000000	8.182937
1969.000000	8.182505
1968.000000	8.154301
1967.000000	8.078346
1966.000000	8.070994
1965.000000	8.000438
1964.000000	7.952922
1963.000000	7.927332
1962.000000	7.883487
1961.000000	7.813657
1960.000000	7.776463
1959.000000	7.763519
1958.000000	7.733948
1957.000000	7.698123
1956.000000	7.620341
1955.000000	7.579703
1954.000000	7.547529
1953.000000	7.543657
1952.000000	7.499327
1951.000000	7.470602
1950.000000	7.480504
1949.000000	7.468638
1948.000000	7.411186
1947.000000	7.479884
1946.000000	7.426491
1945.000000	7.386468
1944.000000	7.415792
1943.000000	7.405038
1942.000000	7.459635
1941.000000	7.477816
1940.000000	7.482434
1939.000000	7.528302
1938.000000	7.488641
1937.000000	7.602765
1936.000000	7.686009
1935.000000	7.749190
1934.000000	7.713324
1933.000000	7.774673
1932.000000	7.798783
1931.000000	7.834576
1930.000000	7.872078
1929.000000	7.950306
1928.000000	8.129377
1927.000000	8.294191
1926.000000	8.335988
1925.000000	8.442551
1924.000000	8.643392
1923.000000	8.756454
1922.000000	8.807702
1921.000000	8.960038
1920.000000	9.106215
1919.000000	9.255200
1918.000000	9.396756
1917.000000	9.568614
1916.000000	9.695546
1915.000000	9.924877
1914.000000	10.104812
1913.000000	10.344259
1912.000000	10.522723
1911.000000	10.634884
1910.000000	10.856404
1909.000000	11.051113
1908.000000	11.255653
1907.000000	11.470080
1906.000000	11.737297
1905.000000	11.987383
1904.000000	12.263069
1903.000000	12.505731
1902.000000	12.770920
1901.000000	13.047291
1900.000000	13.294698
1899.000000	13.628513
1898.000000	13.927438
1897.000000	14.191843
1896.000000	14.457153
1895.000000	14.755260
1894.000000	15.000289
1893.000000	15.269002
1892.000000	15.534802
1891.000000	15.820407
1890.000000	16.058474
1889.000000	16.369468
1888.000000	16.570887
1887.000000	16.825201
1886.000000	17.094136
1885.000000	17.333490
1884.000000	17.593334
1883.000000	17.764209
1882.000000	17.970695
1881.000000	18.142774
1880.000000	18.327725
1879.000000	18.533927
1878.000000	18.669346
1877.000000	18.857320
1876.000000	19.003679
1875.000000	19.153093
1874.000000	19.294142
1873.000000	19.423888
1872.000000	19.553852
1871.000000	19.667236
1870.000000	19.744861
1869.000000	19.805644
1868.000000	19.897943
1867.000000	19.937565
1866.000000	19.971090
1865.000000	20.042573
1864.000000	20.110836
1863.000000	20.184080
1862.000000	20.213309
1861.000000	20.199391
1860.000000	20.205672
1859.000000	20.245018
1858.000000	20.318261
1857.000000	20.330249
1856.000000	20.330130
1855.000000	20.348385
1854.000000	20.341893
1853.000000	20.395500
1852.000000	20.397976
1851.000000	20.399806
1850.000000	20.400468
1849.000000	20.369084
1848.000000	20.373040
1847.000000	20.353755
1846.000000	20.338575
1845.000000	20.328861
1844.000000	20.313319
1843.000000	20.302145
1842.000000	20.289254
1841.000000	20.280738
1840.000000	20.273393
1839.000000	20.246175
1838.000000	20.195022
1837.000000	20.160670
1836.000000	20.127043
1835.000000	20.091245
1834.000000	20.067862
1833.000000	20.059770
1832.000000	20.033836
1831.000000	19.990265
1830.000000	19.952230
1829.000000	19.924016
1828.000000	19.910171
1827.000000	19.889297
1826.000000	19.865200
1825.000000	19.851091
1824.000000	19.840883
1823.000000	19.801173
1822.000000	19.772324
1821.000000	19.750651
1820.000000	19.714102
1819.000000	19.679997
1818.000000	19.662530
1817.000000	19.657909
1816.000000	19.623550
1815.000000	19.587073
1814.000000	19.586164
1813.000000	19.573824
1812.000000	19.553316
1811.000000	19.524552
1810.000000	19.483456
1809.000000	19.472583
1808.000000	19.454906
1807.000000	19.422603
1806.000000	19.407135
1805.000000	19.392913
1804.000000	19.387208
1803.000000	19.372778
1802.000000	19.342947
1801.000000	19.331559
1800.000000	19.323731
1799.000000	19.311131
1798.000000	19.292348
1797.000000	19.267962
1796.000000	19.239252
1795.000000	19.229994
1794.000000	19.228111
1793.000000	19.221551
1792.000000	19.216588
1791.000000	19.201945
1790.000000	19.182762
1789.000000	19.166575
1788.000000	19.159917
1787.000000	19.155293
1786.000000	19.147827
1785.000000	19.124090
1784.000000	19.091826
1783.000000	19.065742
1782.000000	19.046963
1781.000000	19.029217
1780.000000	18.992171
1779.000000	18.945547
1778.000000	18.914515
1777.000000	18.901126
1776.000000	18.866266
1775.000000	18.811797
1774.000000	18.773146
1773.000000	18.737047
1772.000000	18.694529
1771.000000	18.649153
1770.000000	18.605917
1769.000000	18.555073
1768.000000	18.506443
1767.000000	18.464307
1766.000000	18.423058
1765.000000	18.372779
1764.000000	18.355891
1763.000000	18.298059
1762.000000	18.242360
1761.000000	18.215815
1760.000000	18.163484
1759.000000	18.119369
1758.000000	18.083302
1757.000000	18.026094
1756.000000	18.004518
1755.000000	17.954902
1754.000000	17.917521
1753.000000	17.851372
1752.000000	17.818847
1751.000000	17.771975
1750.000000	17.734031
1749.000000	17.682378
1748.000000	17.637250
1747.000000	17.577186
1746.000000	17.544768
1745.000000	17.507794
1744.000000	17.477402
1743.000000	17.436846
1742.000000	17.388361
1741.000000	17.370125
1740.000000	17.309513
1739.000000	17.260832
1738.000000	17.259550
1737.000000	17.201057
1736.000000	17.179447
1735.000000	17.165512
1734.000000	17.173976
1733.000000	17.151795
1732.000000	17.145524
1731.000000	17.170716
1730.000000	17.157503
1729.000000	17.168211
1728.000000	17.180880
1727.000000	17.210272
1726.000000	17.250033
1725.000000	17.303031
1724.000000	17.340866
1723.000000	17.377589
1722.000000	17.459706
1721.000000	17.527624
1720.000000	17.559080
1719.000000	17.624521
1718.000000	17.699936
1717.000000	17.742422
1716.000000	17.795672
1715.000000	17.857939
1714.000000	17.893084
1713.000000	17.949897
1712.000000	18.004878
1711.000000	18.035719
1710.000000	18.075882
1709.000000	18.129332
1708.000000	18.179783
1707.000000	18.163368
1706.000000	18.219250
1705.000000	18.220718
1704.000000	18.270159
1703.000000	18.269639
1702.000000	18.276142
1701.000000	18.284765
1700.000000	18.303279
1699.000000	18.256058
1698.000000	18.326017
1697.000000	18.351137
1696.000000	18.360052
1695.000000	18.386256
1694.000000	18.423919
1693.000000	18.429745
1692.000000	18.456982
1691.000000	18.534013
1690.000000	18.585529
1689.000000	18.644219
1688.000000	18.740089
1687.000000	18.804744
1686.000000	18.868597
1685.000000	18.976788
1684.000000	19.052713
1683.000000	19.175780
1682.000000	19.280910
1681.000000	19.418019
1680.000000	19.480208
1679.000000	19.606620
1678.000000	19.753577
1677.000000	19.859249
1676.000000	20.000770
1675.000000	20.107543
1674.000000	20.212281
1673.000000	20.348465
1672.000000	20.459260
1671.000000	20.576191
1670.000000	20.692603
1669.000000	20.809991
1668.000000	20.895825
1667.000000	21.003866
1666.000000	21.062165
1665.000000	21.144919
1664.000000	21.196368
1663.000000	21.244159
1662.000000	21.307566
1661.000000	21.382484
1660.000000	21.429201
1659.000000	21.475278
1658.000000	21.518566
1657.000000	21.554533
1656.000000	21.574601
1655.000000	21.588591
1654.000000	21.623701
1653.000000	21.651399
1652.000000	21.662585
1651.000000	21.645987
1650.000000	21.649898
1649.000000	21.662742
1648.000000	21.637740
1647.000000	21.643420
1646.000000	21.645466
1645.000000	21.639809
1644.000000	21.635399
1643.000000	21.608719
1642.000000	21.600140
1641.000000	21.579384
1640.000000	21.568073
1639.000000	21.550575
1638.000000	21.528103
1637.000000	21.516159
1636.000000	21.499680
1635.000000	21.470206
1634.000000	21.444807
1633.000000	21.407095
1632.000000	21.392027
1631.000000	21.378138
1630.000000	21.337073
1629.000000	21.308899
1628.000000	21.294317
1627.000000	21.269066
1626.000000	21.239174
1625.000000	21.212572
1624.000000	21.180885
1623.000000	21.142619
1622.000000	21.124316
1621.000000	21.093543
1620.000000	21.053596
1619.000000	21.026164
1618.000000	20.987582
1617.000000	20.953884
1616.000000	20.933413
1615.000000	20.905503
1614.000000	20.859395
1613.000000	20.824483
1612.000000	20.787092
1611.000000	20.756167
1610.000000	20.719307
1609.000000	20.680957
1608.000000	20.641784
1607.000000	20.611461
1606.000000	20.576003
1605.000000	20.529646
1604.000000	20.489843
1603.000000	20.454327
1602.000000	20.422698
1601.000000	20.382139
1600.000000	20.341703
1599.000000	20.312424
1598.000000	20.276401
1597.000000	20.234435
1596.000000	20.200795
1595.000000	20.165683
1594.000000	20.128649
1593.000000	20.095034
1592.000000	20.055594
1591.000000	20.012835
1590.000000	19.994230
1589.000000	19.963675
1588.000000	19.919872
1587.000000	19.895769
1586.000000	19.872633
1585.000000	19.848487
1584.000000	19.816947
1583.000000	19.785486
1582.000000	19.758856
1581.000000	19.734624
1580.000000	19.701747
1579.000000	19.664121
1578.000000	19.645052
1577.000000	19.616671
1576.000000	19.581363
1575.000000	19.566419
1574.000000	19.528125
1573.000000	19.488813
1572.000000	19.475116
1571.000000	19.453533
1570.000000	19.419779
1569.000000	19.387366
1568.000000	19.358166
1567.000000	19.343371
1566.000000	19.322331
1565.000000	19.295357
1564.000000	19.274360
1563.000000	19.271379
1562.000000	19.245623
1561.000000	19.231793
1560.000000	19.218469
1559.000000	19.205026
1558.000000	19.182827
1557.000000	19.169175
1556.000000	19.158205
1555.000000	19.142280
1554.000000	19.134817
1553.000000	19.121753
1552.000000	19.100832
1551.000000	19.078588
1550.000000	19.049807
1549.000000	19.014111
1548.000000	18.998036
1547.000000	18.956590
1546.000000	18.925677
1545.000000	18.879333
1544.000000	18.831001
1543.000000	18.789111
1542.000000	18.743681
1541.000000	18.703878
1540.000000	18.653024
1539.000000	18.588958
1538.000000	18.533183
1537.000000	18.485298
1536.000000	18.412062
1535.000000	18.347342
1534.000000	18.276348
1533.000000	18.227482
1532.000000	18.176916
1531.000000	18.124457
1530.000000	18.070429
1529.000000	18.072498
1528.000000	18.083525
1527.000000	18.086620
1526.000000	18.030489
1525.000000	17.953402
1524.000000	17.874803
1523.000000	17.797999
1522.000000	17.732073
1521.000000	17.675135
1520.000000	17.628192
1519.000000	17.603917
1518.000000	17.588966
1517.000000	17.579016
1516.000000	17.560888
1515.000000	17.509762
1514.000000	17.480804
1513.000000	17.449760
1512.000000	17.413651
1511.000000	17.399193
1510.000000	17.384901
1509.000000	17.358770
1508.000000	17.327451
1507.000000	17.308642
1506.000000	17.286081
1505.000000	17.257644
1504.000000	17.256338
1503.000000	17.281663
1502.000000	17.277427
1501.000000	17.268954
1500.000000	17.262691
1499.000000	17.257777
1498.000000	17.263499
1497.000000	17.254115
1496.000000	17.244115
1495.000000	17.270251
1494.000000	17.278928
1493.000000	17.294129
1492.000000	17.327148
1491.000000	17.347729
1490.000000	17.399403
1489.000000	17.446609
1488.000000	17.485298
1487.000000	17.529653
1486.000000	17.580713
1485.000000	17.620672
1484.000000	17.680537
1483.000000	17.746608
1482.000000	17.792433
1481.000000	17.862179
1480.000000	17.932363
1479.000000	17.982163
1478.000000	18.046087
1477.000000	18.117379
1476.000000	18.170330
1475.000000	18.232712
1474.000000	18.289514
1473.000000	18.342776
1472.000000	18.395315
1471.000000	18.433016
1470.000000	18.482426
1469.000000	18.538550
1468.000000	18.581543
1467.000000	18.671633
1466.000000	18.710000
1465.000000	18.753857
1464.000000	18.774239
1463.000000	18.807140
1462.000000	18.850652
1461.000000	18.894593
1460.000000	18.917708
1459.000000	18.950649
1458.000000	18.985883
1457.000000	19.044017
1456.000000	19.095010
1455.000000	19.118157
1454.000000	19.158129
1453.000000	19.202771
