PE UV       SUBTECH     SPECTRUM    ASCII       PEDS        4.00        
   -1
TTVeauAl 22.Sample.asc
18/02/28
11:43:57.00
18/02/28
11:43:57.00
Administrator

200.000000
1
Lambda 750
750N8071901
PerkinElmer UV WinLab 6.0.4.0738 / 1.61.00 Lambda 900

0
0
3350/servo 860.8/2
0
0
UV/VIS
1
1
1
CommonBeamDepol,150mm sphere / downward view
0
0
0
0
Program
Program
3350/servo 860.8/2
3350/0.2 860.8/0.2
3350/0.2 860.8/0.2
0
1
 
 
 
0
 
860.8
319.2
860.8
Front
100
on
 
 
0
0
0
 
0
 
 
 
0
 
 
0
0
0
0
0
 
 
 
 
0
0


0
0
#HDR
-1
-1
#GR
nm
%T
1.0
0.0
2350.000000
-1.000000
2151
8
35.160049
0.053852
#DATA
2350.000000	6.581474
2349.000000	7.192984
2348.000000	6.675990
2347.000000	7.052735
2346.000000	7.166732
2345.000000	6.738344
2344.000000	6.710693
2343.000000	6.303308
2342.000000	6.628748
2341.000000	6.902421
2340.000000	6.462902
2339.000000	6.835962
2338.000000	7.110630
2337.000000	7.134238
2336.000000	7.063057
2335.000000	7.467322
2334.000000	7.230957
2333.000000	7.573333
2332.000000	7.636112
2331.000000	7.449161
2330.000000	7.184672
2329.000000	7.329211
2328.000000	7.320149
2327.000000	7.262797
2326.000000	7.164006
2325.000000	7.369185
2324.000000	6.991192
2323.000000	7.255951
2322.000000	7.058504
2321.000000	6.954168
2320.000000	6.869470
2319.000000	7.293486
2318.000000	7.194151
2317.000000	7.037630
2316.000000	6.814312
2315.000000	6.728309
2314.000000	6.966012
2313.000000	6.738702
2312.000000	6.681781
2311.000000	6.758504
2310.000000	6.581103
2309.000000	6.761391
2308.000000	6.559189
2307.000000	6.518075
2306.000000	6.526249
2305.000000	6.715231
2304.000000	6.394236
2303.000000	6.501705
2302.000000	6.482121
2301.000000	6.453596
2300.000000	6.439308
2299.000000	6.262143
2298.000000	6.089748
2297.000000	5.955536
2296.000000	6.122002
2295.000000	6.147774
2294.000000	6.118664
2293.000000	6.067116
2292.000000	5.970769
2291.000000	6.050666
2290.000000	6.070446
2289.000000	5.982031
2288.000000	5.948869
2287.000000	6.007027
2286.000000	6.040419
2285.000000	5.813296
2284.000000	5.779910
2283.000000	5.755473
2282.000000	5.776581
2281.000000	5.932483
2280.000000	5.754745
2279.000000	5.838012
2278.000000	5.852758
2277.000000	5.821522
2276.000000	5.826051
2275.000000	5.853327
2274.000000	5.880427
2273.000000	5.903392
2272.000000	6.058320
2271.000000	6.087466
2270.000000	5.964147
2269.000000	5.959469
2268.000000	5.873589
2267.000000	6.010098
2266.000000	6.252694
2265.000000	6.367005
2264.000000	6.334866
2263.000000	6.361535
2262.000000	6.429365
2261.000000	6.438655
2260.000000	6.535611
2259.000000	6.683835
2258.000000	6.790416
2257.000000	6.791572
2256.000000	6.812546
2255.000000	6.916455
2254.000000	7.123247
2253.000000	7.215394
2252.000000	7.252976
2251.000000	7.510263
2250.000000	7.650953
2249.000000	7.680353
2248.000000	7.892814
2247.000000	8.038552
2246.000000	8.004088
2245.000000	8.097718
2244.000000	8.129262
2243.000000	8.195035
2242.000000	8.440624
2241.000000	8.589740
2240.000000	8.599136
2239.000000	8.514350
2238.000000	8.559556
2237.000000	8.691104
2236.000000	8.791870
2235.000000	8.865384
2234.000000	8.923155
2233.000000	8.965956
2232.000000	8.895783
2231.000000	8.864314
2230.000000	8.965622
2229.000000	8.985369
2228.000000	9.102318
2227.000000	9.203028
2226.000000	9.191401
2225.000000	9.103184
2224.000000	9.146916
2223.000000	9.107885
2222.000000	9.082365
2221.000000	9.017042
2220.000000	8.990607
2219.000000	9.015698
2218.000000	9.103774
2217.000000	9.070592
2216.000000	8.982530
2215.000000	8.919075
2214.000000	9.014817
2213.000000	9.032166
2212.000000	8.935595
2211.000000	8.751489
2210.000000	8.688547
2209.000000	8.717113
2208.000000	8.589044
2207.000000	8.595608
2206.000000	8.708778
2205.000000	8.600488
2204.000000	8.541833
2203.000000	8.443151
2202.000000	8.437879
2201.000000	8.398897
2200.000000	8.372140
2199.000000	8.188875
2198.000000	8.154778
2197.000000	8.145325
2196.000000	8.172358
2195.000000	8.183084
2194.000000	8.088510
2193.000000	7.897338
2192.000000	8.005694
2191.000000	7.942905
2190.000000	7.855704
2189.000000	7.806061
2188.000000	7.825540
2187.000000	7.781031
2186.000000	7.789186
2185.000000	7.682641
2184.000000	7.581214
2183.000000	7.506670
2182.000000	7.657150
2181.000000	7.611990
2180.000000	7.536493
2179.000000	7.584670
2178.000000	7.575965
2177.000000	7.626060
2176.000000	7.736134
2175.000000	7.740701
2174.000000	7.562886
2173.000000	7.564852
2172.000000	7.625951
2171.000000	7.543478
2170.000000	7.729825
2169.000000	7.647688
2168.000000	7.924987
2167.000000	7.998356
2166.000000	7.926638
2165.000000	7.821018
2164.000000	7.830882
2163.000000	7.826375
2162.000000	7.907708
2161.000000	8.205875
2160.000000	8.150695
2159.000000	8.196007
2158.000000	8.216815
2157.000000	8.308285
2156.000000	8.479418
2155.000000	8.573411
2154.000000	8.539591
2153.000000	8.744040
2152.000000	8.808732
2151.000000	8.686399
2150.000000	8.867235
2149.000000	8.908610
2148.000000	9.076222
2147.000000	9.211526
2146.000000	9.293015
2145.000000	9.275770
2144.000000	9.396848
2143.000000	9.390672
2142.000000	9.525303
2141.000000	9.474546
2140.000000	9.607463
2139.000000	9.678560
2138.000000	9.909801
2137.000000	9.964770
2136.000000	9.905932
2135.000000	9.933888
2134.000000	10.280326
2133.000000	9.981990
2132.000000	10.246013
2131.000000	10.355804
2130.000000	10.443230
2129.000000	10.385773
2128.000000	10.214822
2127.000000	10.344394
2126.000000	10.289312
2125.000000	10.384765
2124.000000	10.288528
2123.000000	10.574098
2122.000000	10.665182
2121.000000	10.507136
2120.000000	10.635236
2119.000000	10.538821
2118.000000	10.653109
2117.000000	10.642888
2116.000000	10.883546
2115.000000	10.890305
2114.000000	10.875552
2113.000000	10.921672
2112.000000	10.896822
2111.000000	10.871825
2110.000000	10.944424
2109.000000	10.912930
2108.000000	10.922077
2107.000000	10.961048
2106.000000	10.939465
2105.000000	10.972185
2104.000000	11.010171
2103.000000	11.024486
2102.000000	10.999796
2101.000000	11.203537
2100.000000	11.229020
2099.000000	11.069586
2098.000000	11.021003
2097.000000	11.080537
2096.000000	11.015874
2095.000000	11.026890
2094.000000	11.102356
2093.000000	11.014774
2092.000000	11.073628
2091.000000	11.118871
2090.000000	11.081740
2089.000000	11.131645
2088.000000	11.037126
2087.000000	11.056562
2086.000000	11.107458
2085.000000	11.132785
2084.000000	11.053264
2083.000000	11.007108
2082.000000	10.913559
2081.000000	10.859256
2080.000000	10.829656
2079.000000	10.848631
2078.000000	10.752774
2077.000000	10.722276
2076.000000	10.680592
2075.000000	10.617532
2074.000000	10.517489
2073.000000	10.507074
2072.000000	10.470477
2071.000000	10.304186
2070.000000	10.255071
2069.000000	10.173533
2068.000000	10.042611
2067.000000	9.949977
2066.000000	9.890663
2065.000000	9.828681
2064.000000	9.743072
2063.000000	9.636179
2062.000000	9.597317
2061.000000	9.490689
2060.000000	9.352257
2059.000000	9.298175
2058.000000	9.216193
2057.000000	9.105068
2056.000000	9.027240
2055.000000	8.959217
2054.000000	8.888414
2053.000000	8.753719
2052.000000	8.672487
2051.000000	8.624408
2050.000000	8.563836
2049.000000	8.481504
2048.000000	8.402607
2047.000000	8.412860
2046.000000	8.352782
2045.000000	8.265472
2044.000000	8.256154
2043.000000	8.276869
2042.000000	8.269945
2041.000000	8.282155
2040.000000	8.300484
2039.000000	8.324740
2038.000000	8.359268
2037.000000	8.365047
2036.000000	8.399809
2035.000000	8.496170
2034.000000	8.565443
2033.000000	8.655663
2032.000000	8.772022
2031.000000	8.800513
2030.000000	8.851686
2029.000000	8.970915
2028.000000	9.069303
2027.000000	9.144921
2026.000000	9.257306
2025.000000	9.360069
2024.000000	9.418192
2023.000000	9.452997
2022.000000	9.514003
2021.000000	9.542785
2020.000000	9.602340
2019.000000	9.677113
2018.000000	9.716952
2017.000000	9.750051
2016.000000	9.772957
2015.000000	9.774108
2014.000000	9.769838
2013.000000	9.790532
2012.000000	9.794434
2011.000000	9.826313
2010.000000	9.805890
2009.000000	9.765430
2008.000000	9.744091
2007.000000	9.713865
2006.000000	9.669172
2005.000000	9.635859
2004.000000	9.604141
2003.000000	9.575791
2002.000000	9.532659
2001.000000	9.477916
2000.000000	9.428196
1999.000000	9.390187
1998.000000	9.346831
1997.000000	9.294948
1996.000000	9.244677
1995.000000	9.225989
1994.000000	9.133907
1993.000000	9.059783
1992.000000	9.003250
1991.000000	8.927215
1990.000000	8.864175
1989.000000	8.838781
1988.000000	8.774980
1987.000000	8.769425
1986.000000	8.732176
1985.000000	8.657533
1984.000000	8.627769
1983.000000	8.583918
1982.000000	8.530010
1981.000000	8.494809
1980.000000	8.434233
1979.000000	8.377255
1978.000000	8.313207
1977.000000	8.282992
1976.000000	8.202099
1975.000000	8.165819
1974.000000	8.175310
1973.000000	8.136728
1972.000000	8.071471
1971.000000	8.015459
1970.000000	7.958356
1969.000000	7.897322
1968.000000	7.895721
1967.000000	7.835390
1966.000000	7.797785
1965.000000	7.734108
1964.000000	7.714657
1963.000000	7.643395
1962.000000	7.588538
1961.000000	7.597672
1960.000000	7.526796
1959.000000	7.496821
1958.000000	7.464096
1957.000000	7.410849
1956.000000	7.363180
1955.000000	7.351641
1954.000000	7.299772
1953.000000	7.274693
1952.000000	7.239085
1951.000000	7.245383
1950.000000	7.200529
1949.000000	7.180339
1948.000000	7.132323
1947.000000	7.136912
1946.000000	7.109003
1945.000000	7.156169
1944.000000	7.137968
1943.000000	7.197694
1942.000000	7.142669
1941.000000	7.168637
1940.000000	7.206341
1939.000000	7.290066
1938.000000	7.254998
1937.000000	7.323767
1936.000000	7.388143
1935.000000	7.390028
1934.000000	7.469155
1933.000000	7.563032
1932.000000	7.585614
1931.000000	7.643082
1930.000000	7.730441
1929.000000	7.787687
1928.000000	7.984551
1927.000000	8.062673
1926.000000	8.119758
1925.000000	8.292241
1924.000000	8.473111
1923.000000	8.609164
1922.000000	8.699955
1921.000000	8.904089
1920.000000	9.055553
1919.000000	9.198049
1918.000000	9.409510
1917.000000	9.649130
1916.000000	9.721135
1915.000000	9.952173
1914.000000	10.216167
1913.000000	10.423435
1912.000000	10.729041
1911.000000	10.813461
1910.000000	11.058442
1909.000000	11.365007
1908.000000	11.674096
1907.000000	11.946857
1906.000000	12.162347
1905.000000	12.599295
1904.000000	12.800866
1903.000000	13.094736
1902.000000	13.505444
1901.000000	13.830349
1900.000000	14.153986
1899.000000	14.520391
1898.000000	14.850993
1897.000000	15.170256
1896.000000	15.578818
1895.000000	15.964554
1894.000000	16.295871
1893.000000	16.608241
1892.000000	17.006236
1891.000000	17.339065
1890.000000	17.660068
1889.000000	18.031025
1888.000000	18.323765
1887.000000	18.683910
1886.000000	18.947938
1885.000000	19.260433
1884.000000	19.599361
1883.000000	19.901328
1882.000000	20.120453
1881.000000	20.444106
1880.000000	20.716631
1879.000000	20.921576
1878.000000	21.132233
1877.000000	21.406046
1876.000000	21.597158
1875.000000	21.823972
1874.000000	22.016469
1873.000000	22.160866
1872.000000	22.353494
1871.000000	22.522358
1870.000000	22.620457
1869.000000	22.734831
1868.000000	22.855543
1867.000000	22.932889
1866.000000	23.034778
1865.000000	23.104641
1864.000000	23.151596
1863.000000	23.224138
1862.000000	23.299680
1861.000000	23.376207
1860.000000	23.416270
1859.000000	23.455967
1858.000000	23.491368
1857.000000	23.527562
1856.000000	23.549931
1855.000000	23.557609
1854.000000	23.583155
1853.000000	23.601927
1852.000000	23.611607
1851.000000	23.616193
1850.000000	23.636314
1849.000000	23.618388
1848.000000	23.606256
1847.000000	23.603688
1846.000000	23.589480
1845.000000	23.582093
1844.000000	23.558353
1843.000000	23.515517
1842.000000	23.512683
1841.000000	23.499847
1840.000000	23.456477
1839.000000	23.434686
1838.000000	23.393386
1837.000000	23.352124
1836.000000	23.342066
1835.000000	23.320848
1834.000000	23.262663
1833.000000	23.205399
1832.000000	23.167453
1831.000000	23.131112
1830.000000	23.105347
1829.000000	23.056477
1828.000000	23.002897
1827.000000	22.977040
1826.000000	22.914596
1825.000000	22.892948
1824.000000	22.878080
1823.000000	22.850008
1822.000000	22.808776
1821.000000	22.778502
1820.000000	22.732373
1819.000000	22.674495
1818.000000	22.655339
1817.000000	22.632589
1816.000000	22.596521
1815.000000	22.566429
1814.000000	22.521647
1813.000000	22.490249
1812.000000	22.469525
1811.000000	22.443562
1810.000000	22.410669
1809.000000	22.378441
1808.000000	22.349589
1807.000000	22.306345
1806.000000	22.265071
1805.000000	22.247688
1804.000000	22.213880
1803.000000	22.191316
1802.000000	22.166344
1801.000000	22.128483
1800.000000	22.117167
1799.000000	22.104106
1798.000000	22.088094
1797.000000	22.051835
1796.000000	22.015620
1795.000000	22.004132
1794.000000	21.987725
1793.000000	21.955397
1792.000000	21.933639
1791.000000	21.917367
1790.000000	21.893781
1789.000000	21.874430
1788.000000	21.873606
1787.000000	21.834400
1786.000000	21.795280
1785.000000	21.771972
1784.000000	21.730193
1783.000000	21.701444
1782.000000	21.679774
1781.000000	21.642459
1780.000000	21.598135
1779.000000	21.553858
1778.000000	21.514925
1777.000000	21.464395
1776.000000	21.413721
1775.000000	21.336429
1774.000000	21.270950
1773.000000	21.225637
1772.000000	21.157376
1771.000000	21.109321
1770.000000	21.057119
1769.000000	20.994839
1768.000000	20.932127
1767.000000	20.877634
1766.000000	20.823369
1765.000000	20.771445
1764.000000	20.731073
1763.000000	20.663825
1762.000000	20.619379
1761.000000	20.553882
1760.000000	20.500781
1759.000000	20.454400
1758.000000	20.385135
1757.000000	20.319200
1756.000000	20.276723
1755.000000	20.235025
1754.000000	20.185893
1753.000000	20.126772
1752.000000	20.069000
1751.000000	20.025654
1750.000000	19.955675
1749.000000	19.901238
1748.000000	19.837765
1747.000000	19.769281
1746.000000	19.711096
1745.000000	19.658907
1744.000000	19.590900
1743.000000	19.572689
1742.000000	19.504600
1741.000000	19.446043
1740.000000	19.400215
1739.000000	19.342411
1738.000000	19.314234
1737.000000	19.297847
1736.000000	19.266441
1735.000000	19.208413
1734.000000	19.170312
1733.000000	19.171042
1732.000000	19.173231
1731.000000	19.185392
1730.000000	19.177260
1729.000000	19.211875
1728.000000	19.237869
1727.000000	19.282216
1726.000000	19.337952
1725.000000	19.386127
1724.000000	19.452826
1723.000000	19.510760
1722.000000	19.594278
1721.000000	19.677358
1720.000000	19.757472
1719.000000	19.840972
1718.000000	19.942720
1717.000000	20.016513
1716.000000	20.092970
1715.000000	20.160928
1714.000000	20.243760
1713.000000	20.311051
1712.000000	20.369426
1711.000000	20.445446
1710.000000	20.481435
1709.000000	20.530097
1708.000000	20.585518
1707.000000	20.637460
1706.000000	20.674035
1705.000000	20.695747
1704.000000	20.726145
1703.000000	20.726356
1702.000000	20.740880
1701.000000	20.778819
1700.000000	20.792115
1699.000000	20.789963
1698.000000	20.848178
1697.000000	20.856968
1696.000000	20.902410
1695.000000	20.912410
1694.000000	20.961903
1693.000000	21.025526
1692.000000	21.049918
1691.000000	21.103202
1690.000000	21.196598
1689.000000	21.287980
1688.000000	21.397386
1687.000000	21.500124
1686.000000	21.600823
1685.000000	21.739980
1684.000000	21.883433
1683.000000	22.017473
1682.000000	22.183750
1681.000000	22.343428
1680.000000	22.518796
1679.000000	22.668812
1678.000000	22.840453
1677.000000	23.008473
1676.000000	23.183282
1675.000000	23.363912
1674.000000	23.551525
1673.000000	23.700601
1672.000000	23.843999
1671.000000	24.029246
1670.000000	24.184289
1669.000000	24.361600
1668.000000	24.499580
1667.000000	24.628630
1666.000000	24.709021
1665.000000	24.828157
1664.000000	24.914030
1663.000000	25.004076
1662.000000	25.092045
1661.000000	25.158978
1660.000000	25.246769
1659.000000	25.314897
1658.000000	25.381662
1657.000000	25.423602
1656.000000	25.446661
1655.000000	25.486621
1654.000000	25.527801
1653.000000	25.548448
1652.000000	25.575198
1651.000000	25.585947
1650.000000	25.595918
1649.000000	25.585246
1648.000000	25.589933
1647.000000	25.578127
1646.000000	25.566868
1645.000000	25.551127
1644.000000	25.541201
1643.000000	25.509983
1642.000000	25.491697
1641.000000	25.474949
1640.000000	25.468663
1639.000000	25.419771
1638.000000	25.393157
1637.000000	25.380310
1636.000000	25.339805
1635.000000	25.292679
1634.000000	25.266915
1633.000000	25.231624
1632.000000	25.187746
1631.000000	25.154945
1630.000000	25.112047
1629.000000	25.071408
1628.000000	25.024076
1627.000000	24.987444
1626.000000	24.946691
1625.000000	24.907579
1624.000000	24.860291
1623.000000	24.817347
1622.000000	24.771774
1621.000000	24.713241
1620.000000	24.674851
1619.000000	24.627872
1618.000000	24.575134
1617.000000	24.521711
1616.000000	24.480914
1615.000000	24.428884
1614.000000	24.360799
1613.000000	24.299685
1612.000000	24.252300
1611.000000	24.193527
1610.000000	24.137383
1609.000000	24.076024
1608.000000	24.024301
1607.000000	23.974808
1606.000000	23.906529
1605.000000	23.843202
1604.000000	23.777669
1603.000000	23.718435
1602.000000	23.672917
1601.000000	23.628257
1600.000000	23.569321
1599.000000	23.498319
1598.000000	23.441108
1597.000000	23.391419
1596.000000	23.340068
1595.000000	23.288405
1594.000000	23.239904
1593.000000	23.190222
1592.000000	23.137838
1591.000000	23.077795
1590.000000	23.019569
1589.000000	22.969484
1588.000000	22.924473
1587.000000	22.882802
1586.000000	22.834175
1585.000000	22.786019
1584.000000	22.746889
1583.000000	22.709212
1582.000000	22.675822
1581.000000	22.636689
1580.000000	22.588929
1579.000000	22.548640
1578.000000	22.518164
1577.000000	22.472914
1576.000000	22.423321
1575.000000	22.384251
1574.000000	22.340731
1573.000000	22.296959
1572.000000	22.258823
1571.000000	22.213395
1570.000000	22.175135
1569.000000	22.137266
1568.000000	22.102363
1567.000000	22.075092
1566.000000	22.032806
1565.000000	21.996952
1564.000000	21.973119
1563.000000	21.961028
1562.000000	21.935765
1561.000000	21.911500
1560.000000	21.884836
1559.000000	21.846608
1558.000000	21.841973
1557.000000	21.839952
1556.000000	21.814454
1555.000000	21.791467
1554.000000	21.764367
1553.000000	21.747710
1552.000000	21.734537
1551.000000	21.709371
1550.000000	21.673210
1549.000000	21.626115
1548.000000	21.598884
1547.000000	21.541740
1546.000000	21.490904
1545.000000	21.436248
1544.000000	21.375176
1543.000000	21.311738
1542.000000	21.246138
1541.000000	21.170307
1540.000000	21.095982
1539.000000	21.019821
1538.000000	20.930995
1537.000000	20.850445
1536.000000	20.767988
1535.000000	20.680330
1534.000000	20.582516
1533.000000	20.498216
1532.000000	20.432147
1531.000000	20.363100
1530.000000	20.290607
1529.000000	20.250097
1528.000000	20.253362
1527.000000	20.230367
1526.000000	20.171482
1525.000000	20.073413
1524.000000	19.973018
1523.000000	19.885421
1522.000000	19.814710
1521.000000	19.750391
1520.000000	19.725642
1519.000000	19.696882
1518.000000	19.634656
1517.000000	19.597498
1516.000000	19.582854
1515.000000	19.540478
1514.000000	19.485559
1513.000000	19.450373
1512.000000	19.435457
1511.000000	19.428329
1510.000000	19.391930
1509.000000	19.345526
1508.000000	19.324121
1507.000000	19.308557
1506.000000	19.282407
1505.000000	19.296776
1504.000000	19.298466
1503.000000	19.276133
1502.000000	19.249358
1501.000000	19.253068
1500.000000	19.236012
1499.000000	19.235576
1498.000000	19.252097
1497.000000	19.253291
1496.000000	19.262924
1495.000000	19.281994
1494.000000	19.295444
1493.000000	19.325976
1492.000000	19.347596
1491.000000	19.416872
1490.000000	19.441797
1489.000000	19.493406
1488.000000	19.527946
1487.000000	19.583638
1486.000000	19.634118
1485.000000	19.704916
1484.000000	19.752393
1483.000000	19.836170
1482.000000	19.915533
1481.000000	19.973252
1480.000000	20.054103
1479.000000	20.121603
1478.000000	20.195666
1477.000000	20.273314
1476.000000	20.343946
1475.000000	20.390820
1474.000000	20.466618
1473.000000	20.524585
1472.000000	20.587072
1471.000000	20.645394
1470.000000	20.719418
1469.000000	20.767048
1468.000000	20.847247
1467.000000	20.914167
1466.000000	20.951477
1465.000000	21.008028
1464.000000	21.039035
1463.000000	21.086132
1462.000000	21.153010
1461.000000	21.205253
1460.000000	21.246228
1459.000000	21.282900
1458.000000	21.359270
1457.000000	21.429828
1456.000000	21.461690
1455.000000	21.503476
1454.000000	21.567447
1453.000000	21.637141
