PE UV       SUBTECH     SPECTRUM    ASCII       PEDS        4.00        
   -1
Empty Chamber.Sample.asc
18/02/28
08:58:21.00
18/02/28
08:58:21.00
Administrator

200.000000
1
Lambda 750
750N8071901
PerkinElmer UV WinLab 6.0.4.0738 / 1.61.00 Lambda 900

0
0
3350/servo 860.8/2
0
0
UV/VIS
1
1
1
CommonBeamDepol,150mm sphere / downward view
0
0
0
0
Program
Program
3350/servo 860.8/2
3350/0.2 860.8/0.2
3350/0.2 860.8/0.2
0
1
 
 
 
0
 
860.8
319.2
860.8
Front
100
on
 
 
0
0
0
 
0
 
 
 
0
 
 
0
0
0
0
0
 
 
 
 
0
0


0
0
#HDR
-1
-1
#GR
nm
%T
1.0
0.0
2350.000000
-1.000000
2151
8
100.679012
99.242684
#DATA
2350.000000	100.214952
2349.000000	100.264229
2348.000000	99.312199
2347.000000	99.800726
2346.000000	99.937567
2345.000000	100.135930
2344.000000	100.509582
2343.000000	100.139763
2342.000000	99.910768
2341.000000	100.236751
2340.000000	100.197221
2339.000000	99.761573
2338.000000	100.305817
2337.000000	99.948747
2336.000000	99.242684
2335.000000	100.111317
2334.000000	100.224645
2333.000000	100.075996
2332.000000	100.511407
2331.000000	100.063327
2330.000000	99.825378
2329.000000	100.034049
2328.000000	100.169261
2327.000000	99.715428
2326.000000	99.980477
2325.000000	100.163560
2324.000000	100.233254
2323.000000	100.021533
2322.000000	100.167078
2321.000000	100.277374
2320.000000	99.749443
2319.000000	99.885099
2318.000000	100.324946
2317.000000	100.305092
2316.000000	99.868895
2315.000000	99.933296
2314.000000	100.298803
2313.000000	99.969834
2312.000000	99.923579
2311.000000	99.992507
2310.000000	100.078928
2309.000000	100.003852
2308.000000	99.966683
2307.000000	99.868358
2306.000000	99.928241
2305.000000	100.010818
2304.000000	99.852681
2303.000000	99.987141
2302.000000	100.331996
2301.000000	99.908068
2300.000000	99.868343
2299.000000	99.890810
2298.000000	99.941385
2297.000000	99.959393
2296.000000	100.151113
2295.000000	99.922623
2294.000000	99.851904
2293.000000	99.941114
2292.000000	99.639296
2291.000000	99.813918
2290.000000	100.004955
2289.000000	100.310071
2288.000000	100.276883
2287.000000	100.075514
2286.000000	99.910571
2285.000000	99.928475
2284.000000	99.981558
2283.000000	99.822794
2282.000000	99.930860
2281.000000	100.139947
2280.000000	99.936983
2279.000000	99.849538
2278.000000	100.085101
2277.000000	100.011548
2276.000000	99.987249
2275.000000	100.045153
2274.000000	100.089372
2273.000000	100.263577
2272.000000	100.284616
2271.000000	99.976881
2270.000000	100.116889
2269.000000	100.064890
2268.000000	99.809164
2267.000000	100.024221
2266.000000	100.259118
2265.000000	100.219214
2264.000000	100.145111
2263.000000	99.991086
2262.000000	99.874641
2261.000000	99.930170
2260.000000	100.155180
2259.000000	100.128835
2258.000000	100.129767
2257.000000	100.121311
2256.000000	100.073942
2255.000000	100.121123
2254.000000	100.048219
2253.000000	100.010034
2252.000000	99.926675
2251.000000	99.929112
2250.000000	99.946292
2249.000000	99.845859
2248.000000	99.922720
2247.000000	99.992910
2246.000000	99.961417
2245.000000	100.064653
2244.000000	100.170250
2243.000000	100.087319
2242.000000	100.086665
2241.000000	100.024423
2240.000000	99.996352
2239.000000	99.972246
2238.000000	100.070633
2237.000000	100.195057
2236.000000	100.144105
2235.000000	100.095550
2234.000000	100.131336
2233.000000	100.022405
2232.000000	99.901347
2231.000000	99.807000
2230.000000	99.768092
2229.000000	99.833720
2228.000000	99.922676
2227.000000	99.935896
2226.000000	99.887995
2225.000000	99.960998
2224.000000	99.936667
2223.000000	100.010435
2222.000000	99.949930
2221.000000	100.097328
2220.000000	100.101413
2219.000000	99.894952
2218.000000	99.958067
2217.000000	100.051626
2216.000000	100.010925
2215.000000	99.980981
2214.000000	99.955677
2213.000000	100.125293
2212.000000	100.044477
2211.000000	99.946199
2210.000000	100.021883
2209.000000	100.065154
2208.000000	100.062445
2207.000000	100.116887
2206.000000	100.077280
2205.000000	100.048246
2204.000000	100.007908
2203.000000	100.024724
2202.000000	99.997266
2201.000000	99.986746
2200.000000	99.955699
2199.000000	99.998988
2198.000000	100.197755
2197.000000	99.944650
2196.000000	100.038583
2195.000000	100.190339
2194.000000	100.131394
2193.000000	99.986142
2192.000000	100.099374
2191.000000	100.123256
2190.000000	100.137976
2189.000000	99.882877
2188.000000	99.889414
2187.000000	99.787308
2186.000000	99.851632
2185.000000	99.922695
2184.000000	100.177432
2183.000000	100.277902
2182.000000	100.064675
2181.000000	100.261259
2180.000000	99.994844
2179.000000	99.954194
2178.000000	100.073052
2177.000000	99.938576
2176.000000	100.022741
2175.000000	100.165422
2174.000000	100.185557
2173.000000	100.107121
2172.000000	100.220977
2171.000000	100.022999
2170.000000	100.000504
2169.000000	100.191312
2168.000000	100.342477
2167.000000	100.108417
2166.000000	100.044923
2165.000000	99.871614
2164.000000	99.953292
2163.000000	99.891480
2162.000000	100.140008
2161.000000	100.048042
2160.000000	100.046215
2159.000000	100.036731
2158.000000	100.038844
2157.000000	99.990623
2156.000000	100.007660
2155.000000	99.863601
2154.000000	100.002721
2153.000000	100.460916
2152.000000	99.888471
2151.000000	100.024821
2150.000000	100.075153
2149.000000	99.795039
2148.000000	99.881360
2147.000000	99.807983
2146.000000	99.872348
2145.000000	100.056678
2144.000000	100.150221
2143.000000	100.086057
2142.000000	99.867956
2141.000000	99.939046
2140.000000	99.870522
2139.000000	100.032247
2138.000000	100.164187
2137.000000	99.996372
2136.000000	99.873946
2135.000000	100.136765
2134.000000	99.903039
2133.000000	100.089116
2132.000000	100.206953
2131.000000	100.018839
2130.000000	100.276664
2129.000000	100.019478
2128.000000	99.864789
2127.000000	100.051092
2126.000000	100.121579
2125.000000	99.880036
2124.000000	99.936970
2123.000000	100.085470
2122.000000	100.027040
2121.000000	100.027033
2120.000000	100.010185
2119.000000	99.903769
2118.000000	99.938642
2117.000000	99.954886
2116.000000	100.201783
2115.000000	100.163478
2114.000000	99.986669
2113.000000	100.007166
2112.000000	100.172643
2111.000000	100.096452
2110.000000	100.134333
2109.000000	100.146488
2108.000000	100.064360
2107.000000	100.014448
2106.000000	100.034891
2105.000000	99.971499
2104.000000	99.911520
2103.000000	99.870067
2102.000000	99.926818
2101.000000	99.904361
2100.000000	100.139023
2099.000000	100.087509
2098.000000	100.001011
2097.000000	99.962006
2096.000000	99.882121
2095.000000	100.059874
2094.000000	100.062300
2093.000000	100.005459
2092.000000	100.045798
2091.000000	99.995858
2090.000000	100.064391
2089.000000	99.880376
2088.000000	99.977864
2087.000000	100.068766
2086.000000	99.988675
2085.000000	100.073143
2084.000000	99.886226
2083.000000	99.973200
2082.000000	99.897807
2081.000000	99.973798
2080.000000	100.043706
2079.000000	100.000809
2078.000000	99.966215
2077.000000	99.997977
2076.000000	100.155679
2075.000000	99.962074
2074.000000	99.854166
2073.000000	100.014057
2072.000000	99.944606
2071.000000	99.932967
2070.000000	100.028822
2069.000000	100.015176
2068.000000	100.043303
2067.000000	100.086354
2066.000000	99.968529
2065.000000	99.981377
2064.000000	100.103323
2063.000000	100.121743
2062.000000	100.013665
2061.000000	99.984314
2060.000000	99.924446
2059.000000	99.978341
2058.000000	100.079355
2057.000000	100.104886
2056.000000	100.070441
2055.000000	100.021955
2054.000000	99.979461
2053.000000	100.021468
2052.000000	100.058660
2051.000000	100.040005
2050.000000	99.994837
2049.000000	99.987246
2048.000000	99.987752
2047.000000	100.006683
2046.000000	100.001620
2045.000000	99.972672
2044.000000	99.974079
2043.000000	99.967299
2042.000000	99.927103
2041.000000	100.020256
2040.000000	100.062206
2039.000000	100.036875
2038.000000	100.043459
2037.000000	99.976397
2036.000000	99.907171
2035.000000	99.965561
2034.000000	100.098154
2033.000000	100.082217
2032.000000	100.016622
2031.000000	100.028886
2030.000000	99.987841
2029.000000	99.971531
2028.000000	100.021478
2027.000000	100.033236
2026.000000	100.039942
2025.000000	100.033968
2024.000000	100.031029
2023.000000	100.027586
2022.000000	99.947586
2021.000000	99.951037
2020.000000	100.008722
2019.000000	100.026468
2018.000000	99.987127
2017.000000	99.965538
2016.000000	99.944754
2015.000000	99.936640
2014.000000	99.951240
2013.000000	99.976479
2012.000000	100.059653
2011.000000	100.084830
2010.000000	100.026981
2009.000000	100.002941
2008.000000	100.023532
2007.000000	99.996855
2006.000000	99.968049
2005.000000	99.972512
2004.000000	99.993203
2003.000000	99.961046
2002.000000	99.976867
2001.000000	99.931640
2000.000000	99.916728
1999.000000	99.963474
1998.000000	100.013294
1997.000000	99.986706
1996.000000	99.998072
1995.000000	99.961540
1994.000000	99.940844
1993.000000	99.941544
1992.000000	99.985485
1991.000000	99.992894
1990.000000	99.971171
1989.000000	99.993808
1988.000000	99.963454
1987.000000	100.015335
1986.000000	99.970247
1985.000000	99.909151
1984.000000	99.967310
1983.000000	100.019907
1982.000000	99.970656
1981.000000	99.967915
1980.000000	99.963555
1979.000000	99.994008
1978.000000	100.012697
1977.000000	100.005891
1976.000000	100.056072
1975.000000	100.024378
1974.000000	100.005891
1973.000000	99.985680
1972.000000	99.971872
1971.000000	99.966696
1970.000000	99.959188
1969.000000	99.954819
1968.000000	99.951886
1967.000000	100.019802
1966.000000	100.032901
1965.000000	99.978274
1964.000000	99.990356
1963.000000	100.006802
1962.000000	99.996446
1961.000000	100.029044
1960.000000	100.017771
1959.000000	100.041846
1958.000000	100.005281
1957.000000	99.957880
1956.000000	99.943278
1955.000000	99.949762
1954.000000	99.961941
1953.000000	100.052694
1952.000000	100.057368
1951.000000	100.034936
1950.000000	100.060223
1949.000000	100.012084
1948.000000	100.013199
1947.000000	100.020303
1946.000000	100.008320
1945.000000	100.013394
1944.000000	99.981738
1943.000000	100.030655
1942.000000	99.980520
1941.000000	99.967638
1940.000000	99.937420
1939.000000	99.997666
1938.000000	99.979008
1937.000000	99.959637
1936.000000	99.958711
1935.000000	100.017046
1934.000000	99.942813
1933.000000	100.066052
1932.000000	100.024143
1931.000000	100.057824
1930.000000	100.060797
1929.000000	100.010549
1928.000000	99.998376
1927.000000	99.879970
1926.000000	99.960341
1925.000000	99.926915
1924.000000	99.915755
1923.000000	99.911731
1922.000000	99.985604
1921.000000	99.957116
1920.000000	99.896012
1919.000000	100.003144
1918.000000	99.958801
1917.000000	99.989855
1916.000000	100.052452
1915.000000	100.048769
1914.000000	99.971914
1913.000000	100.115008
1912.000000	99.932771
1911.000000	100.030142
1910.000000	100.032888
1909.000000	99.995536
1908.000000	99.930625
1907.000000	100.135534
1906.000000	100.038862
1905.000000	99.989144
1904.000000	99.991780
1903.000000	100.026168
1902.000000	100.003857
1901.000000	100.037029
1900.000000	100.035605
1899.000000	99.950698
1898.000000	100.014007
1897.000000	100.036030
1896.000000	100.018671
1895.000000	100.008627
1894.000000	100.015532
1893.000000	100.089151
1892.000000	99.980318
1891.000000	100.015119
1890.000000	100.041414
1889.000000	100.024651
1888.000000	99.969072
1887.000000	100.005986
1886.000000	99.989655
1885.000000	100.017648
1884.000000	99.994526
1883.000000	100.054784
1882.000000	99.969083
1881.000000	99.984696
1880.000000	100.027675
1879.000000	99.993819
1878.000000	99.964943
1877.000000	99.992400
1876.000000	100.024425
1875.000000	99.962015
1874.000000	99.973664
1873.000000	99.967895
1872.000000	99.940549
1871.000000	99.999899
1870.000000	99.972755
1869.000000	99.992604
1868.000000	100.020979
1867.000000	100.017229
1866.000000	100.050264
1865.000000	99.998176
1864.000000	99.969304
1863.000000	100.017330
1862.000000	100.032635
1861.000000	100.014089
1860.000000	99.970508
1859.000000	99.980233
1858.000000	99.946082
1857.000000	99.936687
1856.000000	99.960990
1855.000000	99.990677
1854.000000	99.989461
1853.000000	99.980948
1852.000000	99.975383
1851.000000	99.996048
1850.000000	100.041657
1849.000000	100.007499
1848.000000	100.040651
1847.000000	100.041162
1846.000000	100.011051
1845.000000	99.981047
1844.000000	100.010134
1843.000000	100.003243
1842.000000	100.006992
1841.000000	99.991893
1840.000000	100.008006
1839.000000	100.027974
1838.000000	100.017637
1837.000000	99.996047
1836.000000	100.010951
1835.000000	100.012169
1834.000000	99.997769
1833.000000	100.011560
1832.000000	100.018254
1831.000000	100.005883
1830.000000	100.029418
1829.000000	100.044740
1828.000000	100.009027
1827.000000	100.024449
1826.000000	100.037136
1825.000000	100.021408
1824.000000	100.027297
1823.000000	100.034811
1822.000000	100.017352
1821.000000	100.010859
1820.000000	100.006293
1819.000000	100.010860
1818.000000	100.005075
1817.000000	99.991067
1816.000000	99.985486
1815.000000	100.007613
1814.000000	100.014011
1813.000000	99.990152
1812.000000	99.961624
1811.000000	99.972082
1810.000000	99.992386
1809.000000	99.994416
1808.000000	99.992588
1807.000000	99.994719
1806.000000	99.979996
1805.000000	99.983042
1804.000000	99.996750
1803.000000	100.024784
1802.000000	100.021126
1801.000000	99.984868
1800.000000	100.012088
1799.000000	100.001422
1798.000000	99.979994
1797.000000	99.996750
1796.000000	99.993500
1795.000000	99.991976
1794.000000	99.994211
1793.000000	100.004571
1792.000000	100.042979
1791.000000	100.052429
1790.000000	99.997562
1789.000000	99.987609
1788.000000	99.992280
1787.000000	99.983138
1786.000000	100.020116
1785.000000	100.010768
1784.000000	99.985271
1783.000000	99.977857
1782.000000	99.972271
1781.000000	99.972677
1780.000000	99.987302
1779.000000	100.007009
1778.000000	99.984156
1777.000000	99.998070
1776.000000	100.007010
1775.000000	99.990857
1774.000000	100.010869
1773.000000	100.007923
1772.000000	99.974916
1771.000000	99.978268
1770.000000	99.997867
1769.000000	99.973692
1768.000000	99.995632
1767.000000	99.985374
1766.000000	99.986796
1765.000000	99.992584
1764.000000	100.013308
1763.000000	100.014019
1762.000000	99.986290
1761.000000	100.025189
1760.000000	100.003860
1759.000000	100.007721
1758.000000	100.000406
1757.000000	100.006705
1756.000000	100.002641
1755.000000	100.006399
1754.000000	99.996140
1753.000000	100.018079
1752.000000	99.998070
1751.000000	99.986899
1750.000000	99.985579
1749.000000	99.990556
1748.000000	99.986187
1747.000000	100.016860
1746.000000	100.020316
1745.000000	99.985985
1744.000000	100.044391
1743.000000	99.991369
1742.000000	100.007413
1741.000000	99.966797
1740.000000	100.022650
1739.000000	100.000102
1738.000000	99.983144
1737.000000	99.975326
1736.000000	100.002031
1735.000000	99.978879
1734.000000	99.986595
1733.000000	100.017269
1732.000000	100.042057
1731.000000	100.013407
1730.000000	99.972080
1729.000000	99.989338
1728.000000	100.002437
1727.000000	99.961822
1726.000000	99.984871
1725.000000	100.039110
1724.000000	100.024374
1723.000000	99.996041
1722.000000	99.992993
1721.000000	99.989542
1720.000000	99.988729
1719.000000	100.022952
1718.000000	99.988423
1717.000000	100.016246
1716.000000	99.998883
1715.000000	99.970049
1714.000000	100.012492
1713.000000	100.001828
1712.000000	100.004368
1711.000000	99.977659
1710.000000	99.959386
1709.000000	99.982231
1708.000000	99.999898
1707.000000	99.971064
1706.000000	100.009647
1705.000000	100.007414
1704.000000	99.974415
1703.000000	99.973194
1702.000000	99.993298
1701.000000	99.987003
1700.000000	99.954315
1699.000000	100.003147
1698.000000	99.974414
1697.000000	100.010663
1696.000000	100.025388
1695.000000	99.995939
1694.000000	99.989747
1693.000000	99.989744
1692.000000	99.969032
1691.000000	100.006702
1690.000000	100.003555
1689.000000	100.001016
1688.000000	99.963754
1687.000000	99.979285
1686.000000	99.969745
1685.000000	100.020510
1684.000000	100.012184
1683.000000	100.005686
1682.000000	99.967214
1681.000000	100.009849
1680.000000	99.990660
1679.000000	100.017870
1678.000000	100.017261
1677.000000	99.992284
1676.000000	100.005077
1675.000000	100.002945
1674.000000	100.004772
1673.000000	100.001015
1672.000000	100.004569
1671.000000	99.980300
1670.000000	100.001929
1669.000000	99.991678
1668.000000	99.983053
1667.000000	100.000913
1666.000000	99.994520
1665.000000	100.020403
1664.000000	99.989040
1663.000000	99.993607
1662.000000	100.004769
1661.000000	100.001116
1660.000000	99.999391
1659.000000	99.992592
1658.000000	99.959922
1657.000000	99.988636
1656.000000	99.992594
1655.000000	99.974333
1654.000000	100.011365
1653.000000	100.012482
1652.000000	100.000913
1651.000000	99.987824
1650.000000	100.021414
1649.000000	100.005582
1648.000000	99.995839
1647.000000	99.998681
1646.000000	99.993912
1645.000000	99.996651
1644.000000	100.008727
1643.000000	100.007407
1642.000000	100.015526
1641.000000	99.994420
1640.000000	99.991274
1639.000000	100.006798
1638.000000	99.982245
1637.000000	99.995636
1636.000000	99.998884
1635.000000	100.011365
1634.000000	100.004262
1633.000000	100.000507
1632.000000	99.994419
1631.000000	100.007307
1630.000000	99.984169
1629.000000	99.981229
1628.000000	99.997666
1627.000000	99.985187
1626.000000	99.974231
1625.000000	99.983866
1624.000000	99.981532
1623.000000	100.005479
1622.000000	100.013395
1621.000000	100.011974
1620.000000	100.009539
1619.000000	100.001827
1618.000000	99.995536
1617.000000	100.001015
1616.000000	99.999797
1615.000000	100.004769
1614.000000	99.999797
1613.000000	99.991782
1612.000000	99.993810
1611.000000	99.997362
1610.000000	100.004667
1609.000000	100.006798
1608.000000	99.998985
1607.000000	99.980418
1606.000000	99.997971
1605.000000	100.006291
1604.000000	100.007103
1603.000000	100.016439
1602.000000	100.014004
1601.000000	100.002435
1600.000000	100.009843
1599.000000	100.001725
1598.000000	99.987419
1597.000000	99.986304
1596.000000	99.986406
1595.000000	100.002131
1594.000000	100.006088
1593.000000	99.992797
1592.000000	99.994014
1591.000000	99.999797
1590.000000	100.002131
1589.000000	99.992797
1588.000000	100.001623
1587.000000	100.015221
1586.000000	100.012989
1585.000000	100.018977
1584.000000	100.013293
1583.000000	99.992492
1582.000000	100.004261
1581.000000	99.998478
1580.000000	99.994623
1579.000000	100.000710
1578.000000	99.998377
1577.000000	100.009741
1576.000000	100.016742
1575.000000	100.018265
1574.000000	100.012276
1573.000000	100.034293
1572.000000	100.031349
1571.000000	100.012377
1570.000000	99.999696
1569.000000	100.007000
1568.000000	99.989450
1567.000000	99.984278
1566.000000	99.991581
1565.000000	99.996145
1564.000000	100.001116
1563.000000	100.025667
1562.000000	100.012578
1561.000000	100.003753
1560.000000	100.005883
1559.000000	99.986307
1558.000000	99.996855
1557.000000	100.014508
1556.000000	99.991276
1555.000000	100.007607
1554.000000	100.020592
1553.000000	100.000000
1552.000000	99.995334
1551.000000	100.008217
1550.000000	99.997768
1549.000000	100.001826
1548.000000	100.001927
1547.000000	99.986003
1546.000000	99.995740
1545.000000	100.005173
1544.000000	99.992494
1543.000000	99.974440
1542.000000	99.987320
1541.000000	99.982960
1540.000000	99.994827
1539.000000	100.006289
1538.000000	99.997363
1537.000000	99.985803
1536.000000	99.973835
1535.000000	99.983570
1534.000000	99.999899
1533.000000	99.999391
1532.000000	99.984382
1531.000000	99.998580
1530.000000	100.025768
1529.000000	99.998985
1528.000000	100.001217
1527.000000	99.998681
1526.000000	99.996348
1525.000000	100.008016
1524.000000	100.000913
1523.000000	99.997058
1522.000000	100.001217
1521.000000	100.009027
1520.000000	99.988640
1519.000000	99.989958
1518.000000	100.031150
1517.000000	100.007000
1516.000000	99.969162
1515.000000	100.021815
1514.000000	100.000609
1513.000000	99.995740
1512.000000	99.968351
1511.000000	99.982754
1510.000000	100.002942
1509.000000	100.036428
1508.000000	100.000203
1507.000000	100.005783
1506.000000	99.999899
1505.000000	99.966827
1504.000000	100.010858
1503.000000	99.987723
1502.000000	99.974028
1501.000000	99.997362
1500.000000	100.001420
1499.000000	99.987928
1498.000000	100.009741
1497.000000	100.001725
1496.000000	99.989247
1495.000000	100.003957
1494.000000	100.001015
1493.000000	99.991277
1492.000000	99.994117
1491.000000	99.984380
1490.000000	100.005681
1489.000000	100.006087
