PE UV       SUBTECH     SPECTRUM    ASCII       PEDS        4.00        
   -1
TTVeauUK 42.Sample.asc
18/02/28
09:49:15.00
18/02/28
09:49:15.00
Administrator

200.000000
1
Lambda 750
750N8071901
PerkinElmer UV WinLab 6.0.4.0738 / 1.61.00 Lambda 900

0
0
3350/servo 860.8/2
0
0
UV/VIS
1
1
1
CommonBeamDepol,150mm sphere / downward view
0
0
0
0
Program
Program
3350/servo 860.8/2
3350/0.2 860.8/0.2
3350/0.2 860.8/0.2
0
1
 
 
 
0
 
860.8
319.2
860.8
Front
100
on
 
 
0
0
0
 
0
 
 
 
0
 
 
0
0
0
0
0
 
 
 
 
0
0


0
0
#HDR
-1
-1
#GR
nm
%T
1.0
0.0
2350.000000
-1.000000
2151
8
55.556670
0.306838
#DATA
2350.000000	18.051318
2349.000000	18.503465
2348.000000	18.052210
2347.000000	18.701499
2346.000000	18.231460
2345.000000	17.973330
2344.000000	18.039416
2343.000000	17.810575
2342.000000	18.447197
2341.000000	18.615067
2340.000000	18.579345
2339.000000	18.827231
2338.000000	18.895762
2337.000000	18.742982
2336.000000	18.947487
2335.000000	19.214691
2334.000000	18.990049
2333.000000	19.016599
2332.000000	19.300055
2331.000000	19.221062
2330.000000	19.069019
2329.000000	19.198116
2328.000000	19.084048
2327.000000	18.952180
2326.000000	18.911474
2325.000000	18.960118
2324.000000	18.770750
2323.000000	18.805431
2322.000000	18.904009
2321.000000	19.068544
2320.000000	18.671109
2319.000000	18.790311
2318.000000	18.616021
2317.000000	18.682257
2316.000000	18.456849
2315.000000	18.294190
2314.000000	18.234985
2313.000000	18.178625
2312.000000	18.231333
2311.000000	17.977838
2310.000000	18.019691
2309.000000	18.000182
2308.000000	17.928953
2307.000000	17.773481
2306.000000	17.709603
2305.000000	17.469844
2304.000000	17.375927
2303.000000	17.233778
2302.000000	17.194759
2301.000000	17.199467
2300.000000	16.843103
2299.000000	16.859774
2298.000000	16.508926
2297.000000	16.204576
2296.000000	16.272223
2295.000000	16.131829
2294.000000	16.260957
2293.000000	16.100830
2292.000000	15.963738
2291.000000	15.900035
2290.000000	15.916105
2289.000000	15.851636
2288.000000	15.812023
2287.000000	15.632393
2286.000000	15.621004
2285.000000	15.618857
2284.000000	15.477784
2283.000000	15.414353
2282.000000	15.448071
2281.000000	15.654135
2280.000000	15.686443
2279.000000	15.516080
2278.000000	15.502712
2277.000000	15.559560
2276.000000	15.711394
2275.000000	15.722096
2274.000000	15.734879
2273.000000	15.820293
2272.000000	15.931266
2271.000000	15.989479
2270.000000	16.005211
2269.000000	16.023685
2268.000000	16.116763
2267.000000	16.214704
2266.000000	16.420540
2265.000000	16.756196
2264.000000	16.765655
2263.000000	16.845632
2262.000000	17.011269
2261.000000	17.135018
2260.000000	17.232991
2259.000000	17.516125
2258.000000	17.808652
2257.000000	18.030737
2256.000000	18.362539
2255.000000	18.617703
2254.000000	18.814680
2253.000000	19.011281
2252.000000	19.214978
2251.000000	19.462971
2250.000000	19.882105
2249.000000	20.175611
2248.000000	20.347769
2247.000000	20.502788
2246.000000	20.672764
2245.000000	20.983685
2244.000000	21.308919
2243.000000	21.562546
2242.000000	21.789406
2241.000000	21.923780
2240.000000	22.067550
2239.000000	22.232588
2238.000000	22.341048
2237.000000	22.481814
2236.000000	22.641469
2235.000000	22.621690
2234.000000	22.734630
2233.000000	22.896530
2232.000000	23.005625
2231.000000	23.058871
2230.000000	23.045570
2229.000000	23.160526
2228.000000	23.240352
2227.000000	23.204765
2226.000000	23.169920
2225.000000	23.214454
2224.000000	23.148620
2223.000000	23.085301
2222.000000	23.121590
2221.000000	23.152907
2220.000000	23.140236
2219.000000	22.973870
2218.000000	22.870255
2217.000000	22.874210
2216.000000	22.857247
2215.000000	22.901663
2214.000000	22.857776
2213.000000	22.747098
2212.000000	22.566442
2211.000000	22.503916
2210.000000	22.400682
2209.000000	22.265500
2208.000000	22.250651
2207.000000	22.293484
2206.000000	22.118235
2205.000000	21.985642
2204.000000	21.830188
2203.000000	21.699692
2202.000000	21.731043
2201.000000	21.574724
2200.000000	21.522159
2199.000000	21.445073
2198.000000	21.378818
2197.000000	21.169727
2196.000000	21.089093
2195.000000	21.009424
2194.000000	20.865258
2193.000000	20.769586
2192.000000	20.700616
2191.000000	20.703785
2190.000000	20.559176
2189.000000	20.398099
2188.000000	20.193354
2187.000000	20.106164
2186.000000	20.113058
2185.000000	20.187856
2184.000000	20.140226
2183.000000	20.077043
2182.000000	19.927463
2181.000000	19.952686
2180.000000	19.868414
2179.000000	19.733093
2178.000000	19.735171
2177.000000	19.801847
2176.000000	19.863068
2175.000000	19.817327
2174.000000	19.739108
2173.000000	19.779593
2172.000000	19.892411
2171.000000	19.937601
2170.000000	20.088159
2169.000000	20.079735
2168.000000	20.185309
2167.000000	20.408285
2166.000000	20.357064
2165.000000	20.425640
2164.000000	20.586989
2163.000000	20.632161
2162.000000	20.877970
2161.000000	21.047851
2160.000000	21.071113
2159.000000	21.181509
2158.000000	21.400552
2157.000000	21.663642
2156.000000	21.853713
2155.000000	21.913164
2154.000000	21.987741
2153.000000	22.484215
2152.000000	22.565997
2151.000000	22.596962
2150.000000	22.769412
2149.000000	22.903534
2148.000000	22.947120
2147.000000	23.407576
2146.000000	23.486040
2145.000000	23.571983
2144.000000	23.790381
2143.000000	24.038087
2142.000000	23.962029
2141.000000	24.333389
2140.000000	24.551209
2139.000000	24.699951
2138.000000	24.869952
2137.000000	25.073855
2136.000000	25.017734
2135.000000	25.159905
2134.000000	25.403390
2133.000000	25.321938
2132.000000	25.493189
2131.000000	25.706071
2130.000000	25.983079
2129.000000	25.994976
2128.000000	25.970757
2127.000000	25.971804
2126.000000	26.027814
2125.000000	26.132150
2124.000000	26.424355
2123.000000	26.439891
2122.000000	26.429414
2121.000000	26.432619
2120.000000	26.325800
2119.000000	26.522145
2118.000000	26.643879
2117.000000	26.645889
2116.000000	26.793729
2115.000000	26.820801
2114.000000	26.770080
2113.000000	26.744258
2112.000000	26.774067
2111.000000	26.897436
2110.000000	26.757185
2109.000000	26.964981
2108.000000	27.017740
2107.000000	27.046044
2106.000000	27.089254
2105.000000	27.083554
2104.000000	27.067031
2103.000000	27.043400
2102.000000	27.072983
2101.000000	27.079245
2100.000000	27.106885
2099.000000	26.996311
2098.000000	27.092841
2097.000000	27.103473
2096.000000	27.015280
2095.000000	27.070921
2094.000000	27.118569
2093.000000	27.097685
2092.000000	27.121804
2091.000000	27.087852
2090.000000	27.009660
2089.000000	26.997951
2088.000000	26.978954
2087.000000	26.899763
2086.000000	26.819872
2085.000000	26.847059
2084.000000	26.716440
2083.000000	26.587541
2082.000000	26.586665
2081.000000	26.607977
2080.000000	26.509709
2079.000000	26.365658
2078.000000	26.188612
2077.000000	26.095111
2076.000000	26.014091
2075.000000	25.860357
2074.000000	25.745064
2073.000000	25.590307
2072.000000	25.450407
2071.000000	25.403262
2070.000000	25.254877
2069.000000	25.065283
2068.000000	24.838297
2067.000000	24.721654
2066.000000	24.495733
2065.000000	24.234306
2064.000000	24.133603
2063.000000	23.981696
2062.000000	23.773045
2061.000000	23.586090
2060.000000	23.403078
2059.000000	23.260011
2058.000000	23.003400
2057.000000	22.790806
2056.000000	22.609927
2055.000000	22.457807
2054.000000	22.252306
2053.000000	22.088765
2052.000000	21.965821
2051.000000	21.792707
2050.000000	21.624054
2049.000000	21.530552
2048.000000	21.417256
2047.000000	21.308384
2046.000000	21.219481
2045.000000	21.194004
2044.000000	21.146612
2043.000000	21.088338
2042.000000	21.106819
2041.000000	21.117409
2040.000000	21.131148
2039.000000	21.223025
2038.000000	21.284243
2037.000000	21.328059
2036.000000	21.392678
2035.000000	21.572780
2034.000000	21.751655
2033.000000	21.912570
2032.000000	22.042398
2031.000000	22.162828
2030.000000	22.374946
2029.000000	22.552444
2028.000000	22.709456
2027.000000	22.877484
2026.000000	23.048577
2025.000000	23.196244
2024.000000	23.307267
2023.000000	23.441262
2022.000000	23.525947
2021.000000	23.604440
2020.000000	23.711132
2019.000000	23.782104
2018.000000	23.859354
2017.000000	23.930849
2016.000000	23.942650
2015.000000	23.932281
2014.000000	23.915144
2013.000000	23.921445
2012.000000	23.939361
2011.000000	23.935696
2010.000000	23.896861
2009.000000	23.840411
2008.000000	23.780641
2007.000000	23.693466
2006.000000	23.586680
2005.000000	23.506189
2004.000000	23.449667
2003.000000	23.370136
2002.000000	23.273947
2001.000000	23.158874
2000.000000	23.024423
1999.000000	22.940256
1998.000000	22.835540
1997.000000	22.714196
1996.000000	22.602405
1995.000000	22.472036
1994.000000	22.343848
1993.000000	22.256220
1992.000000	22.108583
1991.000000	21.971370
1990.000000	21.841978
1989.000000	21.703318
1988.000000	21.604095
1987.000000	21.506052
1986.000000	21.351760
1985.000000	21.236824
1984.000000	21.127534
1983.000000	20.990718
1982.000000	20.868673
1981.000000	20.772813
1980.000000	20.645873
1979.000000	20.535921
1978.000000	20.407579
1977.000000	20.299953
1976.000000	20.190420
1975.000000	20.078232
1974.000000	19.954845
1973.000000	19.843254
1972.000000	19.708684
1971.000000	19.583317
1970.000000	19.484281
1969.000000	19.404216
1968.000000	19.290342
1967.000000	19.192236
1966.000000	19.070419
1965.000000	18.967618
1964.000000	18.855986
1963.000000	18.776264
1962.000000	18.663584
1961.000000	18.577261
1960.000000	18.472695
1959.000000	18.333459
1958.000000	18.263179
1957.000000	18.152708
1956.000000	18.052998
1955.000000	18.006256
1954.000000	17.943453
1953.000000	17.899669
1952.000000	17.820452
1951.000000	17.808087
1950.000000	17.748782
1949.000000	17.681747
1948.000000	17.684321
1947.000000	17.654242
1946.000000	17.630097
1945.000000	17.681564
1944.000000	17.669361
1943.000000	17.737626
1942.000000	17.721274
1941.000000	17.777670
1940.000000	17.927065
1939.000000	18.001232
1938.000000	18.076426
1937.000000	18.174489
1936.000000	18.358353
1935.000000	18.483110
1934.000000	18.675911
1933.000000	18.891889
1932.000000	19.055932
1931.000000	19.179040
1930.000000	19.473983
1929.000000	19.638209
1928.000000	19.972705
1927.000000	20.188642
1926.000000	20.510228
1925.000000	20.778047
1924.000000	21.076690
1923.000000	21.411249
1922.000000	21.723831
1921.000000	22.060800
1920.000000	22.378351
1919.000000	22.796435
1918.000000	23.258346
1917.000000	23.593783
1916.000000	23.958521
1915.000000	24.351201
1914.000000	24.864334
1913.000000	25.292315
1912.000000	25.649400
1911.000000	26.126166
1910.000000	26.596248
1909.000000	27.094896
1908.000000	27.558542
1907.000000	28.077893
1906.000000	28.566906
1905.000000	29.140464
1904.000000	29.625860
1903.000000	30.173270
1902.000000	30.738556
1901.000000	31.265173
1900.000000	31.814576
1899.000000	32.391260
1898.000000	32.948680
1897.000000	33.503402
1896.000000	33.974592
1895.000000	34.543755
1894.000000	35.008750
1893.000000	35.545616
1892.000000	36.029110
1891.000000	36.435154
1890.000000	36.992657
1889.000000	37.438993
1888.000000	37.904974
1887.000000	38.353798
1886.000000	38.756808
1885.000000	39.206989
1884.000000	39.551591
1883.000000	39.986913
1882.000000	40.318660
1881.000000	40.623622
1880.000000	41.003292
1879.000000	41.280079
1878.000000	41.572995
1877.000000	41.845252
1876.000000	42.129550
1875.000000	42.370950
1874.000000	42.595753
1873.000000	42.827063
1872.000000	43.022546
1871.000000	43.207580
1870.000000	43.393324
1869.000000	43.522850
1868.000000	43.668612
1867.000000	43.757278
1866.000000	43.893526
1865.000000	43.979082
1864.000000	44.053315
1863.000000	44.129254
1862.000000	44.183407
1861.000000	44.214275
1860.000000	44.297243
1859.000000	44.356544
1858.000000	44.369659
1857.000000	44.405691
1856.000000	44.455061
1855.000000	44.468292
1854.000000	44.492524
1853.000000	44.496917
1852.000000	44.499915
1851.000000	44.517038
1850.000000	44.536182
1849.000000	44.501947
1848.000000	44.522052
1847.000000	44.498854
1846.000000	44.472112
1845.000000	44.450999
1844.000000	44.421574
1843.000000	44.405856
1842.000000	44.369696
1841.000000	44.343077
1840.000000	44.316254
1839.000000	44.275362
1838.000000	44.220613
1837.000000	44.155202
1836.000000	44.130880
1835.000000	44.088330
1834.000000	44.034669
1833.000000	43.981553
1832.000000	43.935608
1831.000000	43.901868
1830.000000	43.869277
1829.000000	43.800053
1828.000000	43.737550
1827.000000	43.695326
1826.000000	43.663977
1825.000000	43.596760
1824.000000	43.559795
1823.000000	43.543386
1822.000000	43.469027
1821.000000	43.416295
1820.000000	43.375515
1819.000000	43.325380
1818.000000	43.282755
1817.000000	43.226722
1816.000000	43.187853
1815.000000	43.176018
1814.000000	43.130910
1813.000000	43.081520
1812.000000	43.031951
1811.000000	42.982158
1810.000000	42.946888
1809.000000	42.911849
1808.000000	42.866151
1807.000000	42.820831
1806.000000	42.788427
1805.000000	42.749751
1804.000000	42.700185
1803.000000	42.663468
1802.000000	42.621351
1801.000000	42.597198
1800.000000	42.561687
1799.000000	42.510634
1798.000000	42.468440
1797.000000	42.446357
1796.000000	42.439449
1795.000000	42.424184
1794.000000	42.384838
1793.000000	42.348754
1792.000000	42.319381
1791.000000	42.275186
1790.000000	42.240224
1789.000000	42.209194
1788.000000	42.186960
1787.000000	42.171370
1786.000000	42.161140
1785.000000	42.111770
1784.000000	42.056745
1783.000000	42.012209
1782.000000	41.979235
1781.000000	41.928361
1780.000000	41.880605
1779.000000	41.828394
1778.000000	41.758894
1777.000000	41.710150
1776.000000	41.693997
1775.000000	41.621569
1774.000000	41.532929
1773.000000	41.500403
1772.000000	41.412049
1771.000000	41.329431
1770.000000	41.285184
1769.000000	41.226541
1768.000000	41.157045
1767.000000	41.083477
1766.000000	41.015250
1765.000000	40.965761
1764.000000	40.911150
1763.000000	40.838479
1762.000000	40.736295
1761.000000	40.701215
1760.000000	40.623886
1759.000000	40.544750
1758.000000	40.494545
1757.000000	40.425082
1756.000000	40.357108
1755.000000	40.289128
1754.000000	40.221517
1753.000000	40.142844
1752.000000	40.062619
1751.000000	40.020169
1750.000000	39.949505
1749.000000	39.872511
1748.000000	39.801374
1747.000000	39.735748
1746.000000	39.663907
1745.000000	39.584814
1744.000000	39.510807
1743.000000	39.426604
1742.000000	39.372078
1741.000000	39.310112
1740.000000	39.272474
1739.000000	39.237723
1738.000000	39.168129
1737.000000	39.109283
1736.000000	39.088560
1735.000000	39.039119
1734.000000	39.060033
1733.000000	39.043845
1732.000000	39.021583
1731.000000	39.034240
1730.000000	39.046075
1729.000000	39.084053
1728.000000	39.138497
1727.000000	39.181556
1726.000000	39.238391
1725.000000	39.329338
1724.000000	39.414039
1723.000000	39.473398
1722.000000	39.559555
1721.000000	39.655628
1720.000000	39.775606
1719.000000	39.899193
1718.000000	39.960964
1717.000000	40.057023
1716.000000	40.171538
1715.000000	40.251729
1714.000000	40.339834
1713.000000	40.452453
1712.000000	40.529422
1711.000000	40.597223
1710.000000	40.622944
1709.000000	40.697893
1708.000000	40.755293
1707.000000	40.806460
1706.000000	40.837888
1705.000000	40.855850
1704.000000	40.862324
1703.000000	40.876617
1702.000000	40.916629
1701.000000	40.922000
1700.000000	40.950692
1699.000000	40.960120
1698.000000	40.979013
1697.000000	41.019662
1696.000000	41.063041
1695.000000	41.072807
1694.000000	41.127462
1693.000000	41.183776
1692.000000	41.260624
1691.000000	41.323374
1690.000000	41.447378
1689.000000	41.522247
1688.000000	41.650134
1687.000000	41.771027
1686.000000	41.887511
1685.000000	42.040734
1684.000000	42.204213
1683.000000	42.380952
1682.000000	42.534621
1681.000000	42.749470
1680.000000	42.900654
1679.000000	43.112646
1678.000000	43.298937
1677.000000	43.499753
1676.000000	43.697442
1675.000000	43.914141
1674.000000	44.112869
1673.000000	44.288920
1672.000000	44.481257
1671.000000	44.658638
1670.000000	44.825241
1669.000000	44.991090
1668.000000	45.142516
1667.000000	45.281162
1666.000000	45.386191
1665.000000	45.506396
1664.000000	45.612240
1663.000000	45.690719
1662.000000	45.771944
1661.000000	45.880087
1660.000000	45.947567
1659.000000	46.000365
1658.000000	46.035634
1657.000000	46.081691
1656.000000	46.134554
1655.000000	46.163499
1654.000000	46.187396
1653.000000	46.212157
1652.000000	46.226052
1651.000000	46.223916
1650.000000	46.230937
1649.000000	46.215642
1648.000000	46.184297
1647.000000	46.179409
1646.000000	46.163283
1645.000000	46.157999
1644.000000	46.141091
1643.000000	46.113392
1642.000000	46.088259
1641.000000	46.047700
1640.000000	46.011577
1639.000000	45.988773
1638.000000	45.939422
1637.000000	45.919028
1636.000000	45.875322
1635.000000	45.825473
1634.000000	45.779620
1633.000000	45.727034
1632.000000	45.678122
1631.000000	45.634071
1630.000000	45.578110
1629.000000	45.513820
1628.000000	45.472691
1627.000000	45.422762
1626.000000	45.365416
1625.000000	45.316293
1624.000000	45.264547
1623.000000	45.210186
1622.000000	45.167117
1621.000000	45.109237
1620.000000	45.043294
1619.000000	44.982308
1618.000000	44.921995
1617.000000	44.864259
1616.000000	44.797656
1615.000000	44.737406
1614.000000	44.671035
1613.000000	44.610165
1612.000000	44.556059
1611.000000	44.485491
1610.000000	44.411617
1609.000000	44.343654
1608.000000	44.282557
1607.000000	44.204201
1606.000000	44.122914
1605.000000	44.061684
1604.000000	43.995673
1603.000000	43.927177
1602.000000	43.862232
1601.000000	43.786319
1600.000000	43.718297
1599.000000	43.643198
1598.000000	43.568901
1597.000000	43.494188
1596.000000	43.434183
1595.000000	43.386696
1594.000000	43.321165
1593.000000	43.262142
1592.000000	43.198835
1591.000000	43.130595
1590.000000	43.076912
1589.000000	43.014963
1588.000000	42.958740
1587.000000	42.913039
1586.000000	42.862956
1585.000000	42.811651
1584.000000	42.751004
1583.000000	42.698089
1582.000000	42.657724
1581.000000	42.596649
1580.000000	42.542612
1579.000000	42.491410
1578.000000	42.444718
1577.000000	42.400404
1576.000000	42.352537
1575.000000	42.311037
1574.000000	42.249334
1573.000000	42.191097
1572.000000	42.126483
1571.000000	42.072537
1570.000000	42.024475
1569.000000	41.981329
1568.000000	41.942284
1567.000000	41.895602
1566.000000	41.848892
1565.000000	41.813850
1564.000000	41.796421
1563.000000	41.775453
1562.000000	41.726608
1561.000000	41.698069
1560.000000	41.671578
1559.000000	41.628943
1558.000000	41.622083
1557.000000	41.603124
1556.000000	41.558763
1555.000000	41.530285
1554.000000	41.504793
1553.000000	41.481290
1552.000000	41.456601
1551.000000	41.417845
1550.000000	41.370626
1549.000000	41.328919
1548.000000	41.280447
1547.000000	41.221163
1546.000000	41.157664
1545.000000	41.094852
1544.000000	41.021095
1543.000000	40.937390
1542.000000	40.860392
1541.000000	40.764175
1540.000000	40.679099
1539.000000	40.595655
1538.000000	40.483401
1537.000000	40.392510
1536.000000	40.297769
1535.000000	40.194681
1534.000000	40.078561
1533.000000	39.988863
1532.000000	39.885622
1531.000000	39.799101
1530.000000	39.731082
1529.000000	39.684324
1528.000000	39.645763
1527.000000	39.596758
1526.000000	39.519046
1525.000000	39.430776
1524.000000	39.326960
1523.000000	39.216880
1522.000000	39.140438
1521.000000	39.057942
1520.000000	39.017394
1519.000000	38.973814
1518.000000	38.922316
1517.000000	38.865222
1516.000000	38.842756
1515.000000	38.784305
1514.000000	38.730915
1513.000000	38.690447
1512.000000	38.666592
1511.000000	38.648908
1510.000000	38.605934
1509.000000	38.561519
1508.000000	38.529933
1507.000000	38.488127
1506.000000	38.464371
1505.000000	38.451643
1504.000000	38.454911
1503.000000	38.444088
1502.000000	38.433888
1501.000000	38.421326
1500.000000	38.397526
1499.000000	38.392209
1498.000000	38.402397
1497.000000	38.385706
1496.000000	38.386480
1495.000000	38.418369
1494.000000	38.416587
1493.000000	38.431023
1492.000000	38.470714
1491.000000	38.501822
1490.000000	38.551579
1489.000000	38.581048
1488.000000	38.652779
1487.000000	38.706872
1486.000000	38.756611
1485.000000	38.808603
1484.000000	38.885846
1483.000000	38.945776
1482.000000	39.007041
1481.000000	39.083888
1480.000000	39.166049
1479.000000	39.250193
1478.000000	39.313708
1477.000000	39.374438
1476.000000	39.458206
1475.000000	39.531930
1474.000000	39.571118
1473.000000	39.659751
1472.000000	39.727139
1471.000000	39.760551
1470.000000	39.837105
