PE UV       SUBTECH     SPECTRUM    ASCII       PEDS        4.00        
   -1
TTVeauUK 22.Sample.asc
18/02/28
09:20:52.00
18/02/28
09:20:52.00
Administrator

200.000000
1
Lambda 750
750N8071901
PerkinElmer UV WinLab 6.0.4.0738 / 1.61.00 Lambda 900

0
0
3350/servo 860.8/2
0
0
UV/VIS
1
1
1
CommonBeamDepol,150mm sphere / downward view
0
0
0
0
Program
Program
3350/servo 860.8/2
3350/0.2 860.8/0.2
3350/0.2 860.8/0.2
0
1
 
 
 
0
 
860.8
319.2
860.8
Front
100
on
 
 
0
0
0
 
0
 
 
 
0
 
 
0
0
0
0
0
 
 
 
 
0
0


0
0
#HDR
-1
-1
#GR
nm
%T
1.0
0.0
2350.000000
-1.000000
2151
8
51.627666
0.238728
#DATA
2350.000000	16.323436
2349.000000	16.203325
2348.000000	15.595821
2347.000000	16.410604
2346.000000	16.148980
2345.000000	16.142710
2344.000000	16.112004
2343.000000	16.412341
2342.000000	16.430164
2341.000000	16.568932
2340.000000	16.156119
2339.000000	16.834714
2338.000000	16.944598
2337.000000	16.764110
2336.000000	16.936700
2335.000000	17.001458
2334.000000	16.907944
2333.000000	17.179859
2332.000000	17.295349
2331.000000	17.309931
2330.000000	16.999353
2329.000000	17.065217
2328.000000	17.071721
2327.000000	16.686099
2326.000000	16.809379
2325.000000	16.715013
2324.000000	16.671765
2323.000000	16.788906
2322.000000	16.572310
2321.000000	16.635014
2320.000000	16.645493
2319.000000	16.557117
2318.000000	16.365688
2317.000000	16.567283
2316.000000	16.497867
2315.000000	16.308367
2314.000000	16.136981
2313.000000	16.296109
2312.000000	16.147810
2311.000000	15.915396
2310.000000	15.897150
2309.000000	15.814361
2308.000000	15.736910
2307.000000	15.525045
2306.000000	15.399861
2305.000000	15.351741
2304.000000	15.393342
2303.000000	15.459542
2302.000000	15.328651
2301.000000	15.142971
2300.000000	14.767353
2299.000000	14.788108
2298.000000	14.622117
2297.000000	14.416332
2296.000000	14.646641
2295.000000	14.461737
2294.000000	14.218714
2293.000000	14.289957
2292.000000	14.127171
2291.000000	14.044474
2290.000000	14.065268
2289.000000	14.068145
2288.000000	14.056809
2287.000000	13.984842
2286.000000	14.027978
2285.000000	13.900931
2284.000000	13.871204
2283.000000	13.770521
2282.000000	13.747602
2281.000000	13.874949
2280.000000	13.855813
2279.000000	13.850371
2278.000000	13.817820
2277.000000	13.777878
2276.000000	13.878336
2275.000000	13.968919
2274.000000	13.827360
2273.000000	13.866437
2272.000000	14.137974
2271.000000	14.263074
2270.000000	14.187959
2269.000000	14.102039
2268.000000	14.272928
2267.000000	14.345710
2266.000000	14.641833
2265.000000	14.772205
2264.000000	14.728320
2263.000000	14.791249
2262.000000	15.167539
2261.000000	15.310426
2260.000000	15.413401
2259.000000	15.647456
2258.000000	15.911686
2257.000000	16.030528
2256.000000	16.293479
2255.000000	16.482094
2254.000000	16.656368
2253.000000	16.908466
2252.000000	17.078731
2251.000000	17.410250
2250.000000	17.651893
2249.000000	17.827853
2248.000000	18.110910
2247.000000	18.393269
2246.000000	18.627149
2245.000000	18.871808
2244.000000	19.117760
2243.000000	19.291236
2242.000000	19.461727
2241.000000	19.597063
2240.000000	19.666201
2239.000000	19.781006
2238.000000	19.952391
2237.000000	20.240787
2236.000000	20.396371
2235.000000	20.324019
2234.000000	20.392081
2233.000000	20.582039
2232.000000	20.599675
2231.000000	20.635545
2230.000000	20.668538
2229.000000	20.739099
2228.000000	20.781071
2227.000000	20.819860
2226.000000	20.744600
2225.000000	20.714492
2224.000000	20.716526
2223.000000	20.694270
2222.000000	20.638261
2221.000000	20.608688
2220.000000	20.660990
2219.000000	20.639913
2218.000000	20.545682
2217.000000	20.586961
2216.000000	20.513923
2215.000000	20.392025
2214.000000	20.331572
2213.000000	20.368851
2212.000000	20.208159
2211.000000	20.095626
2210.000000	20.021761
2209.000000	19.937096
2208.000000	19.922045
2207.000000	19.775134
2206.000000	19.675179
2205.000000	19.675797
2204.000000	19.596444
2203.000000	19.569909
2202.000000	19.372398
2201.000000	19.308439
2200.000000	19.152351
2199.000000	19.125634
2198.000000	19.113697
2197.000000	19.025261
2196.000000	18.760443
2195.000000	18.631406
2194.000000	18.524052
2193.000000	18.427710
2192.000000	18.443555
2191.000000	18.312191
2190.000000	18.147135
2189.000000	18.171134
2188.000000	18.118098
2187.000000	18.003179
2186.000000	17.832095
2185.000000	17.866793
2184.000000	17.875897
2183.000000	17.901818
2182.000000	17.777627
2181.000000	17.677652
2180.000000	17.734185
2179.000000	17.625925
2178.000000	17.526613
2177.000000	17.532192
2176.000000	17.634431
2175.000000	17.580889
2174.000000	17.698391
2173.000000	17.702052
2172.000000	17.913618
2171.000000	17.757886
2170.000000	17.882271
2169.000000	17.942195
2168.000000	18.002576
2167.000000	18.048380
2166.000000	17.993398
2165.000000	18.208590
2164.000000	18.217182
2163.000000	18.534573
2162.000000	18.614553
2161.000000	18.613678
2160.000000	18.994879
2159.000000	19.045356
2158.000000	19.032903
2157.000000	19.228877
2156.000000	19.440362
2155.000000	19.529158
2154.000000	19.705100
2153.000000	20.070901
2152.000000	20.142003
2151.000000	20.333794
2150.000000	20.418982
2149.000000	20.608298
2148.000000	20.647443
2147.000000	20.911755
2146.000000	20.966112
2145.000000	21.206736
2144.000000	21.318393
2143.000000	21.566139
2142.000000	21.779322
2141.000000	21.751071
2140.000000	21.946830
2139.000000	22.208159
2138.000000	22.310636
2137.000000	22.394318
2136.000000	22.396990
2135.000000	22.725883
2134.000000	22.764387
2133.000000	22.705204
2132.000000	23.013990
2131.000000	23.089625
2130.000000	23.254683
2129.000000	23.325357
2128.000000	23.262410
2127.000000	23.173944
2126.000000	23.440230
2125.000000	23.395957
2124.000000	23.545945
2123.000000	23.567223
2122.000000	23.590614
2121.000000	23.829343
2120.000000	23.762592
2119.000000	23.827373
2118.000000	23.937964
2117.000000	23.914162
2116.000000	24.072484
2115.000000	24.159512
2114.000000	24.116715
2113.000000	24.048759
2112.000000	24.064133
2111.000000	24.133706
2110.000000	24.088809
2109.000000	24.110632
2108.000000	24.122047
2107.000000	24.212838
2106.000000	24.298795
2105.000000	24.423530
2104.000000	24.283985
2103.000000	24.389449
2102.000000	24.191308
2101.000000	24.307524
2100.000000	24.423728
2099.000000	24.408329
2098.000000	24.426648
2097.000000	24.457554
2096.000000	24.355176
2095.000000	24.292769
2094.000000	24.356144
2093.000000	24.298952
2092.000000	24.304662
2091.000000	24.330553
2090.000000	24.277954
2089.000000	24.216278
2088.000000	24.222726
2087.000000	24.198471
2086.000000	24.177290
2085.000000	24.114977
2084.000000	24.012634
2083.000000	23.972577
2082.000000	23.900241
2081.000000	23.856575
2080.000000	23.748329
2079.000000	23.597880
2078.000000	23.626883
2077.000000	23.524853
2076.000000	23.424168
2075.000000	23.280601
2074.000000	23.094477
2073.000000	22.974430
2072.000000	22.884785
2071.000000	22.771465
2070.000000	22.629805
2069.000000	22.457297
2068.000000	22.246695
2067.000000	22.093485
2066.000000	21.882340
2065.000000	21.783963
2064.000000	21.603700
2063.000000	21.387928
2062.000000	21.242255
2061.000000	21.045473
2060.000000	20.881785
2059.000000	20.723707
2058.000000	20.559897
2057.000000	20.411527
2056.000000	20.277289
2055.000000	20.109190
2054.000000	19.878870
2053.000000	19.692416
2052.000000	19.635819
2051.000000	19.510982
2050.000000	19.328850
2049.000000	19.203365
2048.000000	19.108440
2047.000000	19.037010
2046.000000	18.905077
2045.000000	18.850957
2044.000000	18.811468
2043.000000	18.797622
2042.000000	18.819271
2041.000000	18.887311
2040.000000	18.867839
2039.000000	18.909947
2038.000000	18.975539
2037.000000	19.013934
2036.000000	19.064260
2035.000000	19.230232
2034.000000	19.441904
2033.000000	19.578756
2032.000000	19.658560
2031.000000	19.737692
2030.000000	19.896159
2029.000000	20.064110
2028.000000	20.230298
2027.000000	20.403938
2026.000000	20.595904
2025.000000	20.716169
2024.000000	20.809868
2023.000000	20.929148
2022.000000	21.031774
2021.000000	21.121496
2020.000000	21.175131
2019.000000	21.274615
2018.000000	21.316150
2017.000000	21.324730
2016.000000	21.367584
2015.000000	21.410345
2014.000000	21.412982
2013.000000	21.397737
2012.000000	21.420347
2011.000000	21.397601
2010.000000	21.331669
2009.000000	21.246915
2008.000000	21.226647
2007.000000	21.172049
2006.000000	21.073062
2005.000000	20.983337
2004.000000	20.928171
2003.000000	20.833587
2002.000000	20.748447
2001.000000	20.634124
2000.000000	20.519471
1999.000000	20.426579
1998.000000	20.340416
1997.000000	20.203340
1996.000000	20.116863
1995.000000	20.020052
1994.000000	19.907502
1993.000000	19.808374
1992.000000	19.682232
1991.000000	19.532182
1990.000000	19.469489
1989.000000	19.334604
1988.000000	19.211942
1987.000000	19.124537
1986.000000	19.012581
1985.000000	18.887035
1984.000000	18.784182
1983.000000	18.679124
1982.000000	18.576466
1981.000000	18.472508
1980.000000	18.353918
1979.000000	18.258790
1978.000000	18.141740
1977.000000	18.032023
1976.000000	17.920234
1975.000000	17.820457
1974.000000	17.694340
1973.000000	17.580424
1972.000000	17.525442
1971.000000	17.422838
1970.000000	17.328430
1969.000000	17.222719
1968.000000	17.122857
1967.000000	17.007255
1966.000000	16.922599
1965.000000	16.817735
1964.000000	16.716290
1963.000000	16.622553
1962.000000	16.568471
1961.000000	16.441323
1960.000000	16.348740
1959.000000	16.282910
1958.000000	16.220081
1957.000000	16.133688
1956.000000	16.032937
1955.000000	16.014278
1954.000000	15.948958
1953.000000	15.883201
1952.000000	15.823344
1951.000000	15.809235
1950.000000	15.795348
1949.000000	15.748566
1948.000000	15.708713
1947.000000	15.693709
1946.000000	15.672291
1945.000000	15.679369
1944.000000	15.724744
1943.000000	15.771448
1942.000000	15.759548
1941.000000	15.842050
1940.000000	15.953527
1939.000000	16.046334
1938.000000	16.118921
1937.000000	16.220525
1936.000000	16.370105
1935.000000	16.521654
1934.000000	16.589792
1933.000000	16.768991
1932.000000	16.938460
1931.000000	17.153573
1930.000000	17.389036
1929.000000	17.556097
1928.000000	17.748092
1927.000000	18.016040
1926.000000	18.307396
1925.000000	18.524574
1924.000000	18.890788
1923.000000	19.170171
1922.000000	19.441226
1921.000000	19.825948
1920.000000	20.122840
1919.000000	20.433553
1918.000000	20.766913
1917.000000	21.147677
1916.000000	21.481313
1915.000000	21.962944
1914.000000	22.344775
1913.000000	22.793109
1912.000000	23.219618
1911.000000	23.578299
1910.000000	24.104049
1909.000000	24.512840
1908.000000	24.906588
1907.000000	25.344876
1906.000000	25.861464
1905.000000	26.344914
1904.000000	26.804282
1903.000000	27.356811
1902.000000	27.924377
1901.000000	28.422386
1900.000000	28.929894
1899.000000	29.439859
1898.000000	30.008617
1897.000000	30.482467
1896.000000	30.944181
1895.000000	31.507332
1894.000000	31.932883
1893.000000	32.449612
1892.000000	32.960890
1891.000000	33.443529
1890.000000	33.919215
1889.000000	34.318510
1888.000000	34.712029
1887.000000	35.154951
1886.000000	35.561607
1885.000000	35.960440
1884.000000	36.306511
1883.000000	36.762487
1882.000000	37.065461
1881.000000	37.379331
1880.000000	37.678889
1879.000000	37.978297
1878.000000	38.271436
1877.000000	38.550116
1876.000000	38.792595
1875.000000	39.029692
1874.000000	39.274409
1873.000000	39.424492
1872.000000	39.628084
1871.000000	39.830391
1870.000000	39.960824
1869.000000	40.132120
1868.000000	40.268427
1867.000000	40.366862
1866.000000	40.446414
1865.000000	40.545100
1864.000000	40.610751
1863.000000	40.698056
1862.000000	40.731660
1861.000000	40.830619
1860.000000	40.871910
1859.000000	40.897037
1858.000000	40.930250
1857.000000	40.968573
1856.000000	41.022082
1855.000000	41.045947
1854.000000	41.066959
1853.000000	41.082598
1852.000000	41.078996
1851.000000	41.081404
1850.000000	41.083743
1849.000000	41.045973
1848.000000	41.079289
1847.000000	41.084038
1846.000000	41.059253
1845.000000	41.034778
1844.000000	40.994497
1843.000000	40.965855
1842.000000	40.928496
1841.000000	40.886673
1840.000000	40.850652
1839.000000	40.820976
1838.000000	40.775504
1837.000000	40.723620
1836.000000	40.701307
1835.000000	40.651168
1834.000000	40.582666
1833.000000	40.528274
1832.000000	40.466938
1831.000000	40.423495
1830.000000	40.397309
1829.000000	40.353373
1828.000000	40.296818
1827.000000	40.274231
1826.000000	40.228073
1825.000000	40.162699
1824.000000	40.132021
1823.000000	40.110197
1822.000000	40.046920
1821.000000	40.000244
1820.000000	39.965329
1819.000000	39.909389
1818.000000	39.865621
1817.000000	39.826481
1816.000000	39.779445
1815.000000	39.747127
1814.000000	39.719717
1813.000000	39.668145
1812.000000	39.615186
1811.000000	39.583462
1810.000000	39.531194
1809.000000	39.477467
1808.000000	39.444450
1807.000000	39.419395
1806.000000	39.389078
1805.000000	39.357217
1804.000000	39.309721
1803.000000	39.276641
1802.000000	39.243173
1801.000000	39.191966
1800.000000	39.151576
1799.000000	39.113672
1798.000000	39.079398
1797.000000	39.041451
1796.000000	39.012049
1795.000000	39.010049
1794.000000	38.989432
1793.000000	38.954385
1792.000000	38.929051
1791.000000	38.892919
1790.000000	38.870949
1789.000000	38.852053
1788.000000	38.822828
1787.000000	38.789302
1786.000000	38.765475
1785.000000	38.717480
1784.000000	38.663645
1783.000000	38.632998
1782.000000	38.595698
1781.000000	38.559697
1780.000000	38.525756
1779.000000	38.482081
1778.000000	38.422781
1777.000000	38.366744
1776.000000	38.315289
1775.000000	38.244231
1774.000000	38.184275
1773.000000	38.129595
1772.000000	38.038673
1771.000000	37.974474
1770.000000	37.908997
1769.000000	37.851603
1768.000000	37.785437
1767.000000	37.735623
1766.000000	37.659083
1765.000000	37.607184
1764.000000	37.560675
1763.000000	37.476965
1762.000000	37.387810
1761.000000	37.320882
1760.000000	37.258039
1759.000000	37.196015
1758.000000	37.129304
1757.000000	37.057807
1756.000000	37.017947
1755.000000	36.958432
1754.000000	36.882411
1753.000000	36.803718
1752.000000	36.758435
1751.000000	36.689378
1750.000000	36.599356
1749.000000	36.533985
1748.000000	36.476958
1747.000000	36.393755
1746.000000	36.308764
1745.000000	36.232619
1744.000000	36.176820
1743.000000	36.115593
1742.000000	36.042868
1741.000000	35.999578
1740.000000	35.940468
1739.000000	35.882922
1738.000000	35.833597
1737.000000	35.781789
1736.000000	35.789907
1735.000000	35.744996
1734.000000	35.710536
1733.000000	35.723856
1732.000000	35.726331
1731.000000	35.693059
1730.000000	35.719449
1729.000000	35.756606
1728.000000	35.796380
1727.000000	35.829029
1726.000000	35.921276
1725.000000	35.983442
1724.000000	36.065604
1723.000000	36.140793
1722.000000	36.229457
1721.000000	36.353234
1720.000000	36.443921
1719.000000	36.546830
1718.000000	36.645100
1717.000000	36.739634
1716.000000	36.836028
1715.000000	36.894195
1714.000000	36.966680
1713.000000	37.073173
1712.000000	37.158801
1711.000000	37.199939
1710.000000	37.286470
1709.000000	37.330576
1708.000000	37.372861
1707.000000	37.417343
1706.000000	37.455548
1705.000000	37.462816
1704.000000	37.502716
1703.000000	37.533482
1702.000000	37.534793
1701.000000	37.570278
1700.000000	37.577626
1699.000000	37.589386
1698.000000	37.622331
1697.000000	37.631383
1696.000000	37.689842
1695.000000	37.701439
1694.000000	37.723818
1693.000000	37.810988
1692.000000	37.837816
1691.000000	37.926546
1690.000000	38.039715
1689.000000	38.113963
1688.000000	38.221958
1687.000000	38.392294
1686.000000	38.508826
1685.000000	38.664455
1684.000000	38.809633
1683.000000	38.975531
1682.000000	39.139813
1681.000000	39.335910
1680.000000	39.507356
1679.000000	39.710547
1678.000000	39.898932
1677.000000	40.065666
1676.000000	40.280646
1675.000000	40.485203
1674.000000	40.658875
1673.000000	40.834797
1672.000000	41.017148
1671.000000	41.194707
1670.000000	41.345385
1669.000000	41.542313
1668.000000	41.670413
1667.000000	41.822185
1666.000000	41.933572
1665.000000	42.033381
1664.000000	42.130265
1663.000000	42.217437
1662.000000	42.310694
1661.000000	42.390427
1660.000000	42.452407
1659.000000	42.509463
1658.000000	42.564683
1657.000000	42.612098
1656.000000	42.641606
1655.000000	42.669998
1654.000000	42.703985
1653.000000	42.733920
1652.000000	42.731121
1651.000000	42.715156
1650.000000	42.707218
1649.000000	42.711428
1648.000000	42.697782
1647.000000	42.666986
1646.000000	42.662979
1645.000000	42.655603
1644.000000	42.628933
1643.000000	42.598155
1642.000000	42.586395
1641.000000	42.539403
1640.000000	42.496918
1639.000000	42.468352
1638.000000	42.433983
1637.000000	42.423415
1636.000000	42.373040
1635.000000	42.319936
1634.000000	42.275236
1633.000000	42.234767
1632.000000	42.179743
1631.000000	42.120909
1630.000000	42.085005
1629.000000	42.048683
1628.000000	41.995166
1627.000000	41.942681
1626.000000	41.882199
1625.000000	41.834436
1624.000000	41.784330
1623.000000	41.731067
1622.000000	41.687173
1621.000000	41.618720
1620.000000	41.554072
1619.000000	41.491766
1618.000000	41.446898
1617.000000	41.396094
1616.000000	41.325504
1615.000000	41.262260
1614.000000	41.192497
1613.000000	41.135617
1612.000000	41.083025
1611.000000	41.016710
1610.000000	40.940723
1609.000000	40.875330
1608.000000	40.815032
1607.000000	40.741098
1606.000000	40.653044
1605.000000	40.580107
1604.000000	40.525895
1603.000000	40.466951
1602.000000	40.397237
1601.000000	40.330153
1600.000000	40.262257
1599.000000	40.199677
1598.000000	40.125684
1597.000000	40.052815
1596.000000	39.987481
1595.000000	39.935205
1594.000000	39.875062
1593.000000	39.811007
1592.000000	39.750517
1591.000000	39.690743
1590.000000	39.643827
1589.000000	39.586512
1588.000000	39.530268
1587.000000	39.478742
1586.000000	39.425968
1585.000000	39.372232
1584.000000	39.323309
1583.000000	39.274166
1582.000000	39.220695
1581.000000	39.167254
1580.000000	39.112213
1579.000000	39.064575
1578.000000	39.026427
1577.000000	38.979909
1576.000000	38.927136
1575.000000	38.877248
1574.000000	38.818212
1573.000000	38.769207
1572.000000	38.714168
1571.000000	38.666531
1570.000000	38.624515
1569.000000	38.577698
1568.000000	38.527858
1567.000000	38.485531
1566.000000	38.446199
1565.000000	38.411601
1564.000000	38.386226
1563.000000	38.352372
1562.000000	38.327499
1561.000000	38.300572
1560.000000	38.271433
1559.000000	38.227189
1558.000000	38.205041
1557.000000	38.188757
1556.000000	38.161839
1555.000000	38.146760
1554.000000	38.112512
1553.000000	38.068734
1552.000000	38.031553
1551.000000	38.013224
1550.000000	37.975962
1549.000000	37.931206
1548.000000	37.883599
1547.000000	37.818134
1546.000000	37.761965
1545.000000	37.704492
1544.000000	37.617615
1543.000000	37.542042
1542.000000	37.467109
1541.000000	37.392332
1540.000000	37.301658
1539.000000	37.209937
1538.000000	37.120264
1537.000000	37.021101
1536.000000	36.918485
1535.000000	36.820311
1534.000000	36.727110
1533.000000	36.638006
1532.000000	36.547698
1531.000000	36.461261
1530.000000	36.418197
1529.000000	36.404706
1528.000000	36.359837
1527.000000	36.297113
1526.000000	36.187979
1525.000000	36.092224
1524.000000	35.999602
1523.000000	35.908532
1522.000000	35.812900
1521.000000	35.784839
1520.000000	35.728754
1519.000000	35.677648
1518.000000	35.622865
1517.000000	35.578290
1516.000000	35.547328
1515.000000	35.501647
1514.000000	35.445094
1513.000000	35.419558
1512.000000	35.386785
1511.000000	35.360248
1510.000000	35.312571
1509.000000	35.272624
1508.000000	35.248495
1507.000000	35.238790
1506.000000	35.225606
1505.000000	35.198112
1504.000000	35.177392
1503.000000	35.156516
1502.000000	35.131343
1501.000000	35.124396
1500.000000	35.112406
1499.000000	35.112654
1498.000000	35.134255
1497.000000	35.114831
1496.000000	35.126979
1495.000000	35.146395
1494.000000	35.146056
1493.000000	35.170419
1492.000000	35.201078
1491.000000	35.237102
1490.000000	35.270790
1489.000000	35.311477
1488.000000	35.385819
1487.000000	35.426923
1486.000000	35.482235
1485.000000	35.533646
1484.000000	35.594589
1483.000000	35.681327
1482.000000	35.724023
1481.000000	35.796529
1480.000000	35.870384
1479.000000	35.947795
1478.000000	36.017232
1477.000000	36.084176
1476.000000	36.173225
1475.000000	36.228685
1474.000000	36.284832
1473.000000	36.347934
1472.000000	36.418844
1471.000000	36.465774
1470.000000	36.538731
