PE UV       SUBTECH     SPECTRUM    ASCII       PEDS        4.00        
   -1
TTVeauUK 32.Sample.asc
18/02/28
09:33:49.00
18/02/28
09:33:49.00
Administrator

200.000000
1
Lambda 750
750N8071901
PerkinElmer UV WinLab 6.0.4.0738 / 1.61.00 Lambda 900

0
0
3350/servo 860.8/2
0
0
UV/VIS
1
1
1
CommonBeamDepol,150mm sphere / downward view
0
0
0
0
Program
Program
3350/servo 860.8/2
3350/0.2 860.8/0.2
3350/0.2 860.8/0.2
0
1
 
 
 
0
 
860.8
319.2
860.8
Front
100
on
 
 
0
0
0
 
0
 
 
 
0
 
 
0
0
0
0
0
 
 
 
 
0
0


0
0
#HDR
-1
-1
#GR
nm
%T
1.0
0.0
2350.000000
-1.000000
2151
8
44.395813
0.118482
#DATA
2350.000000	10.777335
2349.000000	10.836095
2348.000000	10.565761
2347.000000	11.309488
2346.000000	10.800212
2345.000000	10.313547
2344.000000	10.548351
2343.000000	10.741379
2342.000000	10.938031
2341.000000	11.111190
2340.000000	11.183273
2339.000000	11.375356
2338.000000	11.223542
2337.000000	11.615756
2336.000000	11.851665
2335.000000	11.520203
2334.000000	11.493442
2333.000000	11.920972
2332.000000	11.679802
2331.000000	11.614678
2330.000000	11.671253
2329.000000	11.648355
2328.000000	11.522603
2327.000000	10.972341
2326.000000	11.414800
2325.000000	11.236255
2324.000000	11.599520
2323.000000	11.479745
2322.000000	11.455877
2321.000000	11.163347
2320.000000	11.325859
2319.000000	11.403748
2318.000000	11.147733
2317.000000	11.135103
2316.000000	11.270473
2315.000000	11.122290
2314.000000	11.063106
2313.000000	10.926732
2312.000000	10.504665
2311.000000	10.525143
2310.000000	10.621738
2309.000000	10.725769
2308.000000	10.678383
2307.000000	10.474791
2306.000000	10.660611
2305.000000	10.514785
2304.000000	10.476920
2303.000000	10.313111
2302.000000	10.222749
2301.000000	10.064029
2300.000000	9.973254
2299.000000	9.948616
2298.000000	9.897702
2297.000000	9.600356
2296.000000	9.692517
2295.000000	9.753578
2294.000000	9.657020
2293.000000	9.685593
2292.000000	9.423673
2291.000000	9.323798
2290.000000	9.520742
2289.000000	9.433499
2288.000000	9.333991
2287.000000	9.231484
2286.000000	9.099683
2285.000000	8.995113
2284.000000	9.181774
2283.000000	9.128060
2282.000000	8.972359
2281.000000	8.977706
2280.000000	9.041302
2279.000000	9.094830
2278.000000	9.068188
2277.000000	9.120018
2276.000000	9.171060
2275.000000	9.252240
2274.000000	9.432416
2273.000000	9.427717
2272.000000	9.475070
2271.000000	9.417964
2270.000000	9.425460
2269.000000	9.339444
2268.000000	9.417289
2267.000000	9.683968
2266.000000	9.753813
2265.000000	9.669179
2264.000000	9.793123
2263.000000	10.005491
2262.000000	10.026905
2261.000000	10.075993
2260.000000	10.253843
2259.000000	10.425825
2258.000000	10.627916
2257.000000	10.830269
2256.000000	10.891153
2255.000000	11.044147
2254.000000	11.249342
2253.000000	11.343057
2252.000000	11.505227
2251.000000	11.760560
2250.000000	11.931959
2249.000000	12.116851
2248.000000	12.368204
2247.000000	12.525549
2246.000000	12.644029
2245.000000	12.812424
2244.000000	13.123034
2243.000000	13.293267
2242.000000	13.311682
2241.000000	13.441634
2240.000000	13.584747
2239.000000	13.596694
2238.000000	13.741641
2237.000000	13.941211
2236.000000	14.030877
2235.000000	14.098135
2234.000000	14.199306
2233.000000	14.156615
2232.000000	14.191200
2231.000000	14.287275
2230.000000	14.371421
2229.000000	14.464095
2228.000000	14.524626
2227.000000	14.467913
2226.000000	14.468073
2225.000000	14.490723
2224.000000	14.353723
2223.000000	14.289752
2222.000000	14.271061
2221.000000	14.298937
2220.000000	14.255942
2219.000000	14.311083
2218.000000	14.275614
2217.000000	14.189953
2216.000000	14.230294
2215.000000	14.186416
2214.000000	14.053908
2213.000000	14.075310
2212.000000	14.106939
2211.000000	13.890651
2210.000000	13.642783
2209.000000	13.644963
2208.000000	13.652316
2207.000000	13.598176
2206.000000	13.545581
2205.000000	13.630407
2204.000000	13.508118
2203.000000	13.343898
2202.000000	13.358127
2201.000000	13.341839
2200.000000	13.145704
2199.000000	13.143219
2198.000000	13.167980
2197.000000	13.150117
2196.000000	13.034567
2195.000000	12.855770
2194.000000	12.713149
2193.000000	12.609131
2192.000000	12.611163
2191.000000	12.600987
2190.000000	12.500165
2189.000000	12.455042
2188.000000	12.439804
2187.000000	12.331695
2186.000000	12.225535
2185.000000	12.178579
2184.000000	12.243298
2183.000000	12.293067
2182.000000	12.208710
2181.000000	12.120899
2180.000000	11.991552
2179.000000	12.135804
2178.000000	12.037696
2177.000000	11.949685
2176.000000	12.101751
2175.000000	12.042573
2174.000000	12.035274
2173.000000	12.091538
2172.000000	12.080603
2171.000000	12.072106
2170.000000	12.155771
2169.000000	12.220011
2168.000000	12.304400
2167.000000	12.495390
2166.000000	12.424236
2165.000000	12.466832
2164.000000	12.478638
2163.000000	12.453506
2162.000000	12.725636
2161.000000	12.874934
2160.000000	13.023688
2159.000000	13.117730
2158.000000	13.071961
2157.000000	13.158903
2156.000000	13.257454
2155.000000	13.390617
2154.000000	13.659572
2153.000000	13.928323
2152.000000	13.893749
2151.000000	13.907126
2150.000000	14.135768
2149.000000	14.295594
2148.000000	14.302533
2147.000000	14.393137
2146.000000	14.629496
2145.000000	14.766728
2144.000000	14.769030
2143.000000	14.806972
2142.000000	15.162713
2141.000000	15.212109
2140.000000	15.264438
2139.000000	15.443528
2138.000000	15.653711
2137.000000	15.867072
2136.000000	15.812936
2135.000000	15.813220
2134.000000	16.006874
2133.000000	15.904440
2132.000000	16.079511
2131.000000	16.137319
2130.000000	16.346364
2129.000000	16.385680
2128.000000	16.307313
2127.000000	16.398073
2126.000000	16.464305
2125.000000	16.462526
2124.000000	16.662448
2123.000000	16.728641
2122.000000	16.874596
2121.000000	16.879740
2120.000000	16.951339
2119.000000	16.875235
2118.000000	16.911141
2117.000000	16.929816
2116.000000	17.094303
2115.000000	17.047863
2114.000000	17.093560
2113.000000	16.992401
2112.000000	16.982725
2111.000000	17.064234
2110.000000	17.046738
2109.000000	17.054320
2108.000000	17.118028
2107.000000	17.125531
2106.000000	17.165690
2105.000000	17.230579
2104.000000	17.177304
2103.000000	17.173404
2102.000000	17.217066
2101.000000	17.256476
2100.000000	17.274470
2099.000000	17.226734
2098.000000	17.178183
2097.000000	17.300586
2096.000000	17.269209
2095.000000	17.233055
2094.000000	17.291703
2093.000000	17.244193
2092.000000	17.211712
2091.000000	17.231304
2090.000000	17.152613
2089.000000	17.146310
2088.000000	17.169923
2087.000000	17.211941
2086.000000	17.169604
2085.000000	17.138183
2084.000000	17.042799
2083.000000	16.984069
2082.000000	16.947098
2081.000000	16.915096
2080.000000	16.778310
2079.000000	16.683642
2078.000000	16.702678
2077.000000	16.673192
2076.000000	16.565177
2075.000000	16.401794
2074.000000	16.328391
2073.000000	16.232980
2072.000000	16.133868
2071.000000	16.004319
2070.000000	15.920737
2069.000000	15.779447
2068.000000	15.641678
2067.000000	15.573832
2066.000000	15.426268
2065.000000	15.262974
2064.000000	15.142343
2063.000000	14.991674
2062.000000	14.867504
2061.000000	14.694590
2060.000000	14.456371
2059.000000	14.390639
2058.000000	14.323555
2057.000000	14.171398
2056.000000	14.050175
2055.000000	13.962903
2054.000000	13.810510
2053.000000	13.668327
2052.000000	13.491375
2051.000000	13.384587
2050.000000	13.307001
2049.000000	13.202440
2048.000000	13.092198
2047.000000	13.042831
2046.000000	12.979974
2045.000000	12.951486
2044.000000	12.992846
2043.000000	12.964527
2042.000000	12.984271
2041.000000	12.992274
2040.000000	12.991540
2039.000000	13.030150
2038.000000	13.031868
2037.000000	13.118001
2036.000000	13.187385
2035.000000	13.259351
2034.000000	13.370682
2033.000000	13.498937
2032.000000	13.589299
2031.000000	13.658888
2030.000000	13.810703
2029.000000	13.959025
2028.000000	14.038026
2027.000000	14.122849
2026.000000	14.241399
2025.000000	14.368802
2024.000000	14.476579
2023.000000	14.596125
2022.000000	14.687154
2021.000000	14.764053
2020.000000	14.802622
2019.000000	14.829437
2018.000000	14.902746
2017.000000	14.927007
2016.000000	14.945580
2015.000000	14.975188
2014.000000	14.989655
2013.000000	14.998895
2012.000000	14.985244
2011.000000	14.997621
2010.000000	14.975793
2009.000000	14.867425
2008.000000	14.846228
2007.000000	14.835133
2006.000000	14.745859
2005.000000	14.695274
2004.000000	14.645276
2003.000000	14.578591
2002.000000	14.482131
2001.000000	14.375243
2000.000000	14.360901
1999.000000	14.277684
1998.000000	14.188456
1997.000000	14.092269
1996.000000	14.042921
1995.000000	13.967672
1994.000000	13.865898
1993.000000	13.771571
1992.000000	13.684260
1991.000000	13.562887
1990.000000	13.486600
1989.000000	13.425252
1988.000000	13.342213
1987.000000	13.245899
1986.000000	13.188903
1985.000000	13.120716
1984.000000	13.030775
1983.000000	12.945999
1982.000000	12.842041
1981.000000	12.782309
1980.000000	12.687122
1979.000000	12.624662
1978.000000	12.563487
1977.000000	12.477223
1976.000000	12.397596
1975.000000	12.319847
1974.000000	12.286881
1973.000000	12.168462
1972.000000	12.091404
1971.000000	12.009861
1970.000000	11.979768
1969.000000	11.935487
1968.000000	11.815245
1967.000000	11.753022
1966.000000	11.688462
1965.000000	11.613184
1964.000000	11.497798
1963.000000	11.434071
1962.000000	11.387251
1961.000000	11.297120
1960.000000	11.273733
1959.000000	11.181576
1958.000000	11.178699
1957.000000	11.125365
1956.000000	11.009269
1955.000000	10.972169
1954.000000	10.919688
1953.000000	10.917619
1952.000000	10.911345
1951.000000	10.921582
1950.000000	10.876573
1949.000000	10.853110
1948.000000	10.807971
1947.000000	10.863079
1946.000000	10.822622
1945.000000	10.801325
1944.000000	10.813641
1943.000000	10.850014
1942.000000	10.856503
1941.000000	10.883598
1940.000000	11.018769
1939.000000	11.095272
1938.000000	11.143472
1937.000000	11.203827
1936.000000	11.249394
1935.000000	11.384181
1934.000000	11.440907
1933.000000	11.562551
1932.000000	11.762552
1931.000000	11.927186
1930.000000	12.062993
1929.000000	12.150640
1928.000000	12.368496
1927.000000	12.632639
1926.000000	12.721508
1925.000000	12.963725
1924.000000	13.212329
1923.000000	13.419312
1922.000000	13.633990
1921.000000	13.905476
1920.000000	14.168651
1919.000000	14.371595
1918.000000	14.629659
1917.000000	14.935429
1916.000000	15.195411
1915.000000	15.605039
1914.000000	15.997664
1913.000000	16.254734
1912.000000	16.640285
1911.000000	16.923500
1910.000000	17.292017
1909.000000	17.644606
1908.000000	17.970449
1907.000000	18.411114
1906.000000	18.805884
1905.000000	19.214145
1904.000000	19.670978
1903.000000	20.136137
1902.000000	20.619105
1901.000000	21.039176
1900.000000	21.479913
1899.000000	21.940840
1898.000000	22.442670
1897.000000	22.847362
1896.000000	23.283985
1895.000000	23.756830
1894.000000	24.199665
1893.000000	24.632990
1892.000000	25.094937
1891.000000	25.481625
1890.000000	25.974591
1889.000000	26.349614
1888.000000	26.723783
1887.000000	27.117102
1886.000000	27.527611
1885.000000	27.907812
1884.000000	28.256103
1883.000000	28.650445
1882.000000	28.940929
1881.000000	29.248080
1880.000000	29.579607
1879.000000	29.840575
1878.000000	30.111413
1877.000000	30.372011
1876.000000	30.607351
1875.000000	30.883692
1874.000000	31.076494
1873.000000	31.291581
1872.000000	31.480808
1871.000000	31.633291
1870.000000	31.770224
1869.000000	31.935136
1868.000000	32.074843
1867.000000	32.158230
1866.000000	32.244524
1865.000000	32.327863
1864.000000	32.393657
1863.000000	32.466100
1862.000000	32.573227
1861.000000	32.596501
1860.000000	32.655996
1859.000000	32.709358
1858.000000	32.702464
1857.000000	32.729415
1856.000000	32.771725
1855.000000	32.818254
1854.000000	32.849878
1853.000000	32.850168
1852.000000	32.818358
1851.000000	32.828565
1850.000000	32.850920
1849.000000	32.854350
1848.000000	32.839304
1847.000000	32.834017
1846.000000	32.816722
1845.000000	32.775180
1844.000000	32.737527
1843.000000	32.708738
1842.000000	32.696569
1841.000000	32.659563
1840.000000	32.632869
1839.000000	32.590941
1838.000000	32.550646
1837.000000	32.485271
1836.000000	32.448106
1835.000000	32.396015
1834.000000	32.330044
1833.000000	32.295301
1832.000000	32.250701
1831.000000	32.208193
1830.000000	32.165359
1829.000000	32.105748
1828.000000	32.050036
1827.000000	32.022740
1826.000000	31.986793
1825.000000	31.937976
1824.000000	31.898219
1823.000000	31.851281
1822.000000	31.809815
1821.000000	31.768392
1820.000000	31.701064
1819.000000	31.654703
1818.000000	31.636303
1817.000000	31.599698
1816.000000	31.552109
1815.000000	31.516467
1814.000000	31.479876
1813.000000	31.437364
1812.000000	31.394341
1811.000000	31.354433
1810.000000	31.326116
1809.000000	31.285063
1808.000000	31.247760
1807.000000	31.202227
1806.000000	31.169083
1805.000000	31.131826
1804.000000	31.073126
1803.000000	31.039187
1802.000000	31.007410
1801.000000	30.968425
1800.000000	30.943113
1799.000000	30.926732
1798.000000	30.888705
1797.000000	30.859950
1796.000000	30.842332
1795.000000	30.813241
1794.000000	30.773161
1793.000000	30.745469
1792.000000	30.729081
1791.000000	30.719209
1790.000000	30.673012
1789.000000	30.648067
1788.000000	30.633637
1787.000000	30.607228
1786.000000	30.588105
1785.000000	30.546985
1784.000000	30.508137
1783.000000	30.472021
1782.000000	30.424202
1781.000000	30.384809
1780.000000	30.347238
1779.000000	30.315300
1778.000000	30.242662
1777.000000	30.172833
1776.000000	30.127142
1775.000000	30.056636
1774.000000	29.988572
1773.000000	29.940009
1772.000000	29.866022
1771.000000	29.801203
1770.000000	29.741811
1769.000000	29.686275
1768.000000	29.623366
1767.000000	29.548605
1766.000000	29.479882
1765.000000	29.427014
1764.000000	29.355973
1763.000000	29.277676
1762.000000	29.207059
1761.000000	29.148807
1760.000000	29.066020
1759.000000	29.007703
1758.000000	28.953935
1757.000000	28.882678
1756.000000	28.824300
1755.000000	28.769227
1754.000000	28.691567
1753.000000	28.642787
1752.000000	28.550073
1751.000000	28.475227
1750.000000	28.417508
1749.000000	28.355891
1748.000000	28.295875
1747.000000	28.209451
1746.000000	28.157236
1745.000000	28.079312
1744.000000	28.020889
1743.000000	27.944478
1742.000000	27.864910
1741.000000	27.836658
1740.000000	27.779008
1739.000000	27.691762
1738.000000	27.672682
1737.000000	27.633945
1736.000000	27.582982
1735.000000	27.556601
1734.000000	27.535074
1733.000000	27.543146
1732.000000	27.553521
1731.000000	27.563600
1730.000000	27.548474
1729.000000	27.583900
1728.000000	27.647092
1727.000000	27.694038
1726.000000	27.745207
1725.000000	27.814913
1724.000000	27.883417
1723.000000	27.969584
1722.000000	28.078974
1721.000000	28.131466
1720.000000	28.230572
1719.000000	28.383211
1718.000000	28.441965
1717.000000	28.526172
1716.000000	28.614341
1715.000000	28.708390
1714.000000	28.801603
1713.000000	28.891127
1712.000000	28.947890
1711.000000	29.014975
1710.000000	29.078601
1709.000000	29.111800
1708.000000	29.164458
1707.000000	29.206242
1706.000000	29.218126
1705.000000	29.261198
1704.000000	29.287813
1703.000000	29.290636
1702.000000	29.312188
1701.000000	29.335413
1700.000000	29.328057
1699.000000	29.366070
1698.000000	29.388861
1697.000000	29.408216
1696.000000	29.453449
1695.000000	29.484665
1694.000000	29.499869
1693.000000	29.596736
1692.000000	29.652155
1691.000000	29.729661
1690.000000	29.830714
1689.000000	29.901319
1688.000000	30.002965
1687.000000	30.155959
1686.000000	30.292324
1685.000000	30.432920
1684.000000	30.586960
1683.000000	30.761397
1682.000000	30.938680
1681.000000	31.127382
1680.000000	31.299297
1679.000000	31.498174
1678.000000	31.704135
1677.000000	31.897058
1676.000000	32.097536
1675.000000	32.296634
1674.000000	32.477814
1673.000000	32.657299
1672.000000	32.845012
1671.000000	33.035296
1670.000000	33.221930
1669.000000	33.393345
1668.000000	33.535418
1667.000000	33.683388
1666.000000	33.804122
1665.000000	33.904810
1664.000000	33.991145
1663.000000	34.093898
1662.000000	34.177886
1661.000000	34.259694
1660.000000	34.339117
1659.000000	34.396635
1658.000000	34.443475
1657.000000	34.522941
1656.000000	34.537251
1655.000000	34.575983
1654.000000	34.598485
1653.000000	34.628928
1652.000000	34.653810
1651.000000	34.634223
1650.000000	34.629893
1649.000000	34.630931
1648.000000	34.618968
1647.000000	34.615861
1646.000000	34.595243
1645.000000	34.581002
1644.000000	34.548940
1643.000000	34.524087
1642.000000	34.514287
1641.000000	34.472157
1640.000000	34.451485
1639.000000	34.418402
1638.000000	34.371978
1637.000000	34.334641
1636.000000	34.296915
1635.000000	34.250351
1634.000000	34.199375
1633.000000	34.152982
1632.000000	34.109950
1631.000000	34.053402
1630.000000	33.999271
1629.000000	33.962214
1628.000000	33.912498
1627.000000	33.847822
1626.000000	33.790979
1625.000000	33.757966
1624.000000	33.703969
1623.000000	33.639402
1622.000000	33.596936
1621.000000	33.530701
1620.000000	33.468431
1619.000000	33.418505
1618.000000	33.359815
1617.000000	33.305533
1616.000000	33.230343
1615.000000	33.172189
1614.000000	33.110137
1613.000000	33.049546
1612.000000	32.985604
1611.000000	32.913450
1610.000000	32.841902
1609.000000	32.775370
1608.000000	32.706315
1607.000000	32.628328
1606.000000	32.560910
1605.000000	32.499115
1604.000000	32.421731
1603.000000	32.353449
1602.000000	32.287997
1601.000000	32.218178
1600.000000	32.154769
1599.000000	32.080074
1598.000000	32.009500
1597.000000	31.946078
1596.000000	31.881331
1595.000000	31.821659
1594.000000	31.754677
1593.000000	31.702932
1592.000000	31.651414
1591.000000	31.589007
1590.000000	31.536031
1589.000000	31.477359
1588.000000	31.415740
1587.000000	31.364485
1586.000000	31.310674
1585.000000	31.262761
1584.000000	31.204198
1583.000000	31.149299
1582.000000	31.107759
1581.000000	31.051534
1580.000000	31.002336
1579.000000	30.955847
1578.000000	30.907770
1577.000000	30.861065
1576.000000	30.806383
1575.000000	30.758186
1574.000000	30.705999
1573.000000	30.659328
1572.000000	30.608472
1571.000000	30.551486
1570.000000	30.513915
1569.000000	30.464984
1568.000000	30.409480
1567.000000	30.375605
1566.000000	30.349358
1565.000000	30.309845
1564.000000	30.270998
1563.000000	30.252303
1562.000000	30.214127
1561.000000	30.186647
1560.000000	30.151114
1559.000000	30.106917
1558.000000	30.095943
1557.000000	30.087411
1556.000000	30.059047
1555.000000	30.023278
1554.000000	30.003642
1553.000000	29.980321
1552.000000	29.944699
1551.000000	29.912009
1550.000000	29.863846
1549.000000	29.821305
1548.000000	29.783140
1547.000000	29.717581
1546.000000	29.656799
1545.000000	29.601895
1544.000000	29.527187
1543.000000	29.456298
1542.000000	29.377682
1541.000000	29.284106
1540.000000	29.198194
1539.000000	29.108860
1538.000000	29.007803
1537.000000	28.912116
1536.000000	28.809807
1535.000000	28.706589
1534.000000	28.621965
1533.000000	28.536348
1532.000000	28.456886
1531.000000	28.413324
1530.000000	28.393866
1529.000000	28.333540
1528.000000	28.255392
1527.000000	28.164109
1526.000000	28.060157
1525.000000	27.963901
1524.000000	27.871642
1523.000000	27.791355
1522.000000	27.730360
1521.000000	27.675467
1520.000000	27.604982
1519.000000	27.548045
1518.000000	27.541048
1517.000000	27.481432
1516.000000	27.415778
1515.000000	27.394239
1514.000000	27.363177
1513.000000	27.317193
1512.000000	27.273336
1511.000000	27.244406
1510.000000	27.194062
1509.000000	27.185037
1508.000000	27.179999
1507.000000	27.144057
1506.000000	27.104751
1505.000000	27.078842
1504.000000	27.073552
1503.000000	27.048531
1502.000000	27.035075
1501.000000	27.036710
1500.000000	27.038045
1499.000000	27.019122
1498.000000	27.027521
1497.000000	27.049750
1496.000000	27.060494
1495.000000	27.075994
1494.000000	27.100350
1493.000000	27.103909
1492.000000	27.142117
1491.000000	27.203967
1490.000000	27.253406
1489.000000	27.277034
1488.000000	27.339036
1487.000000	27.402685
1486.000000	27.460474
1485.000000	27.523879
1484.000000	27.594378
1483.000000	27.681534
1482.000000	27.735967
1481.000000	27.824141
1480.000000	27.892111
1479.000000	27.969425
1478.000000	28.036424
1477.000000	28.106056
1476.000000	28.191430
1475.000000	28.269291
1474.000000	28.331261
1473.000000	28.395089
1472.000000	28.513428
1471.000000	28.563359
1470.000000	28.626852
1469.000000	28.689533
1468.000000	28.725939
