PE UV       SUBTECH     SPECTRUM    ASCII       PEDS        4.00        
   -1
TTVeauUK 62.Sample.asc
18/02/28
10:10:57.00
18/02/28
10:10:57.00
Administrator

200.000000
1
Lambda 750
750N8071901
PerkinElmer UV WinLab 6.0.4.0738 / 1.61.00 Lambda 900

0
0
3350/servo 860.8/2
0
0
UV/VIS
1
1
1
CommonBeamDepol,150mm sphere / downward view
0
0
0
0
Program
Program
3350/servo 860.8/2
3350/0.2 860.8/0.2
3350/0.2 860.8/0.2
0
1
 
 
 
0
 
860.8
319.2
860.8
Front
100
on
 
 
0
0
0
 
0
 
 
 
0
 
 
0
0
0
0
0
 
 
 
 
0
0


0
0
#HDR
-1
-1
#GR
nm
%T
1.0
0.0
2350.000000
-1.000000
2151
8
51.237285
0.218683
#DATA
2350.000000	15.769723
2349.000000	16.190103
2348.000000	15.656977
2347.000000	16.102359
2346.000000	15.825720
2345.000000	15.850279
2344.000000	15.615728
2343.000000	15.364273
2342.000000	16.035094
2341.000000	16.212792
2340.000000	16.239979
2339.000000	16.344014
2338.000000	16.389274
2337.000000	16.378909
2336.000000	16.535449
2335.000000	16.612756
2334.000000	16.616027
2333.000000	16.604431
2332.000000	16.891409
2331.000000	16.634986
2330.000000	16.520103
2329.000000	16.699905
2328.000000	16.881327
2327.000000	16.598375
2326.000000	16.612026
2325.000000	16.594367
2324.000000	16.711467
2323.000000	16.400199
2322.000000	16.194815
2321.000000	16.332710
2320.000000	16.234043
2319.000000	16.168595
2318.000000	16.349193
2317.000000	16.287218
2316.000000	16.018397
2315.000000	15.800448
2314.000000	15.798662
2313.000000	15.882698
2312.000000	15.706286
2311.000000	15.807561
2310.000000	15.624756
2309.000000	15.614268
2308.000000	15.322320
2307.000000	15.204288
2306.000000	15.209750
2305.000000	15.129821
2304.000000	14.927423
2303.000000	14.839475
2302.000000	14.901192
2301.000000	14.724471
2300.000000	14.550691
2299.000000	14.465502
2298.000000	14.287030
2297.000000	14.227574
2296.000000	14.118859
2295.000000	14.132479
2294.000000	13.798130
2293.000000	13.819375
2292.000000	13.787388
2291.000000	13.815535
2290.000000	13.872428
2289.000000	13.696140
2288.000000	13.581660
2287.000000	13.687441
2286.000000	13.564749
2285.000000	13.393272
2284.000000	13.395158
2283.000000	13.278778
2282.000000	13.371126
2281.000000	13.541954
2280.000000	13.455423
2279.000000	13.325375
2278.000000	13.433347
2277.000000	13.632013
2276.000000	13.563904
2275.000000	13.500886
2274.000000	13.637469
2273.000000	13.759647
2272.000000	13.746133
2271.000000	13.740062
2270.000000	13.764644
2269.000000	13.900881
2268.000000	13.942430
2267.000000	14.133394
2266.000000	14.257368
2265.000000	14.426841
2264.000000	14.527537
2263.000000	14.535667
2262.000000	14.708733
2261.000000	14.906726
2260.000000	15.040706
2259.000000	15.258010
2258.000000	15.515294
2257.000000	15.700114
2256.000000	15.896724
2255.000000	16.125416
2254.000000	16.330483
2253.000000	16.613117
2252.000000	16.691648
2251.000000	16.834638
2250.000000	17.167302
2249.000000	17.426500
2248.000000	17.703242
2247.000000	17.981251
2246.000000	18.288306
2245.000000	18.579449
2244.000000	18.760843
2243.000000	18.950368
2242.000000	19.109899
2241.000000	19.187539
2240.000000	19.389352
2239.000000	19.494449
2238.000000	19.568621
2237.000000	19.811093
2236.000000	19.908645
2235.000000	19.951251
2234.000000	20.118862
2233.000000	20.195885
2232.000000	20.259758
2231.000000	20.251264
2230.000000	20.263382
2229.000000	20.356949
2228.000000	20.443033
2227.000000	20.476859
2226.000000	20.405040
2225.000000	20.369656
2224.000000	20.318996
2223.000000	20.257097
2222.000000	20.149926
2221.000000	20.283316
2220.000000	20.299554
2219.000000	20.242209
2218.000000	20.227433
2217.000000	20.111493
2216.000000	19.971615
2215.000000	19.946101
2214.000000	19.977494
2213.000000	20.021433
2212.000000	19.932687
2211.000000	19.830572
2210.000000	19.716013
2209.000000	19.626122
2208.000000	19.590662
2207.000000	19.503920
2206.000000	19.302772
2205.000000	19.323983
2204.000000	19.117675
2203.000000	19.021125
2202.000000	19.024586
2201.000000	18.893831
2200.000000	18.785805
2199.000000	18.749905
2198.000000	18.648724
2197.000000	18.512140
2196.000000	18.371272
2195.000000	18.358668
2194.000000	18.242537
2193.000000	18.096538
2192.000000	18.027440
2191.000000	17.993468
2190.000000	18.003791
2189.000000	17.877314
2188.000000	17.772897
2187.000000	17.652631
2186.000000	17.632319
2185.000000	17.577381
2184.000000	17.454269
2183.000000	17.386713
2182.000000	17.384929
2181.000000	17.339696
2180.000000	17.201513
2179.000000	17.281320
2178.000000	17.314438
2177.000000	17.262755
2176.000000	17.307665
2175.000000	17.286849
2174.000000	17.347614
2173.000000	17.222231
2172.000000	17.267256
2171.000000	17.518016
2170.000000	17.533002
2169.000000	17.531910
2168.000000	17.590148
2167.000000	17.724848
2166.000000	17.629066
2165.000000	18.054689
2164.000000	17.983439
2163.000000	18.164233
2162.000000	18.147052
2161.000000	18.353083
2160.000000	18.616786
2159.000000	18.587731
2158.000000	18.668983
2157.000000	19.007159
2156.000000	19.027604
2155.000000	19.191433
2154.000000	19.348289
2153.000000	19.672337
2152.000000	19.750542
2151.000000	19.796406
2150.000000	20.011439
2149.000000	20.167572
2148.000000	20.098960
2147.000000	20.455223
2146.000000	20.651410
2145.000000	20.820983
2144.000000	21.004120
2143.000000	21.065635
2142.000000	21.120612
2141.000000	21.333061
2140.000000	21.596483
2139.000000	21.710949
2138.000000	21.808293
2137.000000	22.153830
2136.000000	22.099739
2135.000000	22.089595
2134.000000	22.434499
2133.000000	22.366583
2132.000000	22.598270
2131.000000	22.760290
2130.000000	22.909509
2129.000000	22.847789
2128.000000	22.926599
2127.000000	22.892082
2126.000000	23.040757
2125.000000	22.883840
2124.000000	23.165445
2123.000000	23.239270
2122.000000	23.272994
2121.000000	23.313287
2120.000000	23.441195
2119.000000	23.452637
2118.000000	23.617751
2117.000000	23.445196
2116.000000	23.582368
2115.000000	23.693413
2114.000000	23.678898
2113.000000	23.663832
2112.000000	23.560051
2111.000000	23.703314
2110.000000	23.757219
2109.000000	23.972130
2108.000000	23.882289
2107.000000	23.825762
2106.000000	23.882937
2105.000000	23.947497
2104.000000	23.723542
2103.000000	23.812214
2102.000000	23.926943
2101.000000	23.954255
2100.000000	23.906334
2099.000000	23.915106
2098.000000	23.874345
2097.000000	23.942213
2096.000000	23.968812
2095.000000	23.916537
2094.000000	23.911247
2093.000000	23.921562
2092.000000	23.844052
2091.000000	23.833487
2090.000000	23.884938
2089.000000	23.885694
2088.000000	23.893107
2087.000000	23.859899
2086.000000	23.790721
2085.000000	23.744913
2084.000000	23.569966
2083.000000	23.484010
2082.000000	23.402823
2081.000000	23.378264
2080.000000	23.318754
2079.000000	23.248026
2078.000000	23.272944
2077.000000	23.063328
2076.000000	22.977996
2075.000000	22.812953
2074.000000	22.785324
2073.000000	22.658797
2072.000000	22.426873
2071.000000	22.311432
2070.000000	22.201209
2069.000000	22.062208
2068.000000	21.883375
2067.000000	21.718206
2066.000000	21.536262
2065.000000	21.365552
2064.000000	21.208944
2063.000000	20.997784
2062.000000	20.845560
2061.000000	20.682166
2060.000000	20.496734
2059.000000	20.357734
2058.000000	20.146321
2057.000000	20.042906
2056.000000	19.892598
2055.000000	19.703269
2054.000000	19.483567
2053.000000	19.395606
2052.000000	19.280514
2051.000000	19.120550
2050.000000	18.954313
2049.000000	18.812751
2048.000000	18.700913
2047.000000	18.668912
2046.000000	18.603604
2045.000000	18.529798
2044.000000	18.465277
2043.000000	18.463521
2042.000000	18.486476
2041.000000	18.411191
2040.000000	18.472722
2039.000000	18.575035
2038.000000	18.593929
2037.000000	18.674271
2036.000000	18.755201
2035.000000	18.869232
2034.000000	19.003559
2033.000000	19.118197
2032.000000	19.266017
2031.000000	19.425516
2030.000000	19.568870
2029.000000	19.710429
2028.000000	19.838127
2027.000000	20.008248
2026.000000	20.205001
2025.000000	20.352761
2024.000000	20.465206
2023.000000	20.561306
2022.000000	20.650683
2021.000000	20.729180
2020.000000	20.833549
2019.000000	20.912983
2018.000000	20.979029
2017.000000	21.018325
2016.000000	21.023032
2015.000000	21.019236
2014.000000	21.057065
2013.000000	21.039857
2012.000000	21.035139
2011.000000	21.048947
2010.000000	20.988223
2009.000000	20.902623
2008.000000	20.830159
2007.000000	20.792457
2006.000000	20.719466
2005.000000	20.622132
2004.000000	20.555348
2003.000000	20.462615
2002.000000	20.391198
2001.000000	20.283298
2000.000000	20.187702
1999.000000	20.107487
1998.000000	20.032229
1997.000000	19.914536
1996.000000	19.798368
1995.000000	19.665086
1994.000000	19.552263
1993.000000	19.423335
1992.000000	19.303926
1991.000000	19.203059
1990.000000	19.105881
1989.000000	18.996912
1988.000000	18.920587
1987.000000	18.787367
1986.000000	18.648646
1985.000000	18.560385
1984.000000	18.473724
1983.000000	18.359692
1982.000000	18.267996
1981.000000	18.207599
1980.000000	18.088044
1979.000000	17.940101
1978.000000	17.819631
1977.000000	17.718480
1976.000000	17.657754
1975.000000	17.564288
1974.000000	17.436672
1973.000000	17.356995
1972.000000	17.206994
1971.000000	17.109600
1970.000000	17.027616
1969.000000	16.938533
1968.000000	16.804733
1967.000000	16.716425
1966.000000	16.640908
1965.000000	16.530015
1964.000000	16.460882
1963.000000	16.358682
1962.000000	16.243623
1961.000000	16.189272
1960.000000	16.120768
1959.000000	16.021374
1958.000000	15.936246
1957.000000	15.848388
1956.000000	15.774696
1955.000000	15.696812
1954.000000	15.659507
1953.000000	15.626231
1952.000000	15.572957
1951.000000	15.512179
1950.000000	15.476766
1949.000000	15.461285
1948.000000	15.440872
1947.000000	15.414445
1946.000000	15.398547
1945.000000	15.416461
1944.000000	15.434274
1943.000000	15.473527
1942.000000	15.504073
1941.000000	15.571692
1940.000000	15.631805
1939.000000	15.726538
1938.000000	15.813679
1937.000000	15.938287
1936.000000	16.097417
1935.000000	16.176057
1934.000000	16.299495
1933.000000	16.407177
1932.000000	16.648035
1931.000000	16.778223
1930.000000	17.057345
1929.000000	17.228977
1928.000000	17.491882
1927.000000	17.751650
1926.000000	17.891031
1925.000000	18.208616
1924.000000	18.475444
1923.000000	18.805542
1922.000000	19.125524
1921.000000	19.451344
1920.000000	19.768104
1919.000000	20.085003
1918.000000	20.433464
1917.000000	20.828523
1916.000000	21.061901
1915.000000	21.549574
1914.000000	21.982288
1913.000000	22.464937
1912.000000	22.740801
1911.000000	23.161892
1910.000000	23.627778
1909.000000	24.092592
1908.000000	24.534764
1907.000000	25.010558
1906.000000	25.425861
1905.000000	26.006847
1904.000000	26.431846
1903.000000	26.859712
1902.000000	27.398324
1901.000000	27.920521
1900.000000	28.451819
1899.000000	28.976768
1898.000000	29.511671
1897.000000	30.028489
1896.000000	30.492131
1895.000000	31.072948
1894.000000	31.508962
1893.000000	31.996751
1892.000000	32.408058
1891.000000	32.892550
1890.000000	33.416262
1889.000000	33.832685
1888.000000	34.239901
1887.000000	34.701567
1886.000000	35.074999
1885.000000	35.507268
1884.000000	35.875598
1883.000000	36.232100
1882.000000	36.559028
1881.000000	36.908868
1880.000000	37.215705
1879.000000	37.531527
1878.000000	37.772225
1877.000000	38.089168
1876.000000	38.298513
1875.000000	38.535888
1874.000000	38.736147
1873.000000	38.943720
1872.000000	39.151567
1871.000000	39.344824
1870.000000	39.503731
1869.000000	39.626235
1868.000000	39.766051
1867.000000	39.889003
1866.000000	39.978841
1865.000000	40.074030
1864.000000	40.132791
1863.000000	40.228429
1862.000000	40.300914
1861.000000	40.320364
1860.000000	40.355445
1859.000000	40.403155
1858.000000	40.458770
1857.000000	40.500160
1856.000000	40.519917
1855.000000	40.558025
1854.000000	40.574349
1853.000000	40.597574
1852.000000	40.580770
1851.000000	40.585923
1850.000000	40.626533
1849.000000	40.614281
1848.000000	40.612461
1847.000000	40.595266
1846.000000	40.591443
1845.000000	40.552133
1844.000000	40.519291
1843.000000	40.470503
1842.000000	40.447275
1841.000000	40.411416
1840.000000	40.384565
1839.000000	40.334472
1838.000000	40.297783
1837.000000	40.251438
1836.000000	40.217220
1835.000000	40.162767
1834.000000	40.094491
1833.000000	40.047638
1832.000000	39.998925
1831.000000	39.947580
1830.000000	39.912516
1829.000000	39.850787
1828.000000	39.801547
1827.000000	39.765374
1826.000000	39.726430
1825.000000	39.688990
1824.000000	39.655995
1823.000000	39.604373
1822.000000	39.549307
1821.000000	39.513599
1820.000000	39.456323
1819.000000	39.422637
1818.000000	39.382707
1817.000000	39.339949
1816.000000	39.289919
1815.000000	39.251267
1814.000000	39.206383
1813.000000	39.166292
1812.000000	39.132037
1811.000000	39.081343
1810.000000	39.040134
1809.000000	39.013208
1808.000000	38.985705
1807.000000	38.933678
1806.000000	38.890807
1805.000000	38.849185
1804.000000	38.804086
1803.000000	38.768765
1802.000000	38.728438
1801.000000	38.697176
1800.000000	38.676911
1799.000000	38.644120
1798.000000	38.614384
1797.000000	38.590450
1796.000000	38.561928
1795.000000	38.523027
1794.000000	38.497656
1793.000000	38.475947
1792.000000	38.460046
1791.000000	38.429900
1790.000000	38.378087
1789.000000	38.347055
1788.000000	38.323866
1787.000000	38.282017
1786.000000	38.258930
1785.000000	38.227212
1784.000000	38.189060
1783.000000	38.154679
1782.000000	38.128674
1781.000000	38.094595
1780.000000	38.043836
1779.000000	38.004646
1778.000000	37.944322
1777.000000	37.874502
1776.000000	37.809626
1775.000000	37.757313
1774.000000	37.686537
1773.000000	37.622323
1772.000000	37.571531
1771.000000	37.511907
1770.000000	37.435869
1769.000000	37.356525
1768.000000	37.315228
1767.000000	37.236522
1766.000000	37.173784
1765.000000	37.115720
1764.000000	37.063793
1763.000000	36.998389
1762.000000	36.896906
1761.000000	36.838021
1760.000000	36.765813
1759.000000	36.691719
1758.000000	36.647844
1757.000000	36.585098
1756.000000	36.531462
1755.000000	36.444658
1754.000000	36.366148
1753.000000	36.308984
1752.000000	36.256247
1751.000000	36.189018
1750.000000	36.137057
1749.000000	36.074056
1748.000000	35.984151
1747.000000	35.915181
1746.000000	35.823406
1745.000000	35.736411
1744.000000	35.683137
1743.000000	35.615103
1742.000000	35.558054
1741.000000	35.490265
1740.000000	35.436782
1739.000000	35.402881
1738.000000	35.331778
1737.000000	35.313990
1736.000000	35.280312
1735.000000	35.227725
1734.000000	35.238419
1733.000000	35.229139
1732.000000	35.213829
1731.000000	35.248204
1730.000000	35.232730
1729.000000	35.264952
1728.000000	35.304948
1727.000000	35.359931
1726.000000	35.440092
1725.000000	35.504368
1724.000000	35.576490
1723.000000	35.642821
1722.000000	35.768134
1721.000000	35.847204
1720.000000	35.933456
1719.000000	36.063003
1718.000000	36.155926
1717.000000	36.232562
1716.000000	36.323303
1715.000000	36.408281
1714.000000	36.517386
1713.000000	36.584732
1712.000000	36.649409
1711.000000	36.741958
1710.000000	36.765285
1709.000000	36.798531
1708.000000	36.881258
1707.000000	36.909803
1706.000000	36.950045
1705.000000	36.971060
1704.000000	36.996505
1703.000000	37.036251
1702.000000	37.041678
1701.000000	37.076186
1700.000000	37.083824
1699.000000	37.096045
1698.000000	37.099553
1697.000000	37.143832
1696.000000	37.216602
1695.000000	37.209416
1694.000000	37.259685
1693.000000	37.310970
1692.000000	37.376649
1691.000000	37.459446
1690.000000	37.563308
1689.000000	37.637873
1688.000000	37.735424
1687.000000	37.878082
1686.000000	37.982312
1685.000000	38.159211
1684.000000	38.328174
1683.000000	38.479338
1682.000000	38.631074
1681.000000	38.849041
1680.000000	39.016276
1679.000000	39.195059
1678.000000	39.388515
1677.000000	39.589209
1676.000000	39.778549
1675.000000	39.978209
1674.000000	40.159312
1673.000000	40.350489
1672.000000	40.536781
1671.000000	40.709724
1670.000000	40.878588
1669.000000	41.070305
1668.000000	41.178835
1667.000000	41.324045
1666.000000	41.443704
1665.000000	41.555087
1664.000000	41.648121
1663.000000	41.730227
1662.000000	41.816809
1661.000000	41.912752
1660.000000	41.985560
1659.000000	42.045079
1658.000000	42.076950
1657.000000	42.115340
1656.000000	42.146599
1655.000000	42.179390
1654.000000	42.220445
1653.000000	42.244292
1652.000000	42.245849
1651.000000	42.243621
1650.000000	42.248904
1649.000000	42.246939
1648.000000	42.233022
1647.000000	42.216556
1646.000000	42.194202
1645.000000	42.199245
1644.000000	42.163351
1643.000000	42.125316
1642.000000	42.097567
1641.000000	42.073788
1640.000000	42.037915
1639.000000	42.012904
1638.000000	41.975485
1637.000000	41.960547
1636.000000	41.926514
1635.000000	41.870087
1634.000000	41.815663
1633.000000	41.767271
1632.000000	41.715985
1631.000000	41.673441
1630.000000	41.616172
1629.000000	41.569767
1628.000000	41.532226
1627.000000	41.479630
1626.000000	41.417858
1625.000000	41.364817
1624.000000	41.323250
1623.000000	41.266230
1622.000000	41.215002
1621.000000	41.160157
1620.000000	41.104740
1619.000000	41.046391
1618.000000	40.973981
1617.000000	40.909990
1616.000000	40.864634
1615.000000	40.806937
1614.000000	40.737208
1613.000000	40.670214
1612.000000	40.617086
1611.000000	40.555058
1610.000000	40.483247
1609.000000	40.414571
1608.000000	40.349563
1607.000000	40.276111
1606.000000	40.206920
1605.000000	40.145798
1604.000000	40.067744
1603.000000	39.990827
1602.000000	39.923650
1601.000000	39.855998
1600.000000	39.791034
1599.000000	39.720675
1598.000000	39.660203
1597.000000	39.601161
1596.000000	39.528617
1595.000000	39.471922
1594.000000	39.405706
1593.000000	39.346237
1592.000000	39.290816
1591.000000	39.224555
1590.000000	39.160995
1589.000000	39.102980
1588.000000	39.055504
1587.000000	39.002232
1586.000000	38.949857
1585.000000	38.903603
1584.000000	38.856542
1583.000000	38.795702
1582.000000	38.747910
1581.000000	38.702487
1580.000000	38.651621
1579.000000	38.597796
1578.000000	38.550201
1577.000000	38.502718
1576.000000	38.456840
1575.000000	38.413510
1574.000000	38.345415
1573.000000	38.289512
1572.000000	38.245753
1571.000000	38.201380
1570.000000	38.158168
1569.000000	38.113262
1568.000000	38.068124
1567.000000	38.018953
1566.000000	37.972605
1565.000000	37.942259
1564.000000	37.917995
1563.000000	37.902751
1562.000000	37.863315
1561.000000	37.823026
1560.000000	37.801668
1559.000000	37.775724
1558.000000	37.742368
1557.000000	37.717513
1556.000000	37.695228
1555.000000	37.668819
1554.000000	37.651667
1553.000000	37.609121
1552.000000	37.587485
1551.000000	37.561601
1550.000000	37.516166
1549.000000	37.468467
1548.000000	37.433708
1547.000000	37.359488
1546.000000	37.285531
1545.000000	37.226300
1544.000000	37.148068
1543.000000	37.077800
1542.000000	37.007090
1541.000000	36.913683
1540.000000	36.833468
1539.000000	36.750055
1538.000000	36.660940
1537.000000	36.551177
1536.000000	36.446408
1535.000000	36.340504
1534.000000	36.256213
1533.000000	36.175077
1532.000000	36.089498
1531.000000	36.015810
1530.000000	35.966145
1529.000000	35.932957
1528.000000	35.876666
1527.000000	35.824663
1526.000000	35.716662
1525.000000	35.615418
1524.000000	35.515352
1523.000000	35.441781
1522.000000	35.363419
1521.000000	35.293706
1520.000000	35.257919
1519.000000	35.200217
1518.000000	35.160285
1517.000000	35.136671
1516.000000	35.064466
1515.000000	35.021202
1514.000000	34.956953
1513.000000	34.933580
1512.000000	34.918951
1511.000000	34.892787
1510.000000	34.842931
1509.000000	34.808594
1508.000000	34.762687
1507.000000	34.757395
1506.000000	34.755404
1505.000000	34.725467
1504.000000	34.713249
1503.000000	34.680978
1502.000000	34.651971
1501.000000	34.665553
1500.000000	34.645697
1499.000000	34.643451
1498.000000	34.650345
1497.000000	34.649056
1496.000000	34.642497
1495.000000	34.663823
1494.000000	34.689519
1493.000000	34.696128
1492.000000	34.727887
1491.000000	34.766772
1490.000000	34.815179
1489.000000	34.858119
1488.000000	34.893401
1487.000000	34.966273
1486.000000	34.999888
1485.000000	35.073201
1484.000000	35.124525
1483.000000	35.199617
1482.000000	35.264554
1481.000000	35.329253
1480.000000	35.402965
1479.000000	35.497814
1478.000000	35.564721
1477.000000	35.624902
1476.000000	35.695988
1475.000000	35.760474
1474.000000	35.827372
1473.000000	35.898710
1472.000000	35.961810
1471.000000	36.026024
1470.000000	36.089095
