PE UV       SUBTECH     SPECTRUM    ASCII       PEDS        4.00        
   -1
004-1S-C10-NR001-C001.Sample.asc
24/01/08
18:17:09.00
24/01/08
18:17:09.00
Administrator

250.000000
1
Lambda 750
750N8071901
PerkinElmer UV WinLab 6.0.4.0738 / 1.61.00 Lambda 900

0
0
3350/servo 860.8/2
0
0
UV/VIS
1
1
1
CommonBeamDepol,150mm sphere / downward view
0
0
0
0
Program
Program
3350/servo 860.8/2
3350/0.2 860.8/0.2
3350/0.2 860.8/0.2
0
1
 
 
 
0
 
860.8
319.2
860.8
Front
100
on
 
 
0
0
0
 
0
 
 
 
0
 
 
0
0
0
0
0
 
 
 
 
0
0


0
0
#HDR
-1
-1
#GR
nm
%R
1.0
0.0
2500.000000
-10.000000
226
8
82.157327
0.000000
#DATA
2500.000000	0.000000
2490.000000	43.233696
2480.000000	44.732233
2470.000000	42.977012
2460.000000	43.955514
2450.000000	45.718858
2440.000000	46.957198
2430.000000	48.181193
2420.000000	47.999555
2410.000000	48.920154
2400.000000	48.898399
2390.000000	49.056506
2380.000000	49.035652
2370.000000	48.268314
2360.000000	48.125540
2350.000000	47.664373
2340.000000	48.321663
2330.000000	48.519396
2320.000000	47.688363
2310.000000	46.260420
2300.000000	46.687527
2290.000000	47.259072
2280.000000	46.518873
2270.000000	47.602988
2260.000000	49.467855
2250.000000	51.355312
2240.000000	51.705381
2230.000000	52.354175
2220.000000	52.084431
2210.000000	51.973700
2200.000000	51.538682
2190.000000	50.691361
2180.000000	51.121407
2170.000000	51.373203
2160.000000	52.415992
2150.000000	55.033324
2140.000000	55.562092
2130.000000	56.892869
2120.000000	56.652686
2110.000000	57.107592
2100.000000	56.560956
2090.000000	56.509174
2080.000000	55.907101
2070.000000	54.076323
2060.000000	52.604669
2050.000000	52.034392
2040.000000	51.936148
2030.000000	53.371250
2020.000000	53.272013
2010.000000	52.600475
2000.000000	51.415978
1990.000000	50.368780
1980.000000	49.089029
1970.000000	47.974675
1960.000000	47.247859
1950.000000	46.593234
1940.000000	47.144283
1930.000000	49.579944
1920.000000	52.546356
1910.000000	57.183290
1900.000000	61.975671
1890.000000	65.960658
1880.000000	68.704121
1870.000000	70.065152
1860.000000	70.779785
1850.000000	70.861749
1840.000000	70.690370
1830.000000	70.300822
1820.000000	70.182820
1810.000000	69.711593
1800.000000	69.360959
1790.000000	69.131901
1780.000000	68.790699
1770.000000	68.458588
1760.000000	68.086615
1750.000000	67.591024
1740.000000	67.339893
1730.000000	67.632631
1720.000000	68.380454
1710.000000	69.011433
1700.000000	69.314683
1690.000000	69.951243
1680.000000	71.341485
1670.000000	72.496510
1660.000000	73.007280
1650.000000	73.065245
1640.000000	72.887421
1630.000000	72.471968
1620.000000	72.128384
1610.000000	71.534990
1600.000000	71.081386
1590.000000	70.606449
1580.000000	70.232403
1570.000000	69.842321
1560.000000	69.706162
1550.000000	69.309534
1540.000000	68.619374
1530.000000	67.988823
1520.000000	67.549948
1510.000000	67.289418
1500.000000	67.250505
1490.000000	67.453796
1480.000000	67.927392
1470.000000	68.298590
1460.000000	68.787081
1450.000000	69.342393
1440.000000	70.181788
1430.000000	71.116043
1420.000000	72.385459
1410.000000	74.040398
1400.000000	75.688790
1390.000000	77.074042
1380.000000	77.868769
1370.000000	78.167703
1360.000000	78.669400
1350.000000	79.117477
1340.000000	79.571708
1330.000000	79.836542
1320.000000	79.967039
1310.000000	80.040666
1300.000000	80.054067
1290.000000	79.984455
1280.000000	79.996965
1270.000000	80.095705
1260.000000	80.129766
1250.000000	80.131204
1240.000000	80.035846
1230.000000	79.853497
1220.000000	79.733925
1210.000000	79.533459
1200.000000	79.385630
1190.000000	79.321787
1180.000000	79.597834
1170.000000	79.942770
1160.000000	80.412647
1150.000000	80.731605
1140.000000	81.011020
1130.000000	81.217236
1120.000000	81.197638
1110.000000	81.337800
1100.000000	81.408095
1090.000000	81.397978
1080.000000	81.392605
1070.000000	81.285534
1060.000000	81.243508
1050.000000	81.294062
1040.000000	81.167296
1030.000000	81.209957
1020.000000	81.120442
1010.000000	81.126955
1000.000000	81.302970
990.000000	81.267081
980.000000	81.327673
970.000000	81.400679
960.000000	81.455092
950.000000	81.511447
940.000000	81.574688
930.000000	81.531132
920.000000	81.538226
910.000000	81.400326
900.000000	81.575473
890.000000	81.633898
880.000000	81.509551
870.000000	81.661293
860.000000	81.757497
850.000000	81.442887
840.000000	81.570366
830.000000	82.157327
820.000000	81.534605
810.000000	81.504719
800.000000	81.579239
790.000000	81.396150
780.000000	81.329777
770.000000	81.172010
760.000000	81.247979
750.000000	81.359364
740.000000	80.894628
730.000000	80.869154
720.000000	80.922751
710.000000	80.665147
700.000000	80.575263
690.000000	80.543542
680.000000	80.349409
670.000000	80.103073
660.000000	79.754347
650.000000	79.719510
640.000000	79.368293
630.000000	79.036473
620.000000	78.921343
610.000000	78.612927
600.000000	78.192845
590.000000	77.851034
580.000000	77.571376
570.000000	77.025194
560.000000	76.713432
550.000000	76.338111
540.000000	75.901561
530.000000	75.431741
520.000000	74.965714
510.000000	74.568523
500.000000	73.991551
490.000000	73.444110
480.000000	72.700425
470.000000	72.045547
460.000000	71.517549
450.000000	70.847336
440.000000	69.740389
430.000000	68.753486
420.000000	67.593888
410.000000	66.314605
400.000000	64.819835
390.000000	63.321585
380.000000	61.681223
370.000000	60.193183
360.000000	58.195549
350.000000	55.379178
340.000000	53.889990
330.000000	50.451911
320.000000	48.086141
310.000000	45.489165
300.000000	43.648485
290.000000	37.758463
280.000000	28.168549
270.000000	21.417889
260.000000	18.381945
250.000000	17.744450
