PE UV       SUBTECH     SPECTRUM    ASCII       PEDS        4.00        
   -1
004-1S-C3-NR001-C001.Sample.asc
24/01/08
17:44:37.00
24/01/08
17:44:37.00
Administrator

250.000000
1
Lambda 750
750N8071901
PerkinElmer UV WinLab 6.0.4.0738 / 1.61.00 Lambda 900

0
0
3350/servo 860.8/2
0
0
UV/VIS
1
1
1
CommonBeamDepol,150mm sphere / downward view
0
0
0
0
Program
Program
3350/servo 860.8/2
3350/0.2 860.8/0.2
3350/0.2 860.8/0.2
0
1
 
 
 
0
 
860.8
319.2
860.8
Front
100
on
 
 
0
0
0
 
0
 
 
 
0
 
 
0
0
0
0
0
 
 
 
 
0
0


0
0
#HDR
-1
-1
#GR
nm
%R
1.0
0.0
2500.000000
-10.000000
226
8
72.642561
0.000000
#DATA
2500.000000	0.000000
2490.000000	14.217068
2480.000000	14.941831
2470.000000	12.224714
2460.000000	17.577920
2450.000000	16.923807
2440.000000	17.811787
2430.000000	20.201937
2420.000000	18.361591
2410.000000	19.779640
2400.000000	19.678062
2390.000000	19.769982
2380.000000	20.304879
2370.000000	17.519163
2360.000000	19.253675
2350.000000	19.173352
2340.000000	19.881188
2330.000000	19.865912
2320.000000	18.530578
2310.000000	18.109438
2300.000000	17.549766
2290.000000	18.058986
2280.000000	17.830680
2270.000000	19.264991
2260.000000	21.522008
2250.000000	22.935802
2240.000000	23.860628
2230.000000	25.394174
2220.000000	24.265350
2210.000000	23.955439
2200.000000	22.623099
2190.000000	22.944748
2180.000000	22.273156
2170.000000	23.268537
2160.000000	24.274026
2150.000000	25.039956
2140.000000	27.621630
2130.000000	27.889988
2120.000000	28.540116
2110.000000	28.757246
2100.000000	28.655904
2090.000000	28.512393
2080.000000	27.535938
2070.000000	25.928107
2060.000000	24.237115
2050.000000	23.522370
2040.000000	24.037194
2030.000000	24.992495
2020.000000	25.547948
2010.000000	24.568078
2000.000000	23.178934
1990.000000	22.201893
1980.000000	21.032207
1970.000000	19.927293
1960.000000	19.088634
1950.000000	18.737350
1940.000000	19.363960
1930.000000	21.507748
1920.000000	25.085406
1910.000000	30.895568
1900.000000	37.566065
1890.000000	43.895679
1880.000000	48.152425
1870.000000	50.877748
1860.000000	51.635608
1850.000000	52.023115
1840.000000	51.425149
1830.000000	50.910449
1820.000000	50.572879
1810.000000	49.891922
1800.000000	49.447031
1790.000000	49.023324
1780.000000	48.255262
1770.000000	47.563531
1760.000000	46.914319
1750.000000	46.171265
1740.000000	45.563603
1730.000000	46.101874
1720.000000	47.519697
1710.000000	48.414420
1700.000000	48.899938
1690.000000	50.322036
1680.000000	52.780588
1670.000000	54.845568
1660.000000	55.710563
1650.000000	55.802647
1640.000000	55.357364
1630.000000	54.731961
1620.000000	53.945097
1610.000000	53.005110
1600.000000	52.045868
1590.000000	51.252956
1580.000000	50.455953
1570.000000	49.828703
1560.000000	49.543107
1550.000000	48.899904
1540.000000	47.615155
1530.000000	46.511372
1520.000000	45.852856
1510.000000	45.459989
1500.000000	45.424573
1490.000000	45.603500
1480.000000	46.206290
1470.000000	46.858850
1460.000000	47.595726
1450.000000	48.649727
1440.000000	50.146318
1430.000000	51.982575
1420.000000	54.579924
1410.000000	57.601400
1400.000000	60.680819
1390.000000	63.123764
1380.000000	64.592332
1370.000000	65.459008
1360.000000	66.304438
1350.000000	67.220695
1340.000000	68.284305
1330.000000	69.128445
1320.000000	69.591923
1310.000000	69.641044
1300.000000	69.489606
1290.000000	69.342092
1280.000000	69.318598
1270.000000	69.438450
1260.000000	69.534657
1250.000000	69.520782
1240.000000	69.267127
1230.000000	68.864128
1220.000000	68.506748
1210.000000	68.089610
1200.000000	67.639558
1190.000000	67.556245
1180.000000	68.048781
1170.000000	68.913698
1160.000000	69.984007
1150.000000	70.652105
1140.000000	71.313321
1130.000000	71.720401
1120.000000	71.826368
1110.000000	71.910894
1100.000000	71.981368
1090.000000	72.012099
1080.000000	71.911391
1070.000000	71.789555
1060.000000	71.724546
1050.000000	71.658448
1040.000000	71.576443
1030.000000	71.540684
1020.000000	71.515034
1010.000000	71.537476
1000.000000	71.737173
990.000000	71.798425
980.000000	71.874857
970.000000	72.044547
960.000000	72.077746
950.000000	72.168835
940.000000	72.226684
930.000000	72.195355
920.000000	72.202204
910.000000	72.088245
900.000000	72.304640
890.000000	72.296265
880.000000	72.248943
870.000000	72.642561
860.000000	72.603709
850.000000	71.931091
840.000000	71.949660
830.000000	71.555165
820.000000	71.422879
810.000000	71.287803
800.000000	71.411252
790.000000	71.037906
780.000000	70.964578
770.000000	71.138952
760.000000	71.102165
750.000000	70.938358
740.000000	70.623350
730.000000	70.377465
720.000000	70.250917
710.000000	70.141107
700.000000	69.788887
690.000000	69.620143
680.000000	69.194486
670.000000	68.778476
660.000000	68.202990
650.000000	67.970196
640.000000	67.533381
630.000000	67.030769
620.000000	66.585990
610.000000	66.015410
600.000000	65.336531
590.000000	64.645378
580.000000	63.975468
570.000000	63.197102
560.000000	62.415209
550.000000	61.640692
540.000000	60.827905
530.000000	59.844845
520.000000	58.889729
510.000000	57.915494
500.000000	56.842596
490.000000	55.825094
480.000000	54.468651
470.000000	53.012861
460.000000	51.707670
450.000000	50.204533
440.000000	48.230846
430.000000	46.435529
420.000000	44.191131
410.000000	41.664135
400.000000	39.149180
390.000000	36.898991
380.000000	34.830908
370.000000	32.784577
360.000000	30.678872
350.000000	28.712431
340.000000	27.398142
330.000000	25.340461
320.000000	23.782146
310.000000	22.102287
300.000000	20.946337
290.000000	17.301556
280.000000	14.797022
270.000000	13.047463
260.000000	12.290662
250.000000	12.291364
