PE UV       SUBTECH     SPECTRUM    ASCII       PEDS        4.00        
   -1
005-2G-BD10-NR001-F001.Sample.asc
24/01/08
16:08:29.00
24/01/08
16:08:29.00
Administrator

250.000000
1
Lambda 750
750N8071901
PerkinElmer UV WinLab 6.0.4.0738 / 1.61.00 Lambda 900

0
0
3350/servo 860.8/2
0
0
UV/VIS
1
1
1
CommonBeamDepol,150mm sphere / downward view
0
0
0
0
Program
Program
3350/servo 860.8/2
3350/0.2 860.8/0.2
3350/0.2 860.8/0.2
0
1
 
 
 
0
 
860.8
319.2
860.8
Front
100
on
 
 
0
0
0
 
0
 
 
 
0
 
 
0
0
0
0
0
 
 
 
 
0
0


0
0
#HDR
-1
-1
#GR
nm
%R
1.0
0.0
2500.000000
-10.000000
226
8
75.807435
0.000000
#DATA
2500.000000	0.000000
2490.000000	36.642542
2480.000000	39.105069
2470.000000	37.320245
2460.000000	39.238265
2450.000000	42.232455
2440.000000	40.694821
2430.000000	42.575107
2420.000000	41.183048
2410.000000	42.982313
2400.000000	42.193598
2390.000000	44.685180
2380.000000	42.585825
2370.000000	41.694515
2360.000000	42.498379
2350.000000	42.374033
2340.000000	43.279947
2330.000000	42.605144
2320.000000	43.006537
2310.000000	41.735043
2300.000000	41.330282
2290.000000	42.569734
2280.000000	41.447778
2270.000000	42.392116
2260.000000	44.293898
2250.000000	45.495213
2240.000000	45.530490
2230.000000	46.213924
2220.000000	45.515108
2210.000000	45.538093
2200.000000	45.266697
2190.000000	45.816621
2180.000000	45.591726
2170.000000	45.791796
2160.000000	47.565948
2150.000000	48.199278
2140.000000	49.315837
2130.000000	50.219589
2120.000000	50.233527
2110.000000	49.885932
2100.000000	49.684329
2090.000000	49.434554
2080.000000	49.293666
2070.000000	48.092727
2060.000000	46.646866
2050.000000	46.567014
2040.000000	46.948142
2030.000000	47.674026
2020.000000	47.495344
2010.000000	47.041306
2000.000000	46.110336
1990.000000	45.600254
1980.000000	44.660036
1970.000000	43.662332
1960.000000	43.061999
1950.000000	42.840581
1940.000000	43.347840
1930.000000	45.083590
1920.000000	47.468912
1910.000000	50.683065
1900.000000	54.304876
1890.000000	57.324588
1880.000000	59.416740
1870.000000	60.668879
1860.000000	61.141693
1850.000000	61.329310
1840.000000	61.204716
1830.000000	61.046093
1820.000000	60.914611
1810.000000	60.515480
1800.000000	60.479348
1790.000000	60.181898
1780.000000	59.967671
1770.000000	59.633249
1760.000000	59.385868
1750.000000	59.130581
1740.000000	59.077738
1730.000000	59.327764
1720.000000	59.894195
1710.000000	60.546452
1700.000000	60.640591
1690.000000	61.360294
1680.000000	62.466586
1670.000000	63.292841
1660.000000	63.878509
1650.000000	63.921337
1640.000000	63.720651
1630.000000	63.504572
1620.000000	63.196144
1610.000000	62.733781
1600.000000	62.402278
1590.000000	61.966367
1580.000000	61.742982
1570.000000	61.565167
1560.000000	61.383841
1550.000000	61.161613
1540.000000	60.701888
1530.000000	60.200164
1520.000000	59.946514
1510.000000	59.777732
1500.000000	59.776051
1490.000000	59.975304
1480.000000	60.277213
1470.000000	60.590871
1460.000000	60.959779
1450.000000	61.439487
1440.000000	62.130793
1430.000000	62.907439
1420.000000	63.976217
1410.000000	65.449535
1400.000000	67.050774
1390.000000	68.235335
1380.000000	69.072049
1370.000000	69.376784
1360.000000	69.880840
1350.000000	70.456487
1340.000000	70.998684
1330.000000	71.444720
1320.000000	71.643357
1310.000000	71.715167
1300.000000	71.678246
1290.000000	71.630965
1280.000000	71.674765
1270.000000	71.829447
1260.000000	71.948933
1250.000000	71.850278
1240.000000	71.840001
1230.000000	71.736444
1220.000000	71.584265
1210.000000	71.350958
1200.000000	71.264776
1190.000000	71.296817
1180.000000	71.658028
1170.000000	71.920516
1160.000000	72.463391
1150.000000	72.823139
1140.000000	73.032664
1130.000000	73.199117
1120.000000	73.378891
1110.000000	73.441412
1100.000000	73.551701
1090.000000	73.606626
1080.000000	73.456840
1070.000000	73.395560
1060.000000	73.357945
1050.000000	73.398197
1040.000000	73.374275
1030.000000	73.383225
1020.000000	73.341589
1010.000000	73.258011
1000.000000	73.386661
990.000000	73.460460
980.000000	73.538081
970.000000	73.637912
960.000000	73.767392
950.000000	73.785709
940.000000	73.918656
930.000000	73.853116
920.000000	73.861410
910.000000	73.837184
900.000000	73.968260
890.000000	74.066999
880.000000	74.039675
870.000000	74.216410
860.000000	74.118376
850.000000	73.739402
840.000000	75.177787
830.000000	75.807435
820.000000	75.369962
810.000000	75.122373
800.000000	75.151178
790.000000	75.232948
780.000000	74.952072
770.000000	75.120387
760.000000	75.139184
750.000000	75.217848
740.000000	74.833304
730.000000	75.035995
720.000000	74.931386
710.000000	74.607555
700.000000	74.541537
690.000000	74.289061
680.000000	74.246634
670.000000	73.779341
660.000000	73.373929
650.000000	73.303835
640.000000	73.085267
630.000000	72.855044
620.000000	72.721379
610.000000	72.338555
600.000000	72.179473
590.000000	71.892709
580.000000	71.627809
570.000000	71.364432
560.000000	71.102132
550.000000	70.793907
540.000000	70.511431
530.000000	70.062122
520.000000	69.711592
510.000000	69.382414
500.000000	68.832031
490.000000	68.439992
480.000000	67.631654
470.000000	67.094285
460.000000	66.509406
450.000000	65.833533
440.000000	64.597872
430.000000	63.740354
420.000000	62.484226
410.000000	61.003789
400.000000	59.565151
390.000000	57.914119
380.000000	56.050996
370.000000	54.110255
360.000000	51.690961
350.000000	48.811301
340.000000	46.696450
330.000000	43.243704
320.000000	40.382569
310.000000	36.860652
300.000000	34.081537
290.000000	30.561497
280.000000	26.387086
270.000000	23.014497
260.000000	21.855343
250.000000	20.698643
