PE UV       SUBTECH     SPECTRUM    ASCII       PEDS        4.00        
   -1
005-2G-AD11-NR001-F001.Sample.asc
24/01/08
15:47:34.00
24/01/08
15:47:34.00
Administrator

250.000000
1
Lambda 750
750N8071901
PerkinElmer UV WinLab 6.0.4.0738 / 1.61.00 Lambda 900

0
0
3350/servo 860.8/2
0
0
UV/VIS
1
1
1
CommonBeamDepol,150mm sphere / downward view
0
0
0
0
Program
Program
3350/servo 860.8/2
3350/0.2 860.8/0.2
3350/0.2 860.8/0.2
0
1
 
 
 
0
 
860.8
319.2
860.8
Front
100
on
 
 
0
0
0
 
0
 
 
 
0
 
 
0
0
0
0
0
 
 
 
 
0
0


0
0
#HDR
-1
-1
#GR
nm
%R
1.0
0.0
2500.000000
-10.000000
226
8
73.290294
0.000000
#DATA
2500.000000	0.000000
2490.000000	33.860848
2480.000000	33.943148
2470.000000	33.058207
2460.000000	35.363966
2450.000000	37.386552
2440.000000	38.099466
2430.000000	38.314350
2420.000000	36.723737
2410.000000	38.721747
2400.000000	38.434030
2390.000000	39.852512
2380.000000	37.814071
2370.000000	38.336918
2360.000000	39.337170
2350.000000	38.269728
2340.000000	39.630210
2330.000000	39.166683
2320.000000	38.185166
2310.000000	38.382759
2300.000000	37.163263
2290.000000	38.209248
2280.000000	37.635999
2270.000000	38.672487
2260.000000	40.253351
2250.000000	41.632949
2240.000000	41.962836
2230.000000	43.166210
2220.000000	42.551118
2210.000000	41.884269
2200.000000	41.588837
2190.000000	41.537663
2180.000000	41.742048
2170.000000	42.145823
2160.000000	43.212292
2150.000000	43.831610
2140.000000	45.532947
2130.000000	45.862866
2120.000000	46.095522
2110.000000	46.217051
2100.000000	46.020111
2090.000000	45.855245
2080.000000	45.649049
2070.000000	44.050173
2060.000000	43.033103
2050.000000	42.516064
2040.000000	43.021817
2030.000000	43.635179
2020.000000	43.628014
2010.000000	43.196278
2000.000000	41.985354
1990.000000	41.341866
1980.000000	40.443852
1970.000000	39.437130
1960.000000	38.802817
1950.000000	38.461895
1940.000000	38.938152
1930.000000	40.828433
1920.000000	43.298826
1910.000000	46.995000
1900.000000	50.669563
1890.000000	54.223020
1880.000000	56.900789
1870.000000	58.319202
1860.000000	58.668737
1850.000000	58.983548
1840.000000	58.667438
1830.000000	58.376916
1820.000000	58.156007
1810.000000	57.771912
1800.000000	57.605424
1790.000000	57.390430
1780.000000	57.002062
1770.000000	56.664001
1760.000000	56.449173
1750.000000	56.094809
1740.000000	55.988290
1730.000000	56.226154
1720.000000	56.870279
1710.000000	57.462801
1700.000000	57.700971
1690.000000	58.428379
1680.000000	59.778654
1670.000000	60.875986
1660.000000	61.363514
1650.000000	61.452940
1640.000000	61.223978
1630.000000	60.955660
1620.000000	60.602340
1610.000000	60.064304
1600.000000	59.574502
1590.000000	59.165073
1580.000000	58.768321
1570.000000	58.463522
1560.000000	58.434424
1550.000000	58.039741
1540.000000	57.454606
1530.000000	56.840366
1520.000000	56.586752
1510.000000	56.375241
1500.000000	56.415202
1490.000000	56.575624
1480.000000	56.902434
1470.000000	57.317103
1460.000000	57.711970
1450.000000	58.306662
1440.000000	59.105986
1430.000000	59.988996
1420.000000	61.327926
1410.000000	63.000817
1400.000000	64.788857
1390.000000	66.216336
1380.000000	67.086030
1370.000000	67.547421
1360.000000	67.998243
1350.000000	68.606740
1340.000000	69.344003
1330.000000	69.830571
1320.000000	70.130008
1310.000000	70.105183
1300.000000	70.081641
1290.000000	69.903303
1280.000000	69.942193
1270.000000	70.099319
1260.000000	70.188058
1250.000000	70.240710
1240.000000	70.127529
1230.000000	69.848071
1220.000000	69.688740
1210.000000	69.505961
1200.000000	69.258222
1190.000000	69.229532
1180.000000	69.646664
1170.000000	70.131623
1160.000000	70.755565
1150.000000	71.167984
1140.000000	71.584532
1130.000000	71.856605
1120.000000	71.904640
1110.000000	71.929871
1100.000000	72.062592
1090.000000	72.119136
1080.000000	72.029386
1070.000000	71.977331
1060.000000	71.938028
1050.000000	71.950830
1040.000000	71.879879
1030.000000	71.883110
1020.000000	71.881893
1010.000000	71.893387
1000.000000	72.087859
990.000000	72.165717
980.000000	72.273388
970.000000	72.352662
960.000000	72.515260
950.000000	72.492009
940.000000	72.631726
930.000000	72.628300
920.000000	72.644462
910.000000	72.656858
900.000000	72.811511
890.000000	72.885541
880.000000	72.861878
870.000000	73.290294
860.000000	73.075785
850.000000	72.666783
840.000000	72.860318
830.000000	73.078792
820.000000	72.337945
810.000000	72.456343
800.000000	72.359267
790.000000	72.531745
780.000000	72.565337
770.000000	72.459288
760.000000	72.690151
750.000000	72.676618
740.000000	72.501191
730.000000	72.657893
720.000000	72.465592
710.000000	72.566739
700.000000	72.287443
690.000000	72.346783
680.000000	72.337171
670.000000	72.158998
660.000000	71.818484
650.000000	71.911810
640.000000	71.625782
630.000000	71.571070
620.000000	71.442845
610.000000	71.263994
600.000000	70.976951
590.000000	70.777073
580.000000	70.510611
570.000000	70.201019
560.000000	69.979721
550.000000	69.740609
540.000000	69.337510
530.000000	68.962666
520.000000	68.593002
510.000000	68.238923
500.000000	67.717068
490.000000	67.363772
480.000000	66.762837
470.000000	66.165002
460.000000	65.496717
450.000000	64.857877
440.000000	63.480342
430.000000	62.448560
420.000000	61.284153
410.000000	59.742248
400.000000	58.057640
390.000000	56.612482
380.000000	54.697640
370.000000	52.847952
360.000000	50.600933
350.000000	48.282088
340.000000	45.874677
330.000000	43.076962
320.000000	39.879165
310.000000	36.705505
300.000000	34.815171
290.000000	30.080019
280.000000	26.916710
270.000000	24.053918
260.000000	22.393030
250.000000	21.871948
