PE UV       SUBTECH     SPECTRUM    ASCII       PEDS        4.00        
   -1
005-2G-AG11-NR002-C001.Sample.asc
24/01/08
14:31:43.00
24/01/08
14:31:43.00
Administrator

250.000000
1
Lambda 750
750N8071901
PerkinElmer UV WinLab 6.0.4.0738 / 1.61.00 Lambda 900

0
0
3350/servo 860.8/2
0
0
UV/VIS
1
1
1
CommonBeamDepol,150mm sphere / downward view
0
0
0
0
Program
Program
3350/servo 860.8/2
3350/0.2 860.8/0.2
3350/0.2 860.8/0.2
0
1
 
 
 
0
 
860.8
319.2
860.8
Front
100
on
 
 
0
0
0
 
0
 
 
 
0
 
 
0
0
0
0
0
 
 
 
 
0
0


0
0
#HDR
-1
-1
#GR
nm
%R
1.0
0.0
2500.000000
-10.000000
226
8
78.301177
0.000000
#DATA
2500.000000	0.000000
2490.000000	35.115960
2480.000000	35.663700
2470.000000	34.749809
2460.000000	37.415759
2450.000000	37.634221
2440.000000	38.924943
2430.000000	39.347695
2420.000000	37.856159
2410.000000	40.172588
2400.000000	41.185519
2390.000000	40.107665
2380.000000	40.430190
2370.000000	39.189097
2360.000000	38.929961
2350.000000	39.166965
2340.000000	40.955422
2330.000000	39.935078
2320.000000	40.405826
2310.000000	38.531446
2300.000000	38.615649
2290.000000	38.952097
2280.000000	39.711034
2270.000000	39.595898
2260.000000	42.113613
2250.000000	43.298497
2240.000000	44.164769
2230.000000	44.494067
2220.000000	44.015366
2210.000000	44.420545
2200.000000	43.044839
2190.000000	43.217866
2180.000000	43.695843
2170.000000	43.947956
2160.000000	44.909972
2150.000000	46.374637
2140.000000	47.055809
2130.000000	47.824764
2120.000000	48.026248
2110.000000	48.227951
2100.000000	47.999578
2090.000000	47.581697
2080.000000	47.119001
2070.000000	45.495756
2060.000000	44.330047
2050.000000	44.042196
2040.000000	44.671338
2030.000000	45.092073
2020.000000	44.949739
2010.000000	44.306703
2000.000000	43.370119
1990.000000	42.568423
1980.000000	41.560965
1970.000000	40.564776
1960.000000	40.080626
1950.000000	39.686411
1940.000000	40.209359
1930.000000	41.878777
1920.000000	44.689309
1910.000000	48.720268
1900.000000	52.766880
1890.000000	56.787074
1880.000000	59.577797
1870.000000	61.009106
1860.000000	61.563681
1850.000000	61.689574
1840.000000	61.459601
1830.000000	61.149127
1820.000000	60.846960
1810.000000	60.576274
1800.000000	60.282033
1790.000000	60.087272
1780.000000	59.648160
1770.000000	59.224754
1760.000000	58.933902
1750.000000	58.421756
1740.000000	58.183560
1730.000000	58.553104
1720.000000	59.199818
1710.000000	59.964942
1700.000000	60.530666
1690.000000	61.357596
1680.000000	63.015232
1670.000000	64.240020
1660.000000	64.855755
1650.000000	64.944937
1640.000000	64.680142
1630.000000	64.316581
1620.000000	63.956272
1610.000000	63.313646
1600.000000	62.835521
1590.000000	62.357252
1580.000000	61.945867
1570.000000	61.621144
1560.000000	61.369845
1550.000000	60.999074
1540.000000	60.342932
1530.000000	59.649109
1520.000000	59.298620
1510.000000	59.093313
1500.000000	59.073191
1490.000000	59.244366
1480.000000	59.547437
1470.000000	59.876687
1460.000000	60.352809
1450.000000	60.993012
1440.000000	61.861161
1430.000000	63.084784
1420.000000	64.606737
1410.000000	66.590496
1400.000000	68.603139
1390.000000	70.306502
1380.000000	71.370115
1370.000000	71.947283
1360.000000	72.565472
1350.000000	73.258658
1340.000000	74.023050
1330.000000	74.497884
1320.000000	74.741408
1310.000000	74.903707
1300.000000	74.793328
1290.000000	74.719666
1280.000000	74.724450
1270.000000	74.858385
1260.000000	74.995898
1250.000000	74.886815
1240.000000	74.777510
1230.000000	74.547247
1220.000000	74.199752
1210.000000	73.924174
1200.000000	73.740757
1190.000000	73.768018
1180.000000	74.178333
1170.000000	74.835405
1160.000000	75.561562
1150.000000	76.087106
1140.000000	76.511305
1130.000000	76.865026
1120.000000	77.096143
1110.000000	77.171111
1100.000000	77.226762
1090.000000	77.197852
1080.000000	77.148179
1070.000000	77.123953
1060.000000	77.076179
1050.000000	77.093476
1040.000000	77.075313
1030.000000	77.084318
1020.000000	77.087058
1010.000000	77.105760
1000.000000	77.258880
990.000000	77.338029
980.000000	77.373467
970.000000	77.535539
960.000000	77.654210
950.000000	77.772943
940.000000	77.807966
930.000000	77.843022
920.000000	77.721289
910.000000	77.633570
900.000000	77.884857
890.000000	78.077661
880.000000	78.066298
870.000000	78.301177
860.000000	78.256086
850.000000	77.952054
840.000000	77.829854
830.000000	77.530163
820.000000	77.444358
810.000000	77.434622
800.000000	77.291898
790.000000	77.329973
780.000000	77.304785
770.000000	77.192567
760.000000	77.501235
750.000000	77.230054
740.000000	77.050209
730.000000	76.917880
720.000000	76.842180
710.000000	76.570035
700.000000	76.327565
690.000000	76.183368
680.000000	75.963798
670.000000	75.485365
660.000000	75.074815
650.000000	74.826315
640.000000	74.469301
630.000000	74.152745
620.000000	73.748732
610.000000	73.309979
600.000000	72.788467
590.000000	72.278676
580.000000	71.700082
570.000000	71.057886
560.000000	70.603702
550.000000	70.015808
540.000000	69.400870
530.000000	68.655321
520.000000	68.092825
510.000000	67.463891
500.000000	66.712013
490.000000	66.053279
480.000000	65.094618
470.000000	64.316681
460.000000	63.466565
450.000000	62.584263
440.000000	61.177524
430.000000	59.812398
420.000000	58.331540
410.000000	56.522415
400.000000	54.660007
390.000000	52.796519
380.000000	50.503259
370.000000	48.143152
360.000000	45.501429
350.000000	42.131897
340.000000	40.007197
330.000000	36.140433
320.000000	33.290371
310.000000	30.461496
300.000000	27.580044
290.000000	22.140423
280.000000	15.003679
270.000000	10.339321
260.000000	8.538204
250.000000	7.730273
