PE UV       SUBTECH     SPECTRUM    ASCII       PEDS        4.00        
   -1
005-2G-BD11-NR001-F001.Sample.asc
24/01/08
15:57:12.00
24/01/08
15:57:12.00
Administrator

250.000000
1
Lambda 750
750N8071901
PerkinElmer UV WinLab 6.0.4.0738 / 1.61.00 Lambda 900

0
0
3350/servo 860.8/2
0
0
UV/VIS
1
1
1
CommonBeamDepol,150mm sphere / downward view
0
0
0
0
Program
Program
3350/servo 860.8/2
3350/0.2 860.8/0.2
3350/0.2 860.8/0.2
0
1
 
 
 
0
 
860.8
319.2
860.8
Front
100
on
 
 
0
0
0
 
0
 
 
 
0
 
 
0
0
0
0
0
 
 
 
 
0
0


0
0
#HDR
-1
-1
#GR
nm
%R
1.0
0.0
2500.000000
-10.000000
226
8
66.543629
0.000000
#DATA
2500.000000	0.000000
2490.000000	22.750215
2480.000000	24.546878
2470.000000	23.098283
2460.000000	25.555270
2450.000000	28.675773
2440.000000	26.986472
2430.000000	28.952900
2420.000000	26.553638
2410.000000	28.711668
2400.000000	27.601994
2390.000000	29.130386
2380.000000	28.594996
2370.000000	26.733249
2360.000000	28.074200
2350.000000	27.593784
2340.000000	29.019486
2330.000000	28.188475
2320.000000	27.725411
2310.000000	27.695083
2300.000000	27.413666
2290.000000	27.507525
2280.000000	27.207624
2270.000000	27.418142
2260.000000	29.247432
2250.000000	30.751825
2240.000000	31.917403
2230.000000	32.829954
2220.000000	31.484207
2210.000000	31.798912
2200.000000	31.473904
2190.000000	30.951209
2180.000000	30.362673
2170.000000	31.186911
2160.000000	31.980079
2150.000000	32.705187
2140.000000	33.576435
2130.000000	34.311610
2120.000000	35.317819
2110.000000	35.655828
2100.000000	35.582552
2090.000000	34.944725
2080.000000	34.450659
2070.000000	33.125226
2060.000000	31.652499
2050.000000	31.425128
2040.000000	31.647522
2030.000000	32.471421
2020.000000	32.651748
2010.000000	31.980664
2000.000000	31.121654
1990.000000	30.317495
1980.000000	29.290953
1970.000000	28.570223
1960.000000	28.165221
1950.000000	28.021735
1940.000000	28.407746
1930.000000	29.970258
1920.000000	32.428520
1910.000000	36.433760
1900.000000	40.543973
1890.000000	44.522508
1880.000000	47.338504
1870.000000	48.947000
1860.000000	49.618723
1850.000000	49.834025
1840.000000	49.452280
1830.000000	49.156172
1820.000000	48.960840
1810.000000	48.507168
1800.000000	48.380068
1790.000000	48.178989
1780.000000	47.594887
1770.000000	47.235000
1760.000000	46.824196
1750.000000	46.371467
1740.000000	46.127436
1730.000000	46.499053
1720.000000	47.279772
1710.000000	47.828048
1700.000000	48.219861
1690.000000	49.235452
1680.000000	50.781834
1670.000000	52.164634
1660.000000	52.680292
1650.000000	52.728342
1640.000000	52.506372
1630.000000	52.176584
1620.000000	51.640212
1610.000000	51.055290
1600.000000	50.479902
1590.000000	50.007667
1580.000000	49.551581
1570.000000	49.191958
1560.000000	48.979224
1550.000000	48.574289
1540.000000	47.820581
1530.000000	47.187361
1520.000000	46.803352
1510.000000	46.522730
1500.000000	46.525004
1490.000000	46.744601
1480.000000	47.131585
1470.000000	47.544070
1460.000000	48.075293
1450.000000	48.715078
1440.000000	49.691046
1430.000000	50.858146
1420.000000	52.504640
1410.000000	54.540037
1400.000000	56.527382
1390.000000	58.143013
1380.000000	59.219562
1370.000000	59.869541
1360.000000	60.402615
1350.000000	61.003319
1340.000000	61.800370
1330.000000	62.446564
1320.000000	62.800227
1310.000000	62.793377
1300.000000	62.695250
1290.000000	62.498030
1280.000000	62.548477
1270.000000	62.673310
1260.000000	62.761502
1250.000000	62.752217
1240.000000	62.622531
1230.000000	62.303977
1220.000000	62.038339
1210.000000	61.730460
1200.000000	61.543705
1190.000000	61.550049
1180.000000	61.927810
1170.000000	62.602224
1160.000000	63.355604
1150.000000	63.871263
1140.000000	64.311588
1130.000000	64.662313
1120.000000	64.896020
1110.000000	64.953586
1100.000000	65.073903
1090.000000	65.118488
1080.000000	65.029473
1070.000000	64.953213
1060.000000	64.943102
1050.000000	64.986900
1040.000000	65.009851
1030.000000	64.989657
1020.000000	65.002902
1010.000000	65.024651
1000.000000	65.242651
990.000000	65.334187
980.000000	65.427471
970.000000	65.544188
960.000000	65.703851
950.000000	65.802691
940.000000	65.825809
930.000000	65.918761
920.000000	65.946929
910.000000	66.083769
900.000000	66.079181
890.000000	66.036233
880.000000	66.334480
870.000000	66.543629
860.000000	66.500316
850.000000	65.948922
840.000000	66.136636
830.000000	66.445995
820.000000	66.143045
810.000000	66.157341
800.000000	66.075807
790.000000	66.001279
780.000000	66.128279
770.000000	66.113952
760.000000	66.226910
750.000000	66.225939
740.000000	66.159035
730.000000	66.003355
720.000000	65.999381
710.000000	66.015220
700.000000	65.697634
690.000000	65.777944
680.000000	65.611529
670.000000	65.439397
660.000000	65.125860
650.000000	64.991608
640.000000	64.781319
630.000000	64.530438
620.000000	64.390186
610.000000	64.072562
600.000000	63.881487
590.000000	63.540372
580.000000	63.250211
570.000000	62.840389
560.000000	62.521638
550.000000	62.129015
540.000000	61.782580
530.000000	61.325529
520.000000	60.919679
510.000000	60.488092
500.000000	59.987651
490.000000	59.486749
480.000000	58.805667
470.000000	58.074568
460.000000	57.464836
450.000000	56.578803
440.000000	55.222888
430.000000	54.056325
420.000000	52.753294
410.000000	51.062625
400.000000	49.417152
390.000000	47.628330
380.000000	45.760451
370.000000	43.720852
360.000000	41.599373
350.000000	39.304094
340.000000	37.796860
330.000000	34.801650
320.000000	31.980350
310.000000	30.214231
300.000000	27.211182
290.000000	20.793647
280.000000	18.299540
270.000000	16.388280
260.000000	15.746772
250.000000	15.403008
