PE UV       SUBTECH     SPECTRUM    ASCII       PEDS        4.00        
   -1
005-2G-AG10-NR001-F001.Sample.asc
24/01/08
14:51:19.00
24/01/08
14:51:19.00
Administrator

250.000000
1
Lambda 750
750N8071901
PerkinElmer UV WinLab 6.0.4.0738 / 1.61.00 Lambda 900

0
0
3350/servo 860.8/2
0
0
UV/VIS
1
1
1
CommonBeamDepol,150mm sphere / downward view
0
0
0
0
Program
Program
3350/servo 860.8/2
3350/0.2 860.8/0.2
3350/0.2 860.8/0.2
0
1
 
 
 
0
 
860.8
319.2
860.8
Front
100
on
 
 
0
0
0
 
0
 
 
 
0
 
 
0
0
0
0
0
 
 
 
 
0
0


0
0
#HDR
-1
-1
#GR
nm
%R
1.0
0.0
2500.000000
-10.000000
226
8
75.855723
0.000000
#DATA
2500.000000	0.000000
2490.000000	27.551657
2480.000000	28.415603
2470.000000	28.786301
2460.000000	30.583234
2450.000000	32.230794
2440.000000	33.139341
2430.000000	31.860075
2420.000000	30.760650
2410.000000	34.888923
2400.000000	33.747899
2390.000000	34.988834
2380.000000	33.899944
2370.000000	31.613294
2360.000000	33.762430
2350.000000	33.652794
2340.000000	33.648287
2330.000000	32.495735
2320.000000	34.028407
2310.000000	31.662066
2300.000000	31.988521
2290.000000	31.653781
2280.000000	31.546755
2270.000000	31.858775
2260.000000	34.808082
2250.000000	36.795738
2240.000000	37.123977
2230.000000	38.075368
2220.000000	36.589008
2210.000000	36.852997
2200.000000	35.838356
2190.000000	35.891753
2180.000000	35.864621
2170.000000	36.258018
2160.000000	37.232925
2150.000000	38.724083
2140.000000	40.352723
2130.000000	40.511740
2120.000000	41.379516
2110.000000	41.553435
2100.000000	41.011553
2090.000000	40.996491
2080.000000	39.919207
2070.000000	38.250550
2060.000000	36.671554
2050.000000	36.537994
2040.000000	36.735752
2030.000000	37.422213
2020.000000	37.582946
2010.000000	36.763510
2000.000000	35.609248
1990.000000	34.555282
1980.000000	33.512307
1970.000000	32.320240
1960.000000	31.740252
1950.000000	31.318025
1940.000000	32.154563
1930.000000	34.010566
1920.000000	36.909147
1910.000000	41.597376
1900.000000	46.638403
1890.000000	51.469750
1880.000000	54.860187
1870.000000	56.572090
1860.000000	57.481491
1850.000000	57.609637
1840.000000	57.246595
1830.000000	56.859456
1820.000000	56.669569
1810.000000	56.137767
1800.000000	55.770584
1790.000000	55.420315
1780.000000	54.915243
1770.000000	54.424190
1760.000000	54.023713
1750.000000	53.448080
1740.000000	53.112580
1730.000000	53.633160
1720.000000	54.514531
1710.000000	55.203474
1700.000000	55.657498
1690.000000	56.575493
1680.000000	58.425921
1670.000000	59.999946
1660.000000	60.567449
1650.000000	60.676881
1640.000000	60.310562
1630.000000	59.938897
1620.000000	59.350808
1610.000000	58.559397
1600.000000	57.874879
1590.000000	57.185631
1580.000000	56.662783
1570.000000	56.106810
1560.000000	55.851329
1550.000000	55.437778
1540.000000	54.544501
1530.000000	53.647147
1520.000000	53.192889
1510.000000	52.865885
1500.000000	52.759528
1490.000000	52.913149
1480.000000	53.396236
1470.000000	53.773805
1460.000000	54.311011
1450.000000	55.065632
1440.000000	56.223752
1430.000000	57.635706
1420.000000	59.578020
1410.000000	62.034098
1400.000000	64.491362
1390.000000	66.567594
1380.000000	67.834567
1370.000000	68.525732
1360.000000	69.226324
1350.000000	70.143715
1340.000000	71.077377
1330.000000	71.694153
1320.000000	72.044325
1310.000000	72.086639
1300.000000	72.079154
1290.000000	71.872027
1280.000000	71.957159
1270.000000	72.096223
1260.000000	72.170051
1250.000000	72.163921
1240.000000	71.923031
1230.000000	71.633833
1220.000000	71.266335
1210.000000	70.827176
1200.000000	70.479103
1190.000000	70.473441
1180.000000	70.951195
1170.000000	71.723905
1160.000000	72.631283
1150.000000	73.310417
1140.000000	73.894717
1130.000000	74.334683
1120.000000	74.431212
1110.000000	74.522553
1100.000000	74.561350
1090.000000	74.623733
1080.000000	74.529000
1070.000000	74.446061
1060.000000	74.413640
1050.000000	74.408031
1040.000000	74.297528
1030.000000	74.288872
1020.000000	74.265186
1010.000000	74.265435
1000.000000	74.447984
990.000000	74.515976
980.000000	74.672990
970.000000	74.727481
960.000000	74.916655
950.000000	75.023075
940.000000	75.101761
930.000000	75.048374
920.000000	75.089217
910.000000	75.155622
900.000000	75.355627
890.000000	75.094965
880.000000	75.105221
870.000000	75.826693
860.000000	75.622396
850.000000	75.223717
840.000000	75.855723
830.000000	75.761070
820.000000	75.442036
810.000000	75.332578
800.000000	75.288155
790.000000	75.390807
780.000000	75.104548
770.000000	75.132843
760.000000	75.183051
750.000000	75.179109
740.000000	75.094220
730.000000	74.886953
720.000000	74.769807
710.000000	74.589242
700.000000	74.255101
690.000000	74.260738
680.000000	73.905193
670.000000	73.588907
660.000000	73.167314
650.000000	72.838979
640.000000	72.497409
630.000000	72.178867
620.000000	71.910124
610.000000	71.435721
600.000000	70.899622
590.000000	70.406038
580.000000	69.846256
570.000000	69.130378
560.000000	68.666090
550.000000	68.099464
540.000000	67.491772
530.000000	66.777827
520.000000	66.081027
510.000000	65.341065
500.000000	64.565352
490.000000	63.679610
480.000000	62.628511
470.000000	61.661015
460.000000	60.617265
450.000000	59.382751
440.000000	57.636990
430.000000	56.085654
420.000000	54.161490
410.000000	51.927063
400.000000	49.508882
390.000000	47.192692
380.000000	44.691174
370.000000	41.988658
360.000000	38.921040
350.000000	35.698712
340.000000	32.735292
330.000000	29.342509
320.000000	26.826415
310.000000	24.755214
300.000000	22.887548
290.000000	20.995765
280.000000	17.625472
270.000000	14.605883
260.000000	13.643523
250.000000	13.247269
