PE UV       SUBTECH     SPECTRUM    ASCII       PEDS        4.00        
   -1
005-2G-AG11-NR002-F002.Sample.asc
24/01/08
14:27:50.00
24/01/08
14:27:50.00
Administrator

250.000000
1
Lambda 750
750N8071901
PerkinElmer UV WinLab 6.0.4.0738 / 1.61.00 Lambda 900

0
0
3350/servo 860.8/2
0
0
UV/VIS
1
1
1
CommonBeamDepol,150mm sphere / downward view
0
0
0
0
Program
Program
3350/servo 860.8/2
3350/0.2 860.8/0.2
3350/0.2 860.8/0.2
0
1
 
 
 
0
 
860.8
319.2
860.8
Front
100
on
 
 
0
0
0
 
0
 
 
 
0
 
 
0
0
0
0
0
 
 
 
 
0
0


0
0
#HDR
-1
-1
#GR
nm
%R
1.0
0.0
2500.000000
-10.000000
226
8
76.256564
0.000000
#DATA
2500.000000	0.000000
2490.000000	28.354498
2480.000000	26.969799
2470.000000	27.318107
2460.000000	29.739749
2450.000000	32.747576
2440.000000	32.635122
2430.000000	33.367448
2420.000000	33.029388
2410.000000	34.270093
2400.000000	33.412896
2390.000000	35.488530
2380.000000	35.253584
2370.000000	33.175714
2360.000000	33.838900
2350.000000	35.019531
2340.000000	34.873896
2330.000000	34.107624
2320.000000	33.578310
2310.000000	32.963348
2300.000000	32.574222
2290.000000	33.507629
2280.000000	32.924747
2270.000000	33.687545
2260.000000	35.322131
2250.000000	37.699736
2240.000000	38.340161
2230.000000	38.793628
2220.000000	38.325193
2210.000000	38.653566
2200.000000	36.862777
2190.000000	37.433549
2180.000000	37.151744
2170.000000	37.648803
2160.000000	39.018717
2150.000000	39.784946
2140.000000	41.154686
2130.000000	42.098326
2120.000000	42.723853
2110.000000	43.021530
2100.000000	42.563006
2090.000000	42.409093
2080.000000	41.373757
2070.000000	40.116760
2060.000000	38.180882
2050.000000	37.777436
2040.000000	38.013010
2030.000000	38.832861
2020.000000	38.691681
2010.000000	38.072012
2000.000000	36.786651
1990.000000	35.795120
1980.000000	34.468861
1970.000000	33.491729
1960.000000	32.568047
1950.000000	32.175922
1940.000000	33.021394
1930.000000	35.078294
1920.000000	38.380878
1910.000000	42.890650
1900.000000	48.008873
1890.000000	52.685673
1880.000000	55.956026
1870.000000	57.974107
1860.000000	58.749618
1850.000000	58.896718
1840.000000	58.647252
1830.000000	58.227220
1820.000000	57.994022
1810.000000	57.534950
1800.000000	57.166676
1790.000000	56.883775
1780.000000	56.500901
1770.000000	56.040551
1760.000000	55.570140
1750.000000	55.085140
1740.000000	54.716690
1730.000000	55.099915
1720.000000	56.101871
1710.000000	56.758669
1700.000000	57.189968
1690.000000	58.201187
1680.000000	59.956950
1670.000000	61.295816
1660.000000	61.995628
1650.000000	62.100106
1640.000000	61.765292
1630.000000	61.359509
1620.000000	60.775206
1610.000000	60.063498
1600.000000	59.393783
1590.000000	58.786563
1580.000000	58.288285
1570.000000	57.854496
1560.000000	57.562895
1550.000000	57.112141
1540.000000	56.270990
1530.000000	55.399455
1520.000000	54.924189
1510.000000	54.620831
1500.000000	54.541357
1490.000000	54.648557
1480.000000	54.978356
1470.000000	55.375423
1460.000000	55.938000
1450.000000	56.668872
1440.000000	57.785375
1430.000000	59.085446
1420.000000	60.962076
1410.000000	63.296099
1400.000000	65.674930
1390.000000	67.659892
1380.000000	68.991227
1370.000000	69.638236
1360.000000	70.247773
1350.000000	71.080434
1340.000000	71.933962
1330.000000	72.520731
1320.000000	72.807389
1310.000000	72.881156
1300.000000	72.886648
1290.000000	72.714252
1280.000000	72.749865
1270.000000	72.854738
1260.000000	73.012829
1250.000000	72.892175
1240.000000	72.743395
1230.000000	72.503613
1220.000000	72.216374
1210.000000	71.826371
1200.000000	71.518202
1190.000000	71.526248
1180.000000	71.917861
1170.000000	72.623798
1160.000000	73.486390
1150.000000	74.072318
1140.000000	74.556207
1130.000000	74.951563
1120.000000	75.110622
1110.000000	75.198069
1100.000000	75.289213
1090.000000	75.323929
1080.000000	75.224152
1070.000000	75.105363
1060.000000	75.027271
1050.000000	75.063683
1040.000000	75.011845
1030.000000	75.018400
1020.000000	74.985746
1010.000000	74.997101
1000.000000	75.169940
990.000000	75.180893
980.000000	75.333894
970.000000	75.428988
960.000000	75.543732
950.000000	75.713183
940.000000	75.786506
930.000000	75.702636
920.000000	75.737054
910.000000	75.678197
900.000000	75.773180
890.000000	75.770187
880.000000	75.998183
870.000000	76.050542
860.000000	76.256564
850.000000	75.908858
840.000000	75.850979
830.000000	75.912069
820.000000	75.791581
810.000000	75.625880
800.000000	75.600717
790.000000	75.510502
780.000000	75.412234
770.000000	75.214056
760.000000	75.396370
750.000000	75.358217
740.000000	75.040776
730.000000	74.861902
720.000000	74.703349
710.000000	74.607301
700.000000	74.381784
690.000000	74.199755
680.000000	73.918473
670.000000	73.604162
660.000000	73.192697
650.000000	73.010121
640.000000	72.587849
630.000000	72.097522
620.000000	71.715382
610.000000	71.316579
600.000000	70.668397
590.000000	70.190655
580.000000	69.546045
570.000000	68.909544
560.000000	68.287675
550.000000	67.668946
540.000000	66.869737
530.000000	66.102824
520.000000	65.301770
510.000000	64.477857
500.000000	63.569008
490.000000	62.658633
480.000000	61.458562
470.000000	60.418390
460.000000	59.186582
450.000000	57.974526
440.000000	56.097820
430.000000	54.325346
420.000000	52.248516
410.000000	49.923083
400.000000	47.474889
390.000000	44.993167
380.000000	42.346514
370.000000	39.593530
360.000000	36.597525
350.000000	32.838669
340.000000	30.017354
330.000000	27.035791
320.000000	24.702805
310.000000	22.682325
300.000000	21.253400
290.000000	21.290757
280.000000	17.481390
270.000000	14.314057
260.000000	13.059036
250.000000	12.652434
