PE UV       SUBTECH     SPECTRUM    ASCII       PEDS        4.00        
   -1
RDAgneauUK 62.Sample.asc
18/03/02
17:37:20.00
18/03/02
17:37:20.00
Administrator

200.000000
1
Lambda 750
750N8071901
PerkinElmer UV WinLab 6.0.4.0738 / 1.61.00 Lambda 900

0
0
3350/servo 860.8/2
0
0
UV/VIS
1
1
1
CommonBeamDepol,150mm sphere / downward view
0
0
0
0
Program
Program
3350/servo 860.8/2
3350/0.2 860.8/0.2
3350/0.2 860.8/0.2
0
1
 
 
 
0
 
860.8
319.2
860.8
Front
100
on
 
 
0
0
0
 
0
 
 
 
0
 
 
0
0
0
0
0
 
 
 
 
0
0


0
0
#HDR
-1
-1
#GR
nm
%R
1.0
0.0
2350.000000
-1.000000
2151
8
70.589434
16.627636
#DATA
2350.000000	43.519334
2349.000000	43.262063
2348.000000	43.147975
2347.000000	44.009803
2346.000000	43.283781
2345.000000	43.368944
2344.000000	43.514602
2343.000000	43.185674
2342.000000	43.117781
2341.000000	43.677722
2340.000000	43.705216
2339.000000	43.898655
2338.000000	43.693822
2337.000000	43.694252
2336.000000	43.872841
2335.000000	44.327998
2334.000000	44.338663
2333.000000	43.991112
2332.000000	44.317524
2331.000000	44.272300
2330.000000	44.222284
2329.000000	44.096586
2328.000000	43.975940
2327.000000	44.062780
2326.000000	44.008727
2325.000000	43.692104
2324.000000	44.075276
2323.000000	43.920083
2322.000000	43.569758
2321.000000	43.496559
2320.000000	43.610563
2319.000000	43.435138
2318.000000	43.575236
2317.000000	43.381729
2316.000000	43.232455
2315.000000	43.212824
2314.000000	43.103107
2313.000000	42.865267
2312.000000	43.015742
2311.000000	42.947254
2310.000000	43.003094
2309.000000	42.892529
2308.000000	42.799876
2307.000000	42.943029
2306.000000	42.739732
2305.000000	42.738737
2304.000000	42.493965
2303.000000	42.372389
2302.000000	42.304821
2301.000000	42.151596
2300.000000	42.216900
2299.000000	42.049617
2298.000000	41.998302
2297.000000	41.899135
2296.000000	41.685931
2295.000000	41.493306
2294.000000	41.586756
2293.000000	41.529828
2292.000000	41.306796
2291.000000	41.456199
2290.000000	41.322039
2289.000000	41.181327
2288.000000	41.266818
2287.000000	41.238826
2286.000000	41.141393
2285.000000	40.911421
2284.000000	40.923386
2283.000000	40.863920
2282.000000	40.836478
2281.000000	41.036092
2280.000000	40.916732
2279.000000	40.834522
2278.000000	40.942706
2277.000000	40.911290
2276.000000	41.088227
2275.000000	41.091991
2274.000000	41.017262
2273.000000	41.238073
2272.000000	41.314760
2271.000000	41.172412
2270.000000	41.181896
2269.000000	41.290535
2268.000000	41.539832
2267.000000	41.475759
2266.000000	41.623819
2265.000000	41.783212
2264.000000	41.730784
2263.000000	41.851574
2262.000000	41.962832
2261.000000	41.982213
2260.000000	42.081929
2259.000000	42.252074
2258.000000	42.502407
2257.000000	42.744125
2256.000000	43.073159
2255.000000	43.296459
2254.000000	43.329759
2253.000000	43.426425
2252.000000	43.641354
2251.000000	43.864469
2250.000000	44.060000
2249.000000	44.308747
2248.000000	44.382094
2247.000000	44.601214
2246.000000	44.887514
2245.000000	45.138989
2244.000000	45.402448
2243.000000	45.473467
2242.000000	45.571352
2241.000000	45.727371
2240.000000	45.895257
2239.000000	46.122574
2238.000000	46.194363
2237.000000	46.190254
2236.000000	46.368772
2235.000000	46.431900
2234.000000	46.480088
2233.000000	46.602393
2232.000000	46.677466
2231.000000	46.890752
2230.000000	46.873681
2229.000000	46.820583
2228.000000	46.990403
2227.000000	47.071186
2226.000000	47.034332
2225.000000	46.952387
2224.000000	46.897671
2223.000000	46.825740
2222.000000	46.967993
2221.000000	46.985292
2220.000000	46.975124
2219.000000	46.918737
2218.000000	46.755944
2217.000000	46.688718
2216.000000	46.796972
2215.000000	46.741745
2214.000000	46.699751
2213.000000	46.798194
2212.000000	46.690630
2211.000000	46.551330
2210.000000	46.478772
2209.000000	46.400258
2208.000000	46.325091
2207.000000	46.184229
2206.000000	46.233521
2205.000000	46.137283
2204.000000	46.065867
2203.000000	46.005940
2202.000000	46.020226
2201.000000	45.910104
2200.000000	45.846170
2199.000000	45.751298
2198.000000	45.754186
2197.000000	45.801531
2196.000000	45.570177
2195.000000	45.459099
2194.000000	45.434736
2193.000000	45.222554
2192.000000	45.217978
2191.000000	45.290576
2190.000000	45.198662
2189.000000	45.200841
2188.000000	45.005534
2187.000000	44.936189
2186.000000	45.031738
2185.000000	44.958280
2184.000000	44.880016
2183.000000	44.940282
2182.000000	44.822158
2181.000000	44.680341
2180.000000	44.827524
2179.000000	44.696143
2178.000000	44.604332
2177.000000	44.613936
2176.000000	44.610295
2175.000000	44.665457
2174.000000	44.900074
2173.000000	44.873781
2172.000000	44.849360
2171.000000	45.016479
2170.000000	44.937771
2169.000000	45.150649
2168.000000	45.133337
2167.000000	45.177905
2166.000000	45.279202
2165.000000	45.372422
2164.000000	45.435736
2163.000000	45.586882
2162.000000	45.766311
2161.000000	45.817665
2160.000000	45.967346
2159.000000	46.106748
2158.000000	46.224558
2157.000000	46.478696
2156.000000	46.624593
2155.000000	46.702820
2154.000000	46.807867
2153.000000	47.166250
2152.000000	46.999802
2151.000000	47.176352
2150.000000	47.332034
2149.000000	47.651911
2148.000000	47.833529
2147.000000	47.913710
2146.000000	48.047586
2145.000000	48.139369
2144.000000	48.324407
2143.000000	48.480550
2142.000000	48.487052
2141.000000	48.771167
2140.000000	48.781649
2139.000000	48.970495
2138.000000	49.394852
2137.000000	49.371053
2136.000000	49.334038
2135.000000	49.708323
2134.000000	49.700676
2133.000000	49.600227
2132.000000	49.869811
2131.000000	49.902691
2130.000000	50.058495
2129.000000	50.134939
2128.000000	50.098392
2127.000000	50.254587
2126.000000	50.226063
2125.000000	50.031807
2124.000000	50.389000
2123.000000	50.358067
2122.000000	50.521122
2121.000000	50.449964
2120.000000	50.526885
2119.000000	50.621465
2118.000000	50.431808
2117.000000	50.600988
2116.000000	50.593662
2115.000000	50.828365
2114.000000	50.728808
2113.000000	50.617280
2112.000000	50.766366
2111.000000	50.743917
2110.000000	50.654891
2109.000000	50.867448
2108.000000	50.798615
2107.000000	50.842474
2106.000000	50.924273
2105.000000	50.753889
2104.000000	50.922537
2103.000000	51.079272
2102.000000	51.023555
2101.000000	50.953294
2100.000000	50.907795
2099.000000	50.966821
2098.000000	50.923589
2097.000000	51.021417
2096.000000	51.081785
2095.000000	51.020982
2094.000000	51.042762
2093.000000	50.938159
2092.000000	50.852471
2091.000000	50.908886
2090.000000	50.868752
2089.000000	50.840628
2088.000000	50.769127
2087.000000	50.818479
2086.000000	50.914424
2085.000000	50.882511
2084.000000	50.624591
2083.000000	50.617186
2082.000000	50.635705
2081.000000	50.522127
2080.000000	50.428425
2079.000000	50.426879
2078.000000	50.259525
2077.000000	50.207181
2076.000000	50.130867
2075.000000	50.048214
2074.000000	49.928582
2073.000000	49.873046
2072.000000	49.829096
2071.000000	49.724457
2070.000000	49.625925
2069.000000	49.541011
2068.000000	49.326588
2067.000000	49.184126
2066.000000	49.000146
2065.000000	48.895503
2064.000000	48.805511
2063.000000	48.637740
2062.000000	48.496340
2061.000000	48.299006
2060.000000	48.120983
2059.000000	48.026794
2058.000000	47.879207
2057.000000	47.760274
2056.000000	47.717697
2055.000000	47.467923
2054.000000	47.289921
2053.000000	47.155926
2052.000000	47.055561
2051.000000	46.889631
2050.000000	46.740545
2049.000000	46.682552
2048.000000	46.608192
2047.000000	46.556632
2046.000000	46.441299
2045.000000	46.375837
2044.000000	46.403421
2043.000000	46.405713
2042.000000	46.360057
2041.000000	46.325191
2040.000000	46.324746
2039.000000	46.359758
2038.000000	46.413204
2037.000000	46.420027
2036.000000	46.474772
2035.000000	46.591072
2034.000000	46.678928
2033.000000	46.782691
2032.000000	46.889754
2031.000000	46.991361
2030.000000	47.088398
2029.000000	47.228983
2028.000000	47.350556
2027.000000	47.518594
2026.000000	47.666261
2025.000000	47.744365
2024.000000	47.801405
2023.000000	47.895023
2022.000000	47.987313
2021.000000	48.031436
2020.000000	48.120693
2019.000000	48.236063
2018.000000	48.283048
2017.000000	48.346191
2016.000000	48.377956
2015.000000	48.362381
2014.000000	48.362296
2013.000000	48.341361
2012.000000	48.351473
2011.000000	48.386039
2010.000000	48.362375
2009.000000	48.274927
2008.000000	48.242041
2007.000000	48.197223
2006.000000	48.106386
2005.000000	48.091687
2004.000000	48.006262
2003.000000	47.929134
2002.000000	47.891220
2001.000000	47.817505
2000.000000	47.749178
1999.000000	47.678027
1998.000000	47.539825
1997.000000	47.444915
1996.000000	47.365868
1995.000000	47.292204
1994.000000	47.225862
1993.000000	47.143197
1992.000000	47.025024
1991.000000	46.890787
1990.000000	46.853040
1989.000000	46.706453
1988.000000	46.602500
1987.000000	46.556060
1986.000000	46.419478
1985.000000	46.326934
1984.000000	46.252544
1983.000000	46.177096
1982.000000	46.084581
1981.000000	45.989508
1980.000000	45.890714
1979.000000	45.759339
1978.000000	45.675590
1977.000000	45.578015
1976.000000	45.450843
1975.000000	45.400328
1974.000000	45.274590
1973.000000	45.174259
1972.000000	45.050591
1971.000000	44.933601
1970.000000	44.890403
1969.000000	44.791092
1968.000000	44.726461
1967.000000	44.610983
1966.000000	44.500440
1965.000000	44.417541
1964.000000	44.333959
1963.000000	44.233548
1962.000000	44.113250
1961.000000	44.018098
1960.000000	43.956378
1959.000000	43.827291
1958.000000	43.742677
1957.000000	43.690655
1956.000000	43.600883
1955.000000	43.498458
1954.000000	43.465138
1953.000000	43.393809
1952.000000	43.348494
1951.000000	43.291000
1950.000000	43.200362
1949.000000	43.108520
1948.000000	43.072433
1947.000000	43.026875
1946.000000	43.017568
1945.000000	43.020263
1944.000000	42.980929
1943.000000	43.026708
1942.000000	43.057132
1941.000000	43.116163
1940.000000	43.162469
1939.000000	43.155930
1938.000000	43.206645
1937.000000	43.310231
1936.000000	43.382527
1935.000000	43.425012
1934.000000	43.550048
1933.000000	43.663750
1932.000000	43.771999
1931.000000	43.937669
1930.000000	44.137722
1929.000000	44.312364
1928.000000	44.432377
1927.000000	44.703600
1926.000000	44.792164
1925.000000	45.092770
1924.000000	45.295701
1923.000000	45.561158
1922.000000	45.831855
1921.000000	46.125388
1920.000000	46.332247
1919.000000	46.632744
1918.000000	46.870091
1917.000000	47.155429
1916.000000	47.499790
1915.000000	47.777626
1914.000000	48.165508
1913.000000	48.573622
1912.000000	48.866149
1911.000000	49.178350
1910.000000	49.524790
1909.000000	49.890708
1908.000000	50.242367
1907.000000	50.676383
1906.000000	51.061903
1905.000000	51.398584
1904.000000	51.862605
1903.000000	52.254292
1902.000000	52.674822
1901.000000	53.098880
1900.000000	53.477668
1899.000000	53.848155
1898.000000	54.363541
1897.000000	54.652377
1896.000000	55.035980
1895.000000	55.448698
1894.000000	55.845377
1893.000000	56.213683
1892.000000	56.595289
1891.000000	56.994811
1890.000000	57.334871
1889.000000	57.620500
1888.000000	58.024369
1887.000000	58.316331
1886.000000	58.555889
1885.000000	58.871657
1884.000000	59.149217
1883.000000	59.467641
1882.000000	59.664183
1881.000000	59.870249
1880.000000	60.107681
1879.000000	60.321682
1878.000000	60.552872
1877.000000	60.766699
1876.000000	60.929885
1875.000000	61.117723
1874.000000	61.316513
1873.000000	61.457424
1872.000000	61.573543
1871.000000	61.710225
1870.000000	61.830610
1869.000000	61.978173
1868.000000	62.074380
1867.000000	62.104154
1866.000000	62.155438
1865.000000	62.232434
1864.000000	62.309480
1863.000000	62.371049
1862.000000	62.408858
1861.000000	62.492090
1860.000000	62.557049
1859.000000	62.560355
1858.000000	62.555623
1857.000000	62.550284
1856.000000	62.611729
1855.000000	62.651950
1854.000000	62.675085
1853.000000	62.645021
1852.000000	62.654803
1851.000000	62.699015
1850.000000	62.697663
1849.000000	62.696560
1848.000000	62.688060
1847.000000	62.672942
1846.000000	62.685144
1845.000000	62.665234
1844.000000	62.610855
1843.000000	62.557259
1842.000000	62.564718
1841.000000	62.593373
1840.000000	62.569672
1839.000000	62.556387
1838.000000	62.531716
1837.000000	62.468910
1836.000000	62.440957
1835.000000	62.418249
1834.000000	62.385269
1833.000000	62.370088
1832.000000	62.344197
1831.000000	62.316763
1830.000000	62.270456
1829.000000	62.252176
1828.000000	62.234412
1827.000000	62.203026
1826.000000	62.181574
1825.000000	62.151810
1824.000000	62.156024
1823.000000	62.138396
1822.000000	62.079520
1821.000000	62.051211
1820.000000	62.010453
1819.000000	61.974652
1818.000000	61.968659
1817.000000	61.982583
1816.000000	61.943325
1815.000000	61.908931
1814.000000	61.874004
1813.000000	61.854692
1812.000000	61.858009
1811.000000	61.836991
1810.000000	61.799845
1809.000000	61.794850
1808.000000	61.772155
1807.000000	61.728340
1806.000000	61.714570
1805.000000	61.661297
1804.000000	61.626853
1803.000000	61.635450
1802.000000	61.617296
1801.000000	61.577104
1800.000000	61.543258
1799.000000	61.538345
1798.000000	61.541659
1797.000000	61.521498
1796.000000	61.505642
1795.000000	61.493445
1794.000000	61.494662
1793.000000	61.468232
1792.000000	61.428554
1791.000000	61.403884
1790.000000	61.403238
1789.000000	61.383524
1788.000000	61.351449
1787.000000	61.324867
1786.000000	61.305550
1785.000000	61.292747
1784.000000	61.252650
1783.000000	61.219246
1782.000000	61.208058
1781.000000	61.203995
1780.000000	61.167582
1779.000000	61.124448
1778.000000	61.090094
1777.000000	61.013138
1776.000000	60.977361
1775.000000	60.964870
1774.000000	60.918075
1773.000000	60.885611
1772.000000	60.866024
1771.000000	60.804646
1770.000000	60.729395
1769.000000	60.694513
1768.000000	60.654837
1767.000000	60.630225
1766.000000	60.565598
1765.000000	60.507835
1764.000000	60.517490
1763.000000	60.435923
1762.000000	60.390258
1761.000000	60.390571
1760.000000	60.321429
1759.000000	60.256575
1758.000000	60.229146
1757.000000	60.181694
1756.000000	60.159766
1755.000000	60.123524
1754.000000	60.032328
1753.000000	60.003549
1752.000000	59.994605
1751.000000	59.978461
1750.000000	59.928940
1749.000000	59.898225
1748.000000	59.813806
1747.000000	59.728193
1746.000000	59.732665
1745.000000	59.670841
1744.000000	59.621525
1743.000000	59.573165
1742.000000	59.509871
1741.000000	59.484287
1740.000000	59.437303
1739.000000	59.384382
1738.000000	59.326600
1737.000000	59.322517
1736.000000	59.293928
1735.000000	59.280169
1734.000000	59.290262
1733.000000	59.253615
1732.000000	59.253083
1731.000000	59.305180
1730.000000	59.282918
1729.000000	59.296786
1728.000000	59.352734
1727.000000	59.405304
1726.000000	59.439776
1725.000000	59.495486
1724.000000	59.534069
1723.000000	59.605250
1722.000000	59.689517
1721.000000	59.780039
1720.000000	59.847597
1719.000000	59.942917
1718.000000	59.956075
1717.000000	60.044960
1716.000000	60.116218
1715.000000	60.179477
1714.000000	60.232180
1713.000000	60.352442
1712.000000	60.413122
1711.000000	60.430296
1710.000000	60.473861
1709.000000	60.522678
1708.000000	60.540976
1707.000000	60.636190
1706.000000	60.670537
1705.000000	60.670760
1704.000000	60.740114
1703.000000	60.703741
1702.000000	60.706161
1701.000000	60.719258
1700.000000	60.761763
1699.000000	60.747415
1698.000000	60.789273
1697.000000	60.797442
1696.000000	60.869252
1695.000000	60.834436
1694.000000	60.865818
1693.000000	60.885565
1692.000000	60.901031
1691.000000	61.021445
1690.000000	61.027875
1689.000000	61.090470
1688.000000	61.166161
1687.000000	61.248397
1686.000000	61.332299
1685.000000	61.428428
1684.000000	61.549940
1683.000000	61.643888
1682.000000	61.739406
1681.000000	61.892200
1680.000000	61.996269
1679.000000	62.098960
1678.000000	62.200791
1677.000000	62.385369
1676.000000	62.474875
1675.000000	62.610998
1674.000000	62.730658
1673.000000	62.851193
1672.000000	62.961743
1671.000000	63.071152
1670.000000	63.201100
1669.000000	63.326000
1668.000000	63.414723
1667.000000	63.526901
1666.000000	63.606453
1665.000000	63.685289
1664.000000	63.749886
1663.000000	63.815210
1662.000000	63.856050
1661.000000	63.915313
1660.000000	63.989176
1659.000000	64.027820
1658.000000	64.062536
1657.000000	64.084837
1656.000000	64.118395
1655.000000	64.145624
1654.000000	64.178023
1653.000000	64.190369
1652.000000	64.218346
1651.000000	64.185965
1650.000000	64.191020
1649.000000	64.215279
1648.000000	64.198819
1647.000000	64.228198
1646.000000	64.201780
1645.000000	64.184339
1644.000000	64.176406
1643.000000	64.168916
1642.000000	64.164954
1641.000000	64.127369
1640.000000	64.114028
1639.000000	64.114530
1638.000000	64.099424
1637.000000	64.090309
1636.000000	64.052211
1635.000000	64.022612
1634.000000	63.998326
1633.000000	63.935946
1632.000000	63.939706
1631.000000	63.937853
1630.000000	63.893592
1629.000000	63.855042
1628.000000	63.857425
1627.000000	63.814502
1626.000000	63.788394
1625.000000	63.754480
1624.000000	63.720934
1623.000000	63.689902
1622.000000	63.668788
1621.000000	63.633629
1620.000000	63.620062
1619.000000	63.573915
1618.000000	63.534522
1617.000000	63.517544
1616.000000	63.472567
1615.000000	63.428235
1614.000000	63.397557
1613.000000	63.356206
1612.000000	63.320854
1611.000000	63.270726
1610.000000	63.244813
1609.000000	63.204350
1608.000000	63.158225
1607.000000	63.114136
1606.000000	63.077978
1605.000000	63.046999
1604.000000	63.008011
1603.000000	62.960476
1602.000000	62.915763
1601.000000	62.875663
1600.000000	62.838116
1599.000000	62.796613
1598.000000	62.739438
1597.000000	62.695476
1596.000000	62.674512
1595.000000	62.635861
1594.000000	62.592427
1593.000000	62.581145
1592.000000	62.536425
1591.000000	62.476206
1590.000000	62.437700
1589.000000	62.383351
1588.000000	62.358559
1587.000000	62.342231
1586.000000	62.296419
1585.000000	62.261181
1584.000000	62.238495
1583.000000	62.212605
1582.000000	62.168690
1581.000000	62.128564
1580.000000	62.105251
1579.000000	62.087019
1578.000000	62.052747
1577.000000	62.023445
1576.000000	62.008855
1575.000000	61.977003
1574.000000	61.933556
1573.000000	61.905630
1572.000000	61.878376
1571.000000	61.840721
1570.000000	61.803516
1569.000000	61.787014
1568.000000	61.754191
1567.000000	61.723868
1566.000000	61.710052
1565.000000	61.699331
1564.000000	61.678587
1563.000000	61.648996
1562.000000	61.649136
1561.000000	61.636649
1560.000000	61.616234
1559.000000	61.611366
1558.000000	61.581218
1557.000000	61.572074
1556.000000	61.559445
1555.000000	61.540331
1554.000000	61.527067
1553.000000	61.511289
1552.000000	61.505211
1551.000000	61.477433
1550.000000	61.462369
1549.000000	61.410578
1548.000000	61.392641
1547.000000	61.347793
1546.000000	61.311049
1545.000000	61.291048
1544.000000	61.215924
1543.000000	61.171767
1542.000000	61.138217
1541.000000	61.068243
1540.000000	61.022037
1539.000000	60.970698
1538.000000	60.907093
1537.000000	60.829858
1536.000000	60.751706
1535.000000	60.686285
1534.000000	60.630285
1533.000000	60.595253
1532.000000	60.518111
1531.000000	60.427948
1530.000000	60.401364
1529.000000	60.332404
1528.000000	60.290346
1527.000000	60.211781
1526.000000	60.164556
1525.000000	60.102303
1524.000000	60.049849
1523.000000	60.007715
1522.000000	59.967114
1521.000000	59.922851
1520.000000	59.904543
1519.000000	59.856214
1518.000000	59.815935
1517.000000	59.789037
1516.000000	59.736619
1515.000000	59.712552
1514.000000	59.694917
1513.000000	59.667875
1512.000000	59.624238
1511.000000	59.593535
1510.000000	59.588634
1509.000000	59.603950
1508.000000	59.566308
1507.000000	59.551091
1506.000000	59.519193
1505.000000	59.506668
1504.000000	59.535278
1503.000000	59.518937
1502.000000	59.497979
1501.000000	59.489489
1500.000000	59.514860
1499.000000	59.497807
1498.000000	59.509174
1497.000000	59.508198
1496.000000	59.546649
1495.000000	59.548511
1494.000000	59.579287
1493.000000	59.606244
1492.000000	59.618233
1491.000000	59.669082
1490.000000	59.708408
1489.000000	59.749006
1488.000000	59.811879
1487.000000	59.841452
1486.000000	59.866389
1485.000000	59.940393
1484.000000	59.995606
1483.000000	60.040916
1482.000000	60.081647
1481.000000	60.164139
1480.000000	60.237741
1479.000000	60.277601
1478.000000	60.334925
1477.000000	60.388994
1476.000000	60.445883
1475.000000	60.494649
1474.000000	60.574385
1473.000000	60.604638
1472.000000	60.670418
1471.000000	60.712504
1470.000000	60.793820
