PE UV       SUBTECH     SPECTRUM    ASCII       PEDS        4.00        
   -1
RDAgneauUK 52.Sample.asc
18/03/02
17:27:13.00
18/03/02
17:27:13.00
Administrator

200.000000
1
Lambda 750
750N8071901
PerkinElmer UV WinLab 6.0.4.0738 / 1.61.00 Lambda 900

0
0
3350/servo 860.8/2
0
0
UV/VIS
1
1
1
CommonBeamDepol,150mm sphere / downward view
0
0
0
0
Program
Program
3350/servo 860.8/2
3350/0.2 860.8/0.2
3350/0.2 860.8/0.2
0
1
 
 
 
0
 
860.8
319.2
860.8
Front
100
on
 
 
0
0
0
 
0
 
 
 
0
 
 
0
0
0
0
0
 
 
 
 
0
0


0
0
#HDR
-1
-1
#GR
nm
%R
1.0
0.0
2350.000000
-1.000000
2151
8
72.401143
15.794956
#DATA
2350.000000	42.268969
2349.000000	42.204670
2348.000000	42.190247
2347.000000	42.992249
2346.000000	42.788052
2345.000000	42.703127
2344.000000	42.657641
2343.000000	42.294515
2342.000000	42.324469
2341.000000	42.554046
2340.000000	42.636551
2339.000000	43.095661
2338.000000	42.855903
2337.000000	42.447607
2336.000000	42.764796
2335.000000	43.050212
2334.000000	43.186403
2333.000000	43.009288
2332.000000	43.063838
2331.000000	42.915626
2330.000000	43.062783
2329.000000	42.892539
2328.000000	42.675174
2327.000000	43.074329
2326.000000	43.139470
2325.000000	42.872675
2324.000000	42.855426
2323.000000	42.506551
2322.000000	42.602749
2321.000000	42.660376
2320.000000	42.660972
2319.000000	42.234171
2318.000000	42.398566
2317.000000	42.252650
2316.000000	42.239063
2315.000000	42.143196
2314.000000	42.148972
2313.000000	42.068433
2312.000000	42.134939
2311.000000	42.174214
2310.000000	42.033780
2309.000000	42.078262
2308.000000	41.821877
2307.000000	41.689797
2306.000000	41.617740
2305.000000	41.556296
2304.000000	41.428746
2303.000000	41.484327
2302.000000	41.451536
2301.000000	41.211213
2300.000000	41.276867
2299.000000	41.045270
2298.000000	40.786347
2297.000000	40.512919
2296.000000	40.755071
2295.000000	40.722939
2294.000000	40.323815
2293.000000	40.345248
2292.000000	40.444460
2291.000000	40.127124
2290.000000	40.253356
2289.000000	40.064202
2288.000000	40.178481
2287.000000	40.297023
2286.000000	40.098883
2285.000000	40.001332
2284.000000	40.000323
2283.000000	39.900200
2282.000000	39.800674
2281.000000	39.911831
2280.000000	39.729957
2279.000000	39.832171
2278.000000	39.912035
2277.000000	39.744125
2276.000000	39.843248
2275.000000	39.880047
2274.000000	39.825516
2273.000000	40.040286
2272.000000	40.145364
2271.000000	40.001778
2270.000000	40.114324
2269.000000	40.271410
2268.000000	40.294911
2267.000000	40.394125
2266.000000	40.473464
2265.000000	40.643526
2264.000000	40.693829
2263.000000	40.827389
2262.000000	40.837276
2261.000000	40.855825
2260.000000	41.192695
2259.000000	41.447704
2258.000000	41.674253
2257.000000	41.908798
2256.000000	41.996934
2255.000000	42.072122
2254.000000	42.249459
2253.000000	42.507763
2252.000000	42.739268
2251.000000	43.059039
2250.000000	43.322887
2249.000000	43.372550
2248.000000	43.548860
2247.000000	43.750367
2246.000000	43.998329
2245.000000	44.177187
2244.000000	44.376054
2243.000000	44.638410
2242.000000	44.826582
2241.000000	44.892132
2240.000000	45.030361
2239.000000	45.265641
2238.000000	45.394980
2237.000000	45.565289
2236.000000	45.733460
2235.000000	45.731886
2234.000000	45.678157
2233.000000	45.773174
2232.000000	45.921486
2231.000000	46.004142
2230.000000	46.084376
2229.000000	46.192531
2228.000000	46.280795
2227.000000	46.292305
2226.000000	46.259396
2225.000000	46.280859
2224.000000	46.185242
2223.000000	46.073660
2222.000000	46.198766
2221.000000	46.179985
2220.000000	46.184799
2219.000000	46.056966
2218.000000	45.944437
2217.000000	45.882505
2216.000000	45.831650
2215.000000	45.826037
2214.000000	45.878489
2213.000000	45.916966
2212.000000	45.839027
2211.000000	45.719698
2210.000000	45.644008
2209.000000	45.524210
2208.000000	45.429306
2207.000000	45.455252
2206.000000	45.520016
2205.000000	45.421876
2204.000000	45.278818
2203.000000	45.155863
2202.000000	45.075773
2201.000000	45.067378
2200.000000	44.991292
2199.000000	44.889937
2198.000000	44.969028
2197.000000	44.929609
2196.000000	44.848939
2195.000000	44.652117
2194.000000	44.425400
2193.000000	44.355844
2192.000000	44.431913
2191.000000	44.383795
2190.000000	44.421194
2189.000000	44.175650
2188.000000	43.974889
2187.000000	44.086916
2186.000000	44.059076
2185.000000	44.087650
2184.000000	43.933061
2183.000000	43.967733
2182.000000	43.907934
2181.000000	43.882540
2180.000000	43.746011
2179.000000	43.731887
2178.000000	43.755665
2177.000000	43.778848
2176.000000	43.760359
2175.000000	43.788011
2174.000000	43.994342
2173.000000	43.977150
2172.000000	43.916733
2171.000000	43.994691
2170.000000	43.928726
2169.000000	44.163276
2168.000000	44.215313
2167.000000	44.253505
2166.000000	44.333399
2165.000000	44.448225
2164.000000	44.464167
2163.000000	44.623293
2162.000000	44.717499
2161.000000	44.825182
2160.000000	45.020600
2159.000000	45.248255
2158.000000	45.294427
2157.000000	45.414395
2156.000000	45.770028
2155.000000	45.870664
2154.000000	46.011354
2153.000000	46.343571
2152.000000	46.405800
2151.000000	46.548462
2150.000000	46.527617
2149.000000	46.635552
2148.000000	46.745165
2147.000000	47.090386
2146.000000	47.158729
2145.000000	47.321015
2144.000000	47.584092
2143.000000	47.594397
2142.000000	47.697055
2141.000000	47.999300
2140.000000	48.163082
2139.000000	48.175207
2138.000000	48.619594
2137.000000	48.421054
2136.000000	48.751121
2135.000000	48.834248
2134.000000	48.879242
2133.000000	48.928981
2132.000000	49.322223
2131.000000	49.482173
2130.000000	49.504625
2129.000000	49.446513
2128.000000	49.462970
2127.000000	49.609479
2126.000000	49.522744
2125.000000	49.532037
2124.000000	49.636467
2123.000000	49.773979
2122.000000	49.736949
2121.000000	49.820367
2120.000000	49.805159
2119.000000	49.902102
2118.000000	49.984961
2117.000000	50.039697
2116.000000	50.022423
2115.000000	50.139764
2114.000000	50.085379
2113.000000	50.162797
2112.000000	50.329163
2111.000000	50.160255
2110.000000	50.141435
2109.000000	50.088645
2108.000000	50.217511
2107.000000	50.424789
2106.000000	50.275795
2105.000000	50.250759
2104.000000	50.272751
2103.000000	50.461767
2102.000000	50.557885
2101.000000	50.365319
2100.000000	50.617881
2099.000000	50.458562
2098.000000	50.255369
2097.000000	50.331390
2096.000000	50.380926
2095.000000	50.481310
2094.000000	50.429177
2093.000000	50.449009
2092.000000	50.447277
2091.000000	50.375736
2090.000000	50.345485
2089.000000	50.387466
2088.000000	50.302852
2087.000000	50.220976
2086.000000	50.222905
2085.000000	50.181564
2084.000000	50.070585
2083.000000	50.091915
2082.000000	50.033559
2081.000000	49.967531
2080.000000	49.890511
2079.000000	49.864705
2078.000000	49.760446
2077.000000	49.700346
2076.000000	49.577949
2075.000000	49.480743
2074.000000	49.337888
2073.000000	49.270504
2072.000000	49.184019
2071.000000	49.092454
2070.000000	49.031969
2069.000000	48.889888
2068.000000	48.726295
2067.000000	48.544848
2066.000000	48.417340
2065.000000	48.287653
2064.000000	48.094654
2063.000000	47.915825
2062.000000	47.751800
2061.000000	47.622583
2060.000000	47.413331
2059.000000	47.325257
2058.000000	47.194497
2057.000000	46.995401
2056.000000	46.861359
2055.000000	46.713969
2054.000000	46.612288
2053.000000	46.448985
2052.000000	46.298147
2051.000000	46.178139
2050.000000	46.102212
2049.000000	45.997931
2048.000000	45.909567
2047.000000	45.839754
2046.000000	45.701581
2045.000000	45.625428
2044.000000	45.626877
2043.000000	45.611518
2042.000000	45.567717
2041.000000	45.553563
2040.000000	45.599002
2039.000000	45.643141
2038.000000	45.683827
2037.000000	45.697505
2036.000000	45.743224
2035.000000	45.856071
2034.000000	45.952757
2033.000000	46.056098
2032.000000	46.177679
2031.000000	46.281650
2030.000000	46.414511
2029.000000	46.565362
2028.000000	46.684532
2027.000000	46.798473
2026.000000	46.980765
2025.000000	47.087687
2024.000000	47.141477
2023.000000	47.283614
2022.000000	47.401723
2021.000000	47.470073
2020.000000	47.569586
2019.000000	47.640210
2018.000000	47.699283
2017.000000	47.742598
2016.000000	47.715905
2015.000000	47.758197
2014.000000	47.800772
2013.000000	47.781435
2012.000000	47.772501
2011.000000	47.797793
2010.000000	47.770776
2009.000000	47.731195
2008.000000	47.709127
2007.000000	47.637594
2006.000000	47.532736
2005.000000	47.489210
2004.000000	47.463339
2003.000000	47.401899
2002.000000	47.331141
2001.000000	47.258185
2000.000000	47.192765
1999.000000	47.106243
1998.000000	47.006023
1997.000000	46.878896
1996.000000	46.790723
1995.000000	46.676138
1994.000000	46.575512
1993.000000	46.481025
1992.000000	46.389548
1991.000000	46.265672
1990.000000	46.206366
1989.000000	46.107120
1988.000000	46.040742
1987.000000	45.921697
1986.000000	45.800071
1985.000000	45.723619
1984.000000	45.606245
1983.000000	45.494282
1982.000000	45.410816
1981.000000	45.366819
1980.000000	45.219626
1979.000000	45.130556
1978.000000	45.060519
1977.000000	44.913630
1976.000000	44.792237
1975.000000	44.724382
1974.000000	44.590433
1973.000000	44.466543
1972.000000	44.381182
1971.000000	44.252333
1970.000000	44.167561
1969.000000	44.073610
1968.000000	44.022714
1967.000000	43.923549
1966.000000	43.814546
1965.000000	43.755686
1964.000000	43.649539
1963.000000	43.571572
1962.000000	43.434725
1961.000000	43.323572
1960.000000	43.244648
1959.000000	43.129764
1958.000000	43.004990
1957.000000	42.947574
1956.000000	42.867812
1955.000000	42.786225
1954.000000	42.724345
1953.000000	42.615901
1952.000000	42.568543
1951.000000	42.479972
1950.000000	42.493853
1949.000000	42.403529
1948.000000	42.319525
1947.000000	42.325523
1946.000000	42.346070
1945.000000	42.248134
1944.000000	42.235352
1943.000000	42.238002
1942.000000	42.240652
1941.000000	42.261307
1940.000000	42.319521
1939.000000	42.390746
1938.000000	42.416660
1937.000000	42.533265
1936.000000	42.634306
1935.000000	42.674325
1934.000000	42.788529
1933.000000	42.923633
1932.000000	43.109095
1931.000000	43.299795
1930.000000	43.403977
1929.000000	43.610136
1928.000000	43.855269
1927.000000	44.012394
1926.000000	44.216772
1925.000000	44.434604
1924.000000	44.667693
1923.000000	44.947654
1922.000000	45.283116
1921.000000	45.492351
1920.000000	45.713711
1919.000000	45.989469
1918.000000	46.301753
1917.000000	46.682824
1916.000000	46.936719
1915.000000	47.399083
1914.000000	47.777899
1913.000000	48.056383
1912.000000	48.446047
1911.000000	48.811644
1910.000000	49.120373
1909.000000	49.543603
1908.000000	49.953346
1907.000000	50.342111
1906.000000	50.773218
1905.000000	51.245580
1904.000000	51.664321
1903.000000	52.058658
1902.000000	52.509872
1901.000000	53.054766
1900.000000	53.329204
1899.000000	53.844612
1898.000000	54.324765
1897.000000	54.744718
1896.000000	55.096520
1895.000000	55.529103
1894.000000	55.972218
1893.000000	56.348500
1892.000000	56.757337
1891.000000	57.128187
1890.000000	57.519869
1889.000000	57.918492
1888.000000	58.206544
1887.000000	58.586644
1886.000000	58.905016
1885.000000	59.206231
1884.000000	59.510986
1883.000000	59.809102
1882.000000	60.057115
1881.000000	60.335307
1880.000000	60.595448
1879.000000	60.839360
1878.000000	61.065928
1877.000000	61.339529
1876.000000	61.477655
1875.000000	61.656601
1874.000000	61.867039
1873.000000	62.080827
1872.000000	62.241066
1871.000000	62.326258
1870.000000	62.467182
1869.000000	62.611897
1868.000000	62.761617
1867.000000	62.775850
1866.000000	62.845396
1865.000000	62.921555
1864.000000	63.035678
1863.000000	63.045921
1862.000000	63.080787
1861.000000	63.165535
1860.000000	63.204388
1859.000000	63.264898
1858.000000	63.229767
1857.000000	63.291253
1856.000000	63.332127
1855.000000	63.347332
1854.000000	63.399837
1853.000000	63.395080
1852.000000	63.379439
1851.000000	63.404659
1850.000000	63.402361
1849.000000	63.418232
1848.000000	63.402609
1847.000000	63.431230
1846.000000	63.433253
1845.000000	63.356291
1844.000000	63.344061
1843.000000	63.288967
1842.000000	63.300066
1841.000000	63.313884
1840.000000	63.247996
1839.000000	63.217164
1838.000000	63.247511
1837.000000	63.203654
1836.000000	63.149168
1835.000000	63.153967
1834.000000	63.099600
1833.000000	63.068750
1832.000000	63.074406
1831.000000	63.002264
1830.000000	62.963780
1829.000000	62.931792
1828.000000	62.904237
1827.000000	62.871388
1826.000000	62.858022
1825.000000	62.833437
1824.000000	62.822383
1823.000000	62.797644
1822.000000	62.777387
1821.000000	62.747211
1820.000000	62.690272
1819.000000	62.677158
1818.000000	62.676202
1817.000000	62.656766
1816.000000	62.598949
1815.000000	62.579661
1814.000000	62.554287
1813.000000	62.500950
1812.000000	62.472671
1811.000000	62.465649
1810.000000	62.455118
1809.000000	62.421729
1808.000000	62.382900
1807.000000	62.359436
1806.000000	62.353306
1805.000000	62.313506
1804.000000	62.278730
1803.000000	62.281182
1802.000000	62.253436
1801.000000	62.214423
1800.000000	62.215456
1799.000000	62.182118
1798.000000	62.125776
1797.000000	62.110277
1796.000000	62.109022
1795.000000	62.089820
1794.000000	62.087078
1793.000000	62.052308
1792.000000	62.010033
1791.000000	62.004465
1790.000000	61.979300
1789.000000	61.953096
1788.000000	61.933447
1787.000000	61.889769
1786.000000	61.858512
1785.000000	61.846428
1784.000000	61.832162
1783.000000	61.804496
1782.000000	61.754814
1781.000000	61.725901
1780.000000	61.674957
1779.000000	61.634592
1778.000000	61.619218
1777.000000	61.561896
1776.000000	61.547310
1775.000000	61.514873
1774.000000	61.440997
1773.000000	61.394216
1772.000000	61.349459
1771.000000	61.290663
1770.000000	61.263808
1769.000000	61.200057
1768.000000	61.133906
1767.000000	61.093178
1766.000000	61.015043
1765.000000	60.982041
1764.000000	60.960110
1763.000000	60.887893
1762.000000	60.872322
1761.000000	60.823896
1760.000000	60.761688
1759.000000	60.702322
1758.000000	60.655282
1757.000000	60.614425
1756.000000	60.564659
1755.000000	60.502170
1754.000000	60.420402
1753.000000	60.420649
1752.000000	60.372982
1751.000000	60.319701
1750.000000	60.260717
1749.000000	60.243798
1748.000000	60.186883
1747.000000	60.082578
1746.000000	60.055143
1745.000000	59.986002
1744.000000	59.940133
1743.000000	59.888667
1742.000000	59.829057
1741.000000	59.790392
1740.000000	59.751197
1739.000000	59.703172
1738.000000	59.655199
1737.000000	59.631569
1736.000000	59.607738
1735.000000	59.587845
1734.000000	59.596454
1733.000000	59.616588
1732.000000	59.577909
1731.000000	59.605710
1730.000000	59.573210
1729.000000	59.638549
1728.000000	59.681966
1727.000000	59.755793
1726.000000	59.760151
1725.000000	59.793494
1724.000000	59.864937
1723.000000	59.937808
1722.000000	60.016485
1721.000000	60.158369
1720.000000	60.233929
1719.000000	60.280344
1718.000000	60.354663
1717.000000	60.400162
1716.000000	60.526460
1715.000000	60.568212
1714.000000	60.659228
1713.000000	60.760494
1712.000000	60.810304
1711.000000	60.872210
1710.000000	60.933752
1709.000000	60.940050
1708.000000	61.016047
1707.000000	61.064278
1706.000000	61.103829
1705.000000	61.111032
1704.000000	61.123452
1703.000000	61.166696
1702.000000	61.137323
1701.000000	61.192165
1700.000000	61.193637
1699.000000	61.207631
1698.000000	61.209488
1697.000000	61.281867
1696.000000	61.321033
1695.000000	61.268731
1694.000000	61.335056
1693.000000	61.369424
1692.000000	61.378944
1691.000000	61.472243
1690.000000	61.531380
1689.000000	61.571705
1688.000000	61.695662
1687.000000	61.743600
1686.000000	61.836752
1685.000000	61.954299
1684.000000	62.111831
1683.000000	62.208328
1682.000000	62.319722
1681.000000	62.480623
1680.000000	62.576770
1679.000000	62.737035
1678.000000	62.879035
1677.000000	63.009235
1676.000000	63.160882
1675.000000	63.304457
1674.000000	63.440843
1673.000000	63.597910
1672.000000	63.715371
1671.000000	63.837587
1670.000000	63.973858
1669.000000	64.146718
1668.000000	64.227844
1667.000000	64.356984
1666.000000	64.437565
1665.000000	64.518760
1664.000000	64.582620
1663.000000	64.678075
1662.000000	64.745426
1661.000000	64.805368
1660.000000	64.839056
1659.000000	64.909225
1658.000000	64.959157
1657.000000	64.999098
1656.000000	65.042476
1655.000000	65.057519
1654.000000	65.084108
1653.000000	65.131923
1652.000000	65.165965
1651.000000	65.129082
1650.000000	65.119818
1649.000000	65.153548
1648.000000	65.156279
1647.000000	65.158382
1646.000000	65.149380
1645.000000	65.143887
1644.000000	65.107202
1643.000000	65.090046
1642.000000	65.105464
1641.000000	65.072071
1640.000000	65.051296
1639.000000	65.042061
1638.000000	65.010580
1637.000000	64.982920
1636.000000	64.957207
1635.000000	64.931059
1634.000000	64.904928
1633.000000	64.865623
1632.000000	64.850505
1631.000000	64.833441
1630.000000	64.794816
1629.000000	64.773136
1628.000000	64.735222
1627.000000	64.704506
1626.000000	64.685047
1625.000000	64.641467
1624.000000	64.603296
1623.000000	64.581696
1622.000000	64.546130
1621.000000	64.491909
1620.000000	64.471041
1619.000000	64.434587
1618.000000	64.372896
1617.000000	64.330505
1616.000000	64.297922
1615.000000	64.265556
1614.000000	64.233372
1613.000000	64.180960
1612.000000	64.144873
1611.000000	64.115829
1610.000000	64.074336
1609.000000	64.017716
1608.000000	63.972821
1607.000000	63.915478
1606.000000	63.860887
1605.000000	63.805584
1604.000000	63.760905
1603.000000	63.715915
1602.000000	63.670813
1601.000000	63.626280
1600.000000	63.594223
1599.000000	63.540950
1598.000000	63.474160
1597.000000	63.443398
1596.000000	63.402289
1595.000000	63.350933
1594.000000	63.307633
1593.000000	63.270213
1592.000000	63.229728
1591.000000	63.184229
1590.000000	63.133433
1589.000000	63.083598
1588.000000	63.074652
1587.000000	63.033893
1586.000000	62.975572
1585.000000	62.938174
1584.000000	62.897626
1583.000000	62.867887
1582.000000	62.827588
1581.000000	62.783235
1580.000000	62.757466
1579.000000	62.735231
1578.000000	62.720791
1577.000000	62.678077
1576.000000	62.627324
1575.000000	62.594608
1574.000000	62.553212
1573.000000	62.521408
1572.000000	62.507431
1571.000000	62.456441
1570.000000	62.424605
1569.000000	62.407546
1568.000000	62.381100
1567.000000	62.329553
1566.000000	62.298073
1565.000000	62.290713
1564.000000	62.271118
1563.000000	62.249877
1562.000000	62.228269
1561.000000	62.207119
1560.000000	62.188897
1559.000000	62.176134
1558.000000	62.164905
1557.000000	62.159004
1556.000000	62.141659
1555.000000	62.131013
1554.000000	62.098303
1553.000000	62.068442
1552.000000	62.068194
1551.000000	62.030848
1550.000000	62.004299
1549.000000	61.979320
1548.000000	61.958254
1547.000000	61.911685
1546.000000	61.871240
1545.000000	61.827027
1544.000000	61.763583
1543.000000	61.725567
1542.000000	61.693556
1541.000000	61.609249
1540.000000	61.550104
1539.000000	61.469827
1538.000000	61.409976
1537.000000	61.325709
1536.000000	61.255354
1535.000000	61.179916
1534.000000	61.124921
1533.000000	61.060436
1532.000000	60.971921
1531.000000	60.892335
1530.000000	60.832308
1529.000000	60.756666
1528.000000	60.692688
1527.000000	60.652030
1526.000000	60.583945
1525.000000	60.518138
1524.000000	60.458034
1523.000000	60.387167
1522.000000	60.351559
1521.000000	60.299787
1520.000000	60.270230
1519.000000	60.206415
1518.000000	60.174812
1517.000000	60.146548
1516.000000	60.104040
1515.000000	60.052930
1514.000000	60.033718
1513.000000	59.974243
1512.000000	59.968693
1511.000000	59.945367
1510.000000	59.916168
1509.000000	59.923541
1508.000000	59.875987
1507.000000	59.864175
1506.000000	59.853008
1505.000000	59.830339
1504.000000	59.851655
1503.000000	59.836007
1502.000000	59.816235
1501.000000	59.817557
1500.000000	59.812161
1499.000000	59.811513
1498.000000	59.827662
1497.000000	59.833204
1496.000000	59.862385
1495.000000	59.886363
1494.000000	59.902040
1493.000000	59.914701
1492.000000	59.964281
1491.000000	60.013244
1490.000000	60.038373
1489.000000	60.102738
1488.000000	60.153457
1487.000000	60.207246
1486.000000	60.231288
1485.000000	60.313848
1484.000000	60.386810
1483.000000	60.460909
1482.000000	60.502334
1481.000000	60.602368
1480.000000	60.679419
1479.000000	60.728900
1478.000000	60.800768
1477.000000	60.856082
1476.000000	60.931863
1475.000000	60.977256
1474.000000	61.062519
1473.000000	61.119938
1472.000000	61.188638
1471.000000	61.242860
1470.000000	61.322393
