PE UV       SUBTECH     SPECTRUM    ASCII       PEDS        4.00        
   -1
RDAgneauUK 12.Sample.asc
18/03/02
16:45:29.00
18/03/02
16:45:29.00
Administrator

200.000000
1
Lambda 750
750N8071901
PerkinElmer UV WinLab 6.0.4.0738 / 1.61.00 Lambda 900

0
0
3350/servo 860.8/2
0
0
UV/VIS
1
1
1
CommonBeamDepol,150mm sphere / downward view
0
0
0
0
Program
Program
3350/servo 860.8/2
3350/0.2 860.8/0.2
3350/0.2 860.8/0.2
0
1
 
 
 
0
 
860.8
319.2
860.8
Front
100
on
 
 
0
0
0
 
0
 
 
 
0
 
 
0
0
0
0
0
 
 
 
 
0
0


0
0
#HDR
-1
-1
#GR
nm
%R
1.0
0.0
2350.000000
-1.000000
2151
8
72.003189
16.910585
#DATA
2350.000000	44.558786
2349.000000	44.036502
2348.000000	44.024923
2347.000000	44.978543
2346.000000	44.722794
2345.000000	44.601286
2344.000000	44.679071
2343.000000	44.322023
2342.000000	44.986773
2341.000000	44.708909
2340.000000	44.791359
2339.000000	45.142491
2338.000000	45.181414
2337.000000	44.872995
2336.000000	45.256588
2335.000000	45.218335
2334.000000	45.252813
2333.000000	45.319415
2332.000000	45.540782
2331.000000	45.295004
2330.000000	44.925055
2329.000000	45.141978
2328.000000	45.252743
2327.000000	44.961932
2326.000000	44.962969
2325.000000	45.050214
2324.000000	44.772866
2323.000000	45.059056
2322.000000	44.665898
2321.000000	44.607066
2320.000000	44.644392
2319.000000	44.438931
2318.000000	44.904275
2317.000000	44.761681
2316.000000	44.441300
2315.000000	44.273661
2314.000000	44.291658
2313.000000	44.220358
2312.000000	44.203514
2311.000000	44.182543
2310.000000	44.233331
2309.000000	44.163125
2308.000000	43.894471
2307.000000	43.807651
2306.000000	43.720694
2305.000000	43.682451
2304.000000	43.439640
2303.000000	43.613396
2302.000000	43.491624
2301.000000	43.280237
2300.000000	43.159564
2299.000000	43.257465
2298.000000	43.165495
2297.000000	43.186588
2296.000000	43.078839
2295.000000	43.073262
2294.000000	42.777076
2293.000000	42.632351
2292.000000	42.399715
2291.000000	42.544431
2290.000000	42.489822
2289.000000	42.578439
2288.000000	42.332104
2287.000000	42.249352
2286.000000	42.201257
2285.000000	42.085254
2284.000000	42.023949
2283.000000	42.095391
2282.000000	42.157813
2281.000000	42.163386
2280.000000	42.155998
2279.000000	42.018255
2278.000000	42.073890
2277.000000	42.051084
2276.000000	42.253427
2275.000000	42.198795
2274.000000	42.174805
2273.000000	42.344080
2272.000000	42.451721
2271.000000	42.434463
2270.000000	42.344537
2269.000000	42.423379
2268.000000	42.574955
2267.000000	42.671260
2266.000000	42.817232
2265.000000	42.864149
2264.000000	42.877365
2263.000000	43.076373
2262.000000	43.159216
2261.000000	43.278449
2260.000000	43.442290
2259.000000	43.503989
2258.000000	43.751047
2257.000000	43.967749
2256.000000	44.143724
2255.000000	44.367350
2254.000000	44.534169
2253.000000	44.561570
2252.000000	44.836922
2251.000000	45.195326
2250.000000	45.403658
2249.000000	45.525883
2248.000000	45.794283
2247.000000	46.110312
2246.000000	46.239043
2245.000000	46.347306
2244.000000	46.516455
2243.000000	46.729538
2242.000000	46.854916
2241.000000	46.892583
2240.000000	46.993277
2239.000000	47.197026
2238.000000	47.415831
2237.000000	47.583962
2236.000000	47.717963
2235.000000	47.788562
2234.000000	47.751563
2233.000000	47.952160
2232.000000	48.007025
2231.000000	47.956563
2230.000000	48.023505
2229.000000	48.105248
2228.000000	48.126281
2227.000000	48.238648
2226.000000	48.247870
2225.000000	48.201101
2224.000000	48.139269
2223.000000	48.126671
2222.000000	48.195941
2221.000000	48.287800
2220.000000	48.238633
2219.000000	48.231262
2218.000000	48.181567
2217.000000	48.027759
2216.000000	48.070065
2215.000000	48.093140
2214.000000	48.067478
2213.000000	48.048673
2212.000000	47.785275
2211.000000	47.596226
2210.000000	47.632206
2209.000000	47.665975
2208.000000	47.552316
2207.000000	47.469329
2206.000000	47.538277
2205.000000	47.323505
2204.000000	47.229511
2203.000000	47.243362
2202.000000	47.183856
2201.000000	47.124639
2200.000000	47.186929
2199.000000	47.085252
2198.000000	47.065780
2197.000000	46.959343
2196.000000	46.689485
2195.000000	46.540057
2194.000000	46.558372
2193.000000	46.465467
2192.000000	46.492140
2191.000000	46.522037
2190.000000	46.425129
2189.000000	46.269518
2188.000000	46.146357
2187.000000	46.166625
2186.000000	46.057759
2185.000000	46.109263
2184.000000	46.182558
2183.000000	46.209452
2182.000000	46.170549
2181.000000	45.990890
2180.000000	45.886652
2179.000000	45.872784
2178.000000	45.904928
2177.000000	46.000745
2176.000000	45.994203
2175.000000	45.877764
2174.000000	46.055621
2173.000000	45.994192
2172.000000	46.118297
2171.000000	46.155984
2170.000000	46.176414
2169.000000	46.382321
2168.000000	46.330676
2167.000000	46.349710
2166.000000	46.595889
2165.000000	46.656493
2164.000000	46.849295
2163.000000	46.883916
2162.000000	46.965873
2161.000000	47.326744
2160.000000	47.265081
2159.000000	47.455564
2158.000000	47.539064
2157.000000	47.500008
2156.000000	47.744822
2155.000000	48.023543
2154.000000	48.168262
2153.000000	48.417724
2152.000000	48.480638
2151.000000	48.530062
2150.000000	48.739210
2149.000000	48.804851
2148.000000	48.890918
2147.000000	49.352211
2146.000000	49.448214
2145.000000	49.687473
2144.000000	49.688844
2143.000000	49.732577
2142.000000	49.997439
2141.000000	50.139151
2140.000000	50.403405
2139.000000	50.432259
2138.000000	50.647524
2137.000000	50.542053
2136.000000	50.628260
2135.000000	50.940363
2134.000000	51.039398
2133.000000	50.917499
2132.000000	51.101256
2131.000000	51.449885
2130.000000	51.311696
2129.000000	51.333651
2128.000000	51.468834
2127.000000	51.530291
2126.000000	51.637134
2125.000000	51.470519
2124.000000	51.791997
2123.000000	51.995609
2122.000000	51.948511
2121.000000	51.783708
2120.000000	51.871761
2119.000000	51.908788
2118.000000	52.072626
2117.000000	51.996768
2116.000000	52.026936
2115.000000	52.085382
2114.000000	52.132955
2113.000000	51.989383
2112.000000	52.157732
2111.000000	52.206693
2110.000000	52.149022
2109.000000	52.265102
2108.000000	52.262877
2107.000000	52.357123
2106.000000	52.308842
2105.000000	52.292805
2104.000000	52.305235
2103.000000	52.423082
2102.000000	52.404832
2101.000000	52.361575
2100.000000	52.480547
2099.000000	52.380813
2098.000000	52.196250
2097.000000	52.362620
2096.000000	52.284497
2095.000000	52.311095
2094.000000	52.360371
2093.000000	52.371217
2092.000000	52.340839
2091.000000	52.263491
2090.000000	52.247971
2089.000000	52.255271
2088.000000	52.191139
2087.000000	52.233150
2086.000000	52.333689
2085.000000	52.137781
2084.000000	51.974767
2083.000000	51.988295
2082.000000	52.048216
2081.000000	51.904384
2080.000000	51.823793
2079.000000	51.832619
2078.000000	51.666085
2077.000000	51.598912
2076.000000	51.508724
2075.000000	51.454889
2074.000000	51.360159
2073.000000	51.275647
2072.000000	51.205811
2071.000000	51.090670
2070.000000	51.035687
2069.000000	50.892768
2068.000000	50.703002
2067.000000	50.573281
2066.000000	50.464378
2065.000000	50.329567
2064.000000	50.158855
2063.000000	49.997173
2062.000000	49.827838
2061.000000	49.675761
2060.000000	49.510565
2059.000000	49.381020
2058.000000	49.244488
2057.000000	49.130587
2056.000000	49.016288
2055.000000	48.800871
2054.000000	48.671344
2053.000000	48.574251
2052.000000	48.430666
2051.000000	48.228793
2050.000000	48.121395
2049.000000	48.097750
2048.000000	48.056557
2047.000000	47.989175
2046.000000	47.814340
2045.000000	47.698774
2044.000000	47.724970
2043.000000	47.740620
2042.000000	47.742862
2041.000000	47.752254
2040.000000	47.713280
2039.000000	47.759334
2038.000000	47.815153
2037.000000	47.824857
2036.000000	47.891206
2035.000000	48.022183
2034.000000	48.126014
2033.000000	48.185841
2032.000000	48.312993
2031.000000	48.444449
2030.000000	48.569494
2029.000000	48.693780
2028.000000	48.779512
2027.000000	48.927501
2026.000000	49.108461
2025.000000	49.228970
2024.000000	49.317468
2023.000000	49.432400
2022.000000	49.529090
2021.000000	49.589699
2020.000000	49.652928
2019.000000	49.715478
2018.000000	49.777308
2017.000000	49.837366
2016.000000	49.876068
2015.000000	49.869355
2014.000000	49.879211
2013.000000	49.919592
2012.000000	49.872879
2011.000000	49.859741
2010.000000	49.875173
2009.000000	49.818672
2008.000000	49.782077
2007.000000	49.757585
2006.000000	49.646579
2005.000000	49.617669
2004.000000	49.534587
2003.000000	49.452514
2002.000000	49.409238
2001.000000	49.331307
2000.000000	49.247936
1999.000000	49.178276
1998.000000	49.100729
1997.000000	49.045242
1996.000000	48.961265
1995.000000	48.892316
1994.000000	48.784960
1993.000000	48.706702
1992.000000	48.593707
1991.000000	48.479759
1990.000000	48.413875
1989.000000	48.310555
1988.000000	48.257172
1987.000000	48.141766
1986.000000	47.997948
1985.000000	47.941317
1984.000000	47.903306
1983.000000	47.803122
1982.000000	47.672170
1981.000000	47.615998
1980.000000	47.518414
1979.000000	47.425923
1978.000000	47.346128
1977.000000	47.255650
1976.000000	47.108757
1975.000000	47.008004
1974.000000	46.907567
1973.000000	46.833567
1972.000000	46.743271
1971.000000	46.650449
1970.000000	46.517863
1969.000000	46.433307
1968.000000	46.382621
1967.000000	46.275328
1966.000000	46.211984
1965.000000	46.157735
1964.000000	45.981652
1963.000000	45.897306
1962.000000	45.839309
1961.000000	45.699897
1960.000000	45.604818
1959.000000	45.547346
1958.000000	45.458173
1957.000000	45.429881
1956.000000	45.265948
1955.000000	45.194023
1954.000000	45.185148
1953.000000	45.095464
1952.000000	45.004891
1951.000000	44.986041
1950.000000	44.881609
1949.000000	44.800641
1948.000000	44.815853
1947.000000	44.798789
1946.000000	44.700666
1945.000000	44.739053
1944.000000	44.692374
1943.000000	44.693664
1942.000000	44.756631
1941.000000	44.760398
1940.000000	44.856870
1939.000000	44.884575
1938.000000	44.891596
1937.000000	45.039430
1936.000000	45.094999
1935.000000	45.156933
1934.000000	45.309999
1933.000000	45.455787
1932.000000	45.520998
1931.000000	45.683429
1930.000000	45.901989
1929.000000	46.037576
1928.000000	46.231757
1927.000000	46.349855
1926.000000	46.478307
1925.000000	46.767403
1924.000000	47.026614
1923.000000	47.301326
1922.000000	47.462409
1921.000000	47.824913
1920.000000	48.020788
1919.000000	48.267284
1918.000000	48.641763
1917.000000	48.929211
1916.000000	49.136843
1915.000000	49.525759
1914.000000	49.904539
1913.000000	50.229030
1912.000000	50.570847
1911.000000	50.883948
1910.000000	51.299023
1909.000000	51.613987
1908.000000	51.968302
1907.000000	52.293027
1906.000000	52.703858
1905.000000	53.217016
1904.000000	53.522222
1903.000000	53.886227
1902.000000	54.362979
1901.000000	54.698227
1900.000000	55.120993
1899.000000	55.569623
1898.000000	55.981695
1897.000000	56.342778
1896.000000	56.670770
1895.000000	57.114213
1894.000000	57.413228
1893.000000	57.870051
1892.000000	58.185405
1891.000000	58.625910
1890.000000	58.942847
1889.000000	59.269677
1888.000000	59.540776
1887.000000	59.889426
1886.000000	60.208626
1885.000000	60.430706
1884.000000	60.727098
1883.000000	60.947776
1882.000000	61.234597
1881.000000	61.507556
1880.000000	61.701364
1879.000000	61.890076
1878.000000	62.090929
1877.000000	62.320093
1876.000000	62.471341
1875.000000	62.621409
1874.000000	62.821540
1873.000000	62.955552
1872.000000	63.104491
1871.000000	63.166321
1870.000000	63.330351
1869.000000	63.449386
1868.000000	63.531915
1867.000000	63.567137
1866.000000	63.604754
1865.000000	63.711533
1864.000000	63.740752
1863.000000	63.762835
1862.000000	63.794459
1861.000000	63.851414
1860.000000	63.880940
1859.000000	63.917477
1858.000000	63.918973
1857.000000	63.986335
1856.000000	64.001892
1855.000000	64.008854
1854.000000	64.096890
1853.000000	64.097326
1852.000000	64.033219
1851.000000	64.022464
1850.000000	64.041471
1849.000000	64.035120
1848.000000	64.068955
1847.000000	64.081957
1846.000000	64.068842
1845.000000	64.045731
1844.000000	64.020462
1843.000000	63.943706
1842.000000	63.978236
1841.000000	63.963152
1840.000000	63.923391
1839.000000	63.952215
1838.000000	63.916806
1837.000000	63.856602
1836.000000	63.804706
1835.000000	63.797858
1834.000000	63.798454
1833.000000	63.736758
1832.000000	63.714465
1831.000000	63.649524
1830.000000	63.619367
1829.000000	63.592388
1828.000000	63.542196
1827.000000	63.560593
1826.000000	63.562503
1825.000000	63.530854
1824.000000	63.518309
1823.000000	63.496594
1822.000000	63.460870
1821.000000	63.460027
1820.000000	63.401281
1819.000000	63.366400
1818.000000	63.367335
1817.000000	63.359018
1816.000000	63.328737
1815.000000	63.304402
1814.000000	63.280788
1813.000000	63.221885
1812.000000	63.189051
1811.000000	63.165441
1810.000000	63.152348
1809.000000	63.149354
1808.000000	63.136294
1807.000000	63.098806
1806.000000	63.101134
1805.000000	63.088777
1804.000000	63.034590
1803.000000	63.010660
1802.000000	63.003459
1801.000000	62.987319
1800.000000	62.951225
1799.000000	62.917743
1798.000000	62.919977
1797.000000	62.899811
1796.000000	62.868038
1795.000000	62.882115
1794.000000	62.883559
1793.000000	62.826850
1792.000000	62.807754
1791.000000	62.812272
1790.000000	62.768039
1789.000000	62.734837
1788.000000	62.736294
1787.000000	62.706437
1786.000000	62.660119
1785.000000	62.661482
1784.000000	62.634836
1783.000000	62.618977
1782.000000	62.585751
1781.000000	62.564237
1780.000000	62.523896
1779.000000	62.495246
1778.000000	62.450176
1777.000000	62.392183
1776.000000	62.368810
1775.000000	62.336429
1774.000000	62.248098
1773.000000	62.211431
1772.000000	62.195419
1771.000000	62.162187
1770.000000	62.114264
1769.000000	62.055545
1768.000000	61.996921
1767.000000	61.926899
1766.000000	61.902879
1765.000000	61.864433
1764.000000	61.843526
1763.000000	61.780979
1762.000000	61.740464
1761.000000	61.691155
1760.000000	61.624758
1759.000000	61.585295
1758.000000	61.532609
1757.000000	61.484856
1756.000000	61.457636
1755.000000	61.407450
1754.000000	61.334865
1753.000000	61.332833
1752.000000	61.299708
1751.000000	61.227917
1750.000000	61.181826
1749.000000	61.145919
1748.000000	61.112373
1747.000000	61.011178
1746.000000	60.976928
1745.000000	60.950149
1744.000000	60.913606
1743.000000	60.853021
1742.000000	60.804670
1741.000000	60.751104
1740.000000	60.744096
1739.000000	60.660151
1738.000000	60.637955
1737.000000	60.614984
1736.000000	60.565587
1735.000000	60.569166
1734.000000	60.561265
1733.000000	60.564270
1732.000000	60.560193
1731.000000	60.621204
1730.000000	60.568194
1729.000000	60.595302
1728.000000	60.654143
1727.000000	60.689722
1726.000000	60.750176
1725.000000	60.795100
1724.000000	60.805434
1723.000000	60.922707
1722.000000	61.026894
1721.000000	61.087715
1720.000000	61.168670
1719.000000	61.225299
1718.000000	61.315289
1717.000000	61.365685
1716.000000	61.429681
1715.000000	61.489619
1714.000000	61.562093
1713.000000	61.674351
1712.000000	61.721074
1711.000000	61.762323
1710.000000	61.833154
1709.000000	61.839254
1708.000000	61.886522
1707.000000	61.967095
1706.000000	61.951758
1705.000000	61.982555
1704.000000	62.013109
1703.000000	62.021227
1702.000000	62.033406
1701.000000	62.033138
1700.000000	62.061133
1699.000000	62.076670
1698.000000	62.087326
1697.000000	62.146209
1696.000000	62.144195
1695.000000	62.128505
1694.000000	62.199515
1693.000000	62.207485
1692.000000	62.266454
1691.000000	62.307022
1690.000000	62.393097
1689.000000	62.440809
1688.000000	62.515863
1687.000000	62.572012
1686.000000	62.676156
1685.000000	62.805343
1684.000000	62.909406
1683.000000	63.013018
1682.000000	63.139564
1681.000000	63.282355
1680.000000	63.349182
1679.000000	63.495448
1678.000000	63.611814
1677.000000	63.749785
1676.000000	63.859559
1675.000000	64.009573
1674.000000	64.140991
1673.000000	64.271933
1672.000000	64.370373
1671.000000	64.493040
1670.000000	64.623855
1669.000000	64.749564
1668.000000	64.826389
1667.000000	64.953708
1666.000000	65.038151
1665.000000	65.094539
1664.000000	65.152940
1663.000000	65.216770
1662.000000	65.283733
1661.000000	65.352471
1660.000000	65.371028
1659.000000	65.420238
1658.000000	65.461276
1657.000000	65.488042
1656.000000	65.524627
1655.000000	65.551407
1654.000000	65.573731
1653.000000	65.587706
1652.000000	65.605526
1651.000000	65.620042
1650.000000	65.606707
1649.000000	65.610625
1648.000000	65.616467
1647.000000	65.637712
1646.000000	65.606765
1645.000000	65.598735
1644.000000	65.584959
1643.000000	65.568139
1642.000000	65.545781
1641.000000	65.518537
1640.000000	65.526769
1639.000000	65.529280
1638.000000	65.496294
1637.000000	65.482766
1636.000000	65.452002
1635.000000	65.426565
1634.000000	65.421597
1633.000000	65.385566
1632.000000	65.364710
1631.000000	65.333062
1630.000000	65.322075
1629.000000	65.274430
1628.000000	65.239672
1627.000000	65.218347
1626.000000	65.188794
1625.000000	65.157087
1624.000000	65.116142
1623.000000	65.085938
1622.000000	65.065687
1621.000000	65.031108
1620.000000	65.011716
1619.000000	64.976558
1618.000000	64.939712
1617.000000	64.910164
1616.000000	64.877909
1615.000000	64.841328
1614.000000	64.786159
1613.000000	64.752067
1612.000000	64.721535
1611.000000	64.688549
1610.000000	64.647070
1609.000000	64.601427
1608.000000	64.539452
1607.000000	64.491772
1606.000000	64.458349
1605.000000	64.423086
1604.000000	64.393972
1603.000000	64.346258
1602.000000	64.308057
1601.000000	64.262835
1600.000000	64.209319
1599.000000	64.179026
1598.000000	64.137983
1597.000000	64.098133
1596.000000	64.061087
1595.000000	64.035012
1594.000000	64.005620
1593.000000	63.949963
1592.000000	63.905103
1591.000000	63.883134
1590.000000	63.843450
1589.000000	63.787998
1588.000000	63.769067
1587.000000	63.743285
1586.000000	63.701825
1585.000000	63.683940
1584.000000	63.642137
1583.000000	63.610979
1582.000000	63.580874
1581.000000	63.545650
1580.000000	63.520357
1579.000000	63.485521
1578.000000	63.454971
1577.000000	63.419601
1576.000000	63.380992
1575.000000	63.365044
1574.000000	63.336747
1573.000000	63.303081
1572.000000	63.266937
1571.000000	63.238346
1570.000000	63.213700
1569.000000	63.189312
1568.000000	63.171573
1567.000000	63.144357
1566.000000	63.107957
1565.000000	63.096571
1564.000000	63.083570
1563.000000	63.062358
1562.000000	63.056918
1561.000000	63.045253
1560.000000	63.028092
1559.000000	62.993666
1558.000000	62.983625
1557.000000	62.974995
1556.000000	62.967493
1555.000000	62.954567
1554.000000	62.917087
1553.000000	62.914954
1552.000000	62.912770
1551.000000	62.875752
1550.000000	62.852474
1549.000000	62.827067
1548.000000	62.807432
1547.000000	62.762584
1546.000000	62.722411
1545.000000	62.685970
1544.000000	62.623945
1543.000000	62.597371
1542.000000	62.546257
1541.000000	62.476134
1540.000000	62.425525
1539.000000	62.363398
1538.000000	62.292148
1537.000000	62.232895
1536.000000	62.173783
1535.000000	62.100678
1534.000000	62.017636
1533.000000	61.978655
1532.000000	61.895536
1531.000000	61.826877
1530.000000	61.777205
1529.000000	61.710874
1528.000000	61.662905
1527.000000	61.616162
1526.000000	61.554148
1525.000000	61.500773
1524.000000	61.433853
1523.000000	61.389154
1522.000000	61.356866
1521.000000	61.307988
1520.000000	61.286174
1519.000000	61.232215
1518.000000	61.181796
1517.000000	61.150334
1516.000000	61.098984
1515.000000	61.080137
1514.000000	61.063285
1513.000000	61.019602
1512.000000	61.018461
1511.000000	60.969276
1510.000000	60.970350
1509.000000	60.970241
1508.000000	60.936468
1507.000000	60.905291
1506.000000	60.906494
1505.000000	60.893379
1504.000000	60.907833
1503.000000	60.902156
1502.000000	60.878643
1501.000000	60.881047
1500.000000	60.889474
1499.000000	60.886093
1498.000000	60.913863
1497.000000	60.908660
1496.000000	60.929284
1495.000000	60.940014
1494.000000	60.954532
1493.000000	61.003765
1492.000000	61.025409
1491.000000	61.074182
1490.000000	61.106127
1489.000000	61.161304
1488.000000	61.226787
1487.000000	61.270306
1486.000000	61.319405
1485.000000	61.371144
1484.000000	61.426276
1483.000000	61.509020
1482.000000	61.547572
1481.000000	61.616064
1480.000000	61.693032
1479.000000	61.739996
1478.000000	61.789635
1477.000000	61.872442
1476.000000	61.918294
1475.000000	61.986389
1474.000000	62.043140
1473.000000	62.101153
1472.000000	62.155051
1471.000000	62.209663
1470.000000	62.312922
