PE UV       SUBTECH     SPECTRUM    ASCII       PEDS        4.00        
   -1
RDAgneauUK 42.Sample.asc
18/03/02
17:17:16.00
18/03/02
17:17:16.00
Administrator

200.000000
1
Lambda 750
750N8071901
PerkinElmer UV WinLab 6.0.4.0738 / 1.61.00 Lambda 900

0
0
3350/servo 860.8/2
0
0
UV/VIS
1
1
1
CommonBeamDepol,150mm sphere / downward view
0
0
0
0
Program
Program
3350/servo 860.8/2
3350/0.2 860.8/0.2
3350/0.2 860.8/0.2
0
1
 
 
 
0
 
860.8
319.2
860.8
Front
100
on
 
 
0
0
0
 
0
 
 
 
0
 
 
0
0
0
0
0
 
 
 
 
0
0


0
0
#HDR
-1
-1
#GR
nm
%R
1.0
0.0
2350.000000
-1.000000
2151
8
69.562506
16.358629
#DATA
2350.000000	41.117714
2349.000000	40.679929
2348.000000	40.514824
2347.000000	41.601521
2346.000000	41.453747
2345.000000	41.478850
2344.000000	41.272239
2343.000000	40.856023
2342.000000	41.334517
2341.000000	41.207571
2340.000000	41.420272
2339.000000	41.839702
2338.000000	41.831254
2337.000000	41.783553
2336.000000	41.683930
2335.000000	41.964185
2334.000000	41.875236
2333.000000	41.765188
2332.000000	41.776288
2331.000000	41.667079
2330.000000	41.590167
2329.000000	41.500063
2328.000000	41.350243
2327.000000	41.567763
2326.000000	41.571736
2325.000000	41.693352
2324.000000	41.561141
2323.000000	41.649010
2322.000000	41.398277
2321.000000	41.425919
2320.000000	41.340068
2319.000000	41.055547
2318.000000	41.389098
2317.000000	41.156456
2316.000000	41.235666
2315.000000	40.952419
2314.000000	40.740655
2313.000000	40.636275
2312.000000	40.787774
2311.000000	40.710781
2310.000000	40.558285
2309.000000	40.685688
2308.000000	40.560411
2307.000000	40.321983
2306.000000	40.386292
2305.000000	40.277839
2304.000000	40.104699
2303.000000	40.017874
2302.000000	40.170193
2301.000000	39.865241
2300.000000	39.829276
2299.000000	39.850982
2298.000000	39.754355
2297.000000	39.611116
2296.000000	39.510523
2295.000000	39.415204
2294.000000	39.313180
2293.000000	39.243433
2292.000000	39.200041
2291.000000	38.938658
2290.000000	39.015971
2289.000000	39.109756
2288.000000	39.125024
2287.000000	39.007362
2286.000000	38.774759
2285.000000	38.772712
2284.000000	38.823386
2283.000000	38.722724
2282.000000	38.620792
2281.000000	38.774930
2280.000000	38.635623
2279.000000	38.536537
2278.000000	38.613871
2277.000000	38.670890
2276.000000	38.662112
2275.000000	38.713508
2274.000000	38.688858
2273.000000	38.836341
2272.000000	38.927870
2271.000000	38.758414
2270.000000	38.702345
2269.000000	38.786390
2268.000000	39.011532
2267.000000	39.151702
2266.000000	39.269437
2265.000000	39.360862
2264.000000	39.533002
2263.000000	39.530970
2262.000000	39.503886
2261.000000	39.707107
2260.000000	39.917368
2259.000000	40.076007
2258.000000	40.383928
2257.000000	40.478612
2256.000000	40.606401
2255.000000	40.965299
2254.000000	41.019883
2253.000000	40.983900
2252.000000	41.338506
2251.000000	41.725755
2250.000000	42.009546
2249.000000	42.141064
2248.000000	42.318328
2247.000000	42.637697
2246.000000	42.780820
2245.000000	42.815646
2244.000000	42.961617
2243.000000	43.211286
2242.000000	43.435584
2241.000000	43.579412
2240.000000	43.711746
2239.000000	43.912216
2238.000000	44.026314
2237.000000	44.119003
2236.000000	44.324611
2235.000000	44.425463
2234.000000	44.415469
2233.000000	44.438360
2232.000000	44.506132
2231.000000	44.463693
2230.000000	44.553229
2229.000000	44.661308
2228.000000	44.793799
2227.000000	44.794792
2226.000000	44.757975
2225.000000	44.690870
2224.000000	44.661076
2223.000000	44.644889
2222.000000	44.769247
2221.000000	44.816606
2220.000000	44.800037
2219.000000	44.810669
2218.000000	44.607600
2217.000000	44.591655
2216.000000	44.576834
2215.000000	44.562506
2214.000000	44.615086
2213.000000	44.633029
2212.000000	44.567791
2211.000000	44.365365
2210.000000	44.218077
2209.000000	44.264046
2208.000000	44.180377
2207.000000	44.094832
2206.000000	44.091085
2205.000000	43.979451
2204.000000	43.962049
2203.000000	43.784542
2202.000000	43.684485
2201.000000	43.697519
2200.000000	43.638029
2199.000000	43.497576
2198.000000	43.376292
2197.000000	43.444158
2196.000000	43.356023
2195.000000	43.170143
2194.000000	43.173541
2193.000000	43.149250
2192.000000	43.127459
2191.000000	43.104263
2190.000000	42.964778
2189.000000	42.848783
2188.000000	42.786343
2187.000000	42.698931
2186.000000	42.654198
2185.000000	42.706975
2184.000000	42.777478
2183.000000	42.608103
2182.000000	42.371252
2181.000000	42.407290
2180.000000	42.383785
2179.000000	42.452531
2178.000000	42.402997
2177.000000	42.446132
2176.000000	42.567321
2175.000000	42.433559
2174.000000	42.675244
2173.000000	42.570967
2172.000000	42.533847
2171.000000	42.539698
2170.000000	42.507974
2169.000000	42.740877
2168.000000	42.883404
2167.000000	42.856237
2166.000000	42.960188
2165.000000	43.052215
2164.000000	43.170318
2163.000000	43.280350
2162.000000	43.453732
2161.000000	43.499486
2160.000000	43.675342
2159.000000	43.724562
2158.000000	43.866260
2157.000000	44.066743
2156.000000	44.203175
2155.000000	44.234625
2154.000000	44.579883
2153.000000	44.682317
2152.000000	44.708378
2151.000000	44.976071
2150.000000	45.193433
2149.000000	45.276285
2148.000000	45.520729
2147.000000	45.623502
2146.000000	45.829370
2145.000000	46.092930
2144.000000	46.074488
2143.000000	46.135825
2142.000000	46.280082
2141.000000	46.510262
2140.000000	46.570657
2139.000000	46.758558
2138.000000	46.945674
2137.000000	47.008963
2136.000000	47.116680
2135.000000	47.192702
2134.000000	47.356204
2133.000000	47.439200
2132.000000	47.623283
2131.000000	47.664624
2130.000000	47.927914
2129.000000	47.807929
2128.000000	47.927335
2127.000000	48.026840
2126.000000	48.046810
2125.000000	48.092622
2124.000000	48.141367
2123.000000	48.423496
2122.000000	48.324853
2121.000000	48.414085
2120.000000	48.243112
2119.000000	48.299793
2118.000000	48.472905
2117.000000	48.458463
2116.000000	48.484775
2115.000000	48.526216
2114.000000	48.682437
2113.000000	48.455039
2112.000000	48.625321
2111.000000	48.604999
2110.000000	48.619702
2109.000000	48.615500
2108.000000	48.732870
2107.000000	48.725935
2106.000000	48.713076
2105.000000	48.746003
2104.000000	48.757255
2103.000000	48.908023
2102.000000	48.783845
2101.000000	48.916436
2100.000000	48.896140
2099.000000	48.890540
2098.000000	48.804972
2097.000000	48.967483
2096.000000	48.893515
2095.000000	48.787603
2094.000000	48.851256
2093.000000	48.768149
2092.000000	48.957597
2091.000000	48.834775
2090.000000	48.713501
2089.000000	48.758343
2088.000000	48.749476
2087.000000	48.678578
2086.000000	48.717869
2085.000000	48.630225
2084.000000	48.498384
2083.000000	48.568740
2082.000000	48.611056
2081.000000	48.521849
2080.000000	48.445719
2079.000000	48.397398
2078.000000	48.299722
2077.000000	48.174797
2076.000000	48.140785
2075.000000	48.030090
2074.000000	47.915283
2073.000000	47.838447
2072.000000	47.764225
2071.000000	47.651074
2070.000000	47.579493
2069.000000	47.477404
2068.000000	47.302718
2067.000000	47.036415
2066.000000	46.892153
2065.000000	46.743749
2064.000000	46.598412
2063.000000	46.402540
2062.000000	46.298633
2061.000000	46.126786
2060.000000	45.951330
2059.000000	45.823073
2058.000000	45.733938
2057.000000	45.577257
2056.000000	45.443622
2055.000000	45.365170
2054.000000	45.228037
2053.000000	45.061871
2052.000000	44.927183
2051.000000	44.740510
2050.000000	44.619802
2049.000000	44.532432
2048.000000	44.418775
2047.000000	44.391245
2046.000000	44.364207
2045.000000	44.300673
2044.000000	44.229967
2043.000000	44.216903
2042.000000	44.164098
2041.000000	44.131148
2040.000000	44.193592
2039.000000	44.193230
2038.000000	44.228306
2037.000000	44.283278
2036.000000	44.338910
2035.000000	44.423444
2034.000000	44.496678
2033.000000	44.616557
2032.000000	44.829065
2031.000000	44.910351
2030.000000	44.973846
2029.000000	45.165855
2028.000000	45.274372
2027.000000	45.373394
2026.000000	45.589039
2025.000000	45.694928
2024.000000	45.763367
2023.000000	45.865727
2022.000000	45.944223
2021.000000	46.043200
2020.000000	46.148119
2019.000000	46.189526
2018.000000	46.228895
2017.000000	46.275603
2016.000000	46.271716
2015.000000	46.309266
2014.000000	46.402471
2013.000000	46.396386
2012.000000	46.349292
2011.000000	46.352315
2010.000000	46.324161
2009.000000	46.293828
2008.000000	46.283164
2007.000000	46.242520
2006.000000	46.166824
2005.000000	46.128147
2004.000000	46.051961
2003.000000	45.956890
2002.000000	45.885019
2001.000000	45.814666
2000.000000	45.774131
1999.000000	45.665339
1998.000000	45.590518
1997.000000	45.527196
1996.000000	45.419246
1995.000000	45.307507
1994.000000	45.229855
1993.000000	45.142296
1992.000000	45.040592
1991.000000	44.938659
1990.000000	44.886868
1989.000000	44.746380
1988.000000	44.648810
1987.000000	44.581100
1986.000000	44.473681
1985.000000	44.411451
1984.000000	44.294798
1983.000000	44.202722
1982.000000	44.119930
1981.000000	44.007645
1980.000000	43.900053
1979.000000	43.806595
1978.000000	43.713383
1977.000000	43.622159
1976.000000	43.513318
1975.000000	43.413231
1974.000000	43.314834
1973.000000	43.267935
1972.000000	43.165623
1971.000000	42.974296
1970.000000	42.925435
1969.000000	42.835465
1968.000000	42.749181
1967.000000	42.628900
1966.000000	42.561785
1965.000000	42.476856
1964.000000	42.372164
1963.000000	42.267178
1962.000000	42.181861
1961.000000	42.059056
1960.000000	41.997424
1959.000000	41.868985
1958.000000	41.807110
1957.000000	41.762313
1956.000000	41.663728
1955.000000	41.552046
1954.000000	41.473079
1953.000000	41.445951
1952.000000	41.378923
1951.000000	41.334188
1950.000000	41.251897
1949.000000	41.168479
1948.000000	41.180193
1947.000000	41.111066
1946.000000	41.068584
1945.000000	41.101329
1944.000000	40.978356
1943.000000	41.058232
1942.000000	41.101712
1941.000000	41.062160
1940.000000	41.198188
1939.000000	41.173573
1938.000000	41.224654
1937.000000	41.340089
1936.000000	41.453417
1935.000000	41.503600
1934.000000	41.571089
1933.000000	41.628681
1932.000000	41.841850
1931.000000	42.000789
1930.000000	42.132718
1929.000000	42.340562
1928.000000	42.594469
1927.000000	42.764582
1926.000000	42.881202
1925.000000	43.178123
1924.000000	43.307582
1923.000000	43.594325
1922.000000	43.878323
1921.000000	44.197966
1920.000000	44.359806
1919.000000	44.664175
1918.000000	45.012749
1917.000000	45.292907
1916.000000	45.641351
1915.000000	45.963976
1914.000000	46.246577
1913.000000	46.662276
1912.000000	46.976853
1911.000000	47.245002
1910.000000	47.606542
1909.000000	48.050343
1908.000000	48.294031
1907.000000	48.813864
1906.000000	49.195415
1905.000000	49.605045
1904.000000	49.969094
1903.000000	50.427229
1902.000000	50.827280
1901.000000	51.262773
1900.000000	51.711484
1899.000000	52.058273
1898.000000	52.524070
1897.000000	52.918133
1896.000000	53.300762
1895.000000	53.755638
1894.000000	54.133678
1893.000000	54.454178
1892.000000	54.810633
1891.000000	55.181319
1890.000000	55.622802
1889.000000	55.987720
1888.000000	56.246034
1887.000000	56.623716
1886.000000	56.917218
1885.000000	57.157816
1884.000000	57.506186
1883.000000	57.770048
1882.000000	57.981865
1881.000000	58.242344
1880.000000	58.462552
1879.000000	58.699934
1878.000000	58.925381
1877.000000	59.200970
1876.000000	59.307088
1875.000000	59.500482
1874.000000	59.739220
1873.000000	59.808523
1872.000000	60.028451
1871.000000	60.135751
1870.000000	60.221306
1869.000000	60.387347
1868.000000	60.507005
1867.000000	60.527336
1866.000000	60.581262
1865.000000	60.689768
1864.000000	60.748130
1863.000000	60.829695
1862.000000	60.885394
1861.000000	60.867108
1860.000000	60.936579
1859.000000	60.975967
1858.000000	60.988887
1857.000000	61.042370
1856.000000	61.080477
1855.000000	61.055605
1854.000000	61.097997
1853.000000	61.111240
1852.000000	61.107281
1851.000000	61.124482
1850.000000	61.111712
1849.000000	61.091138
1848.000000	61.097682
1847.000000	61.125129
1846.000000	61.123821
1845.000000	61.117153
1844.000000	61.100274
1843.000000	61.031724
1842.000000	61.022901
1841.000000	61.026743
1840.000000	61.018407
1839.000000	61.007061
1838.000000	60.966591
1837.000000	60.935219
1836.000000	60.888251
1835.000000	60.885328
1834.000000	60.847769
1833.000000	60.809885
1832.000000	60.764084
1831.000000	60.719857
1830.000000	60.732356
1829.000000	60.684615
1828.000000	60.647407
1827.000000	60.604460
1826.000000	60.597124
1825.000000	60.600184
1824.000000	60.618365
1823.000000	60.567708
1822.000000	60.506232
1821.000000	60.487616
1820.000000	60.456784
1819.000000	60.427174
1818.000000	60.416928
1817.000000	60.402868
1816.000000	60.360851
1815.000000	60.354061
1814.000000	60.332926
1813.000000	60.267217
1812.000000	60.256260
1811.000000	60.237277
1810.000000	60.215270
1809.000000	60.219291
1808.000000	60.200479
1807.000000	60.156025
1806.000000	60.126247
1805.000000	60.095652
1804.000000	60.065978
1803.000000	60.067706
1802.000000	60.052347
1801.000000	60.040237
1800.000000	59.995985
1799.000000	59.936413
1798.000000	59.931155
1797.000000	59.929553
1796.000000	59.891187
1795.000000	59.886647
1794.000000	59.879184
1793.000000	59.855660
1792.000000	59.857962
1791.000000	59.835842
1790.000000	59.800001
1789.000000	59.763956
1788.000000	59.775073
1787.000000	59.737481
1786.000000	59.712780
1785.000000	59.709396
1784.000000	59.667387
1783.000000	59.647897
1782.000000	59.614441
1781.000000	59.594463
1780.000000	59.571626
1779.000000	59.538233
1778.000000	59.494914
1777.000000	59.453879
1776.000000	59.412058
1775.000000	59.360811
1774.000000	59.290891
1773.000000	59.253614
1772.000000	59.206258
1771.000000	59.173467
1770.000000	59.129603
1769.000000	59.080913
1768.000000	59.003547
1767.000000	58.974749
1766.000000	58.953703
1765.000000	58.907034
1764.000000	58.899586
1763.000000	58.798447
1762.000000	58.768833
1761.000000	58.717739
1760.000000	58.675024
1759.000000	58.615276
1758.000000	58.583434
1757.000000	58.554644
1756.000000	58.535323
1755.000000	58.473631
1754.000000	58.382988
1753.000000	58.343567
1752.000000	58.304430
1751.000000	58.261105
1750.000000	58.215803
1749.000000	58.206368
1748.000000	58.135772
1747.000000	58.066488
1746.000000	58.034051
1745.000000	57.985586
1744.000000	57.905649
1743.000000	57.878623
1742.000000	57.865254
1741.000000	57.816430
1740.000000	57.748362
1739.000000	57.694004
1738.000000	57.664543
1737.000000	57.610512
1736.000000	57.601626
1735.000000	57.605538
1734.000000	57.592413
1733.000000	57.556669
1732.000000	57.579174
1731.000000	57.634970
1730.000000	57.590441
1729.000000	57.608351
1728.000000	57.668944
1727.000000	57.677907
1726.000000	57.776651
1725.000000	57.822728
1724.000000	57.827225
1723.000000	57.925730
1722.000000	57.974783
1721.000000	58.053980
1720.000000	58.147901
1719.000000	58.221416
1718.000000	58.284055
1717.000000	58.386982
1716.000000	58.470385
1715.000000	58.514557
1714.000000	58.579547
1713.000000	58.689914
1712.000000	58.720764
1711.000000	58.796562
1710.000000	58.824502
1709.000000	58.871332
1708.000000	58.904021
1707.000000	58.958211
1706.000000	58.997185
1705.000000	59.005367
1704.000000	59.013114
1703.000000	59.062814
1702.000000	59.054911
1701.000000	59.050798
1700.000000	59.087279
1699.000000	59.098240
1698.000000	59.123622
1697.000000	59.193131
1696.000000	59.198799
1695.000000	59.164450
1694.000000	59.231497
1693.000000	59.254757
1692.000000	59.257476
1691.000000	59.344689
1690.000000	59.395795
1689.000000	59.437724
1688.000000	59.494541
1687.000000	59.600695
1686.000000	59.675897
1685.000000	59.789692
1684.000000	59.907551
1683.000000	60.016361
1682.000000	60.132160
1681.000000	60.280221
1680.000000	60.381796
1679.000000	60.484102
1678.000000	60.600719
1677.000000	60.747646
1676.000000	60.913926
1675.000000	61.013741
1674.000000	61.160141
1673.000000	61.296824
1672.000000	61.409482
1671.000000	61.551053
1670.000000	61.696742
1669.000000	61.830893
1668.000000	61.906306
1667.000000	62.018221
1666.000000	62.111727
1665.000000	62.198114
1664.000000	62.253721
1663.000000	62.312924
1662.000000	62.376492
1661.000000	62.458803
1660.000000	62.489603
1659.000000	62.548781
1658.000000	62.594179
1657.000000	62.626516
1656.000000	62.691495
1655.000000	62.710460
1654.000000	62.737123
1653.000000	62.735794
1652.000000	62.760337
1651.000000	62.751077
1650.000000	62.762263
1649.000000	62.763191
1648.000000	62.773876
1647.000000	62.783418
1646.000000	62.753935
1645.000000	62.724650
1644.000000	62.708183
1643.000000	62.722684
1642.000000	62.722121
1641.000000	62.690511
1640.000000	62.702808
1639.000000	62.676882
1638.000000	62.633875
1637.000000	62.627241
1636.000000	62.584745
1635.000000	62.572158
1634.000000	62.559354
1633.000000	62.521778
1632.000000	62.518348
1631.000000	62.512957
1630.000000	62.465311
1629.000000	62.423598
1628.000000	62.394125
1627.000000	62.387661
1626.000000	62.365603
1625.000000	62.286332
1624.000000	62.256340
1623.000000	62.232482
1622.000000	62.189231
1621.000000	62.160481
1620.000000	62.148275
1619.000000	62.107957
1618.000000	62.049514
1617.000000	62.032940
1616.000000	62.015964
1615.000000	61.956491
1614.000000	61.908467
1613.000000	61.874952
1612.000000	61.838024
1611.000000	61.808638
1610.000000	61.781271
1609.000000	61.744466
1608.000000	61.694343
1607.000000	61.638762
1606.000000	61.579917
1605.000000	61.541578
1604.000000	61.499285
1603.000000	61.435720
1602.000000	61.394725
1601.000000	61.364097
1600.000000	61.323775
1599.000000	61.284944
1598.000000	61.240722
1597.000000	61.201354
1596.000000	61.154942
1595.000000	61.114358
1594.000000	61.091011
1593.000000	61.054620
1592.000000	61.003967
1591.000000	60.959260
1590.000000	60.915961
1589.000000	60.880464
1588.000000	60.865491
1587.000000	60.845840
1586.000000	60.805017
1585.000000	60.759115
1584.000000	60.710480
1583.000000	60.678111
1582.000000	60.641458
1581.000000	60.604646
1580.000000	60.585444
1579.000000	60.558489
1578.000000	60.544989
1577.000000	60.496544
1576.000000	60.444099
1575.000000	60.416888
1574.000000	60.393327
1573.000000	60.366388
1572.000000	60.331816
1571.000000	60.302128
1570.000000	60.262897
1569.000000	60.236951
1568.000000	60.225404
1567.000000	60.206871
1566.000000	60.166837
1565.000000	60.152220
1564.000000	60.139243
1563.000000	60.122343
1562.000000	60.096141
1561.000000	60.068947
1560.000000	60.054907
1559.000000	60.027241
1558.000000	60.004840
1557.000000	59.992142
1556.000000	59.983414
1555.000000	59.981310
1554.000000	59.966548
1553.000000	59.958186
1552.000000	59.951539
1551.000000	59.919043
1550.000000	59.879911
1549.000000	59.856610
1548.000000	59.821944
1547.000000	59.787219
1546.000000	59.753589
1545.000000	59.714900
1544.000000	59.668408
1543.000000	59.619306
1542.000000	59.557248
1541.000000	59.504551
1540.000000	59.456463
1539.000000	59.363667
1538.000000	59.305620
1537.000000	59.238866
1536.000000	59.187321
1535.000000	59.114299
1534.000000	59.022184
1533.000000	58.982852
1532.000000	58.899558
1531.000000	58.833264
1530.000000	58.773962
1529.000000	58.702879
1528.000000	58.648479
1527.000000	58.598211
1526.000000	58.544918
1525.000000	58.490195
1524.000000	58.417309
1523.000000	58.371248
1522.000000	58.335983
1521.000000	58.283082
1520.000000	58.258697
1519.000000	58.204526
1518.000000	58.178967
1517.000000	58.137458
1516.000000	58.095220
1515.000000	58.070094
1514.000000	58.035136
1513.000000	57.985682
1512.000000	57.980129
1511.000000	57.962551
1510.000000	57.945094
1509.000000	57.952002
1508.000000	57.908952
1507.000000	57.893021
1506.000000	57.867229
1505.000000	57.856222
1504.000000	57.866498
1503.000000	57.858142
1502.000000	57.847865
1501.000000	57.829299
1500.000000	57.841122
1499.000000	57.868926
1498.000000	57.867315
1497.000000	57.876789
1496.000000	57.891214
1495.000000	57.904403
1494.000000	57.930086
1493.000000	57.959691
1492.000000	57.995511
1491.000000	58.028770
1490.000000	58.075996
1489.000000	58.118941
1488.000000	58.180826
1487.000000	58.222260
1486.000000	58.259721
1485.000000	58.316891
1484.000000	58.386444
1483.000000	58.455591
1482.000000	58.518953
1481.000000	58.556252
1480.000000	58.668488
1479.000000	58.718348
1478.000000	58.767778
1477.000000	58.833484
1476.000000	58.868422
1475.000000	58.930554
1474.000000	59.009886
1473.000000	59.047909
1472.000000	59.116465
1471.000000	59.160093
1470.000000	59.251130
