PE UV       SUBTECH     SPECTRUM    ASCII       PEDS        4.00        
   -1
RDAgneauUK 22.Sample.asc
18/03/02
16:56:46.00
18/03/02
16:56:46.00
Administrator

200.000000
1
Lambda 750
750N8071901
PerkinElmer UV WinLab 6.0.4.0738 / 1.61.00 Lambda 900

0
0
3350/servo 860.8/2
0
0
UV/VIS
1
1
1
CommonBeamDepol,150mm sphere / downward view
0
0
0
0
Program
Program
3350/servo 860.8/2
3350/0.2 860.8/0.2
3350/0.2 860.8/0.2
0
1
 
 
 
0
 
860.8
319.2
860.8
Front
100
on
 
 
0
0
0
 
0
 
 
 
0
 
 
0
0
0
0
0
 
 
 
 
0
0


0
0
#HDR
-1
-1
#GR
nm
%R
1.0
0.0
2350.000000
-1.000000
2151
8
69.927952
17.429360
#DATA
2350.000000	41.286323
2349.000000	41.126744
2348.000000	41.084490
2347.000000	41.998800
2346.000000	41.631722
2345.000000	41.095993
2344.000000	41.310020
2343.000000	41.196938
2342.000000	41.100099
2341.000000	41.287452
2340.000000	41.425728
2339.000000	41.718076
2338.000000	41.669138
2337.000000	41.653876
2336.000000	42.188227
2335.000000	42.205849
2334.000000	42.216994
2333.000000	41.871851
2332.000000	41.996153
2331.000000	42.016999
2330.000000	41.749998
2329.000000	41.960487
2328.000000	41.642435
2327.000000	41.631403
2326.000000	41.711997
2325.000000	41.414825
2324.000000	41.584673
2323.000000	41.483931
2322.000000	41.238051
2321.000000	41.128298
2320.000000	41.438514
2319.000000	41.212865
2318.000000	41.417049
2317.000000	41.216879
2316.000000	41.073065
2315.000000	41.106508
2314.000000	41.010739
2313.000000	40.752734
2312.000000	40.733532
2311.000000	40.811213
2310.000000	40.755240
2309.000000	40.992101
2308.000000	40.673879
2307.000000	40.805573
2306.000000	40.425938
2305.000000	40.387672
2304.000000	40.320724
2303.000000	40.068309
2302.000000	40.105954
2301.000000	40.074698
2300.000000	39.929654
2299.000000	39.817386
2298.000000	39.744857
2297.000000	39.791052
2296.000000	39.575260
2295.000000	39.533979
2294.000000	39.372570
2293.000000	39.460300
2292.000000	39.326089
2291.000000	39.133573
2290.000000	39.093857
2289.000000	39.201907
2288.000000	39.264036
2287.000000	39.009586
2286.000000	38.778290
2285.000000	38.696837
2284.000000	38.858441
2283.000000	38.837691
2282.000000	38.831810
2281.000000	38.916386
2280.000000	38.869155
2279.000000	38.655001
2278.000000	38.769841
2277.000000	38.755529
2276.000000	38.755506
2275.000000	38.653976
2274.000000	38.798528
2273.000000	38.924082
2272.000000	39.080347
2271.000000	39.097109
2270.000000	38.988559
2269.000000	39.105309
2268.000000	39.284684
2267.000000	39.200849
2266.000000	39.219708
2265.000000	39.423858
2264.000000	39.575943
2263.000000	39.575618
2262.000000	39.765674
2261.000000	39.892312
2260.000000	39.974025
2259.000000	40.236861
2258.000000	40.459426
2257.000000	40.586585
2256.000000	40.730608
2255.000000	40.964287
2254.000000	41.113268
2253.000000	41.288470
2252.000000	41.542588
2251.000000	41.742946
2250.000000	41.926982
2249.000000	42.078105
2248.000000	42.270385
2247.000000	42.641037
2246.000000	42.866795
2245.000000	43.069438
2244.000000	43.298123
2243.000000	43.387896
2242.000000	43.501278
2241.000000	43.516469
2240.000000	43.659604
2239.000000	44.019156
2238.000000	44.270567
2237.000000	44.347816
2236.000000	44.434726
2235.000000	44.479543
2234.000000	44.556766
2233.000000	44.680851
2232.000000	44.702479
2231.000000	44.825837
2230.000000	44.798422
2229.000000	44.733671
2228.000000	44.899357
2227.000000	44.874247
2226.000000	44.747556
2225.000000	44.873288
2224.000000	44.962131
2223.000000	44.945843
2222.000000	44.992179
2221.000000	44.984939
2220.000000	44.876997
2219.000000	44.883368
2218.000000	44.757160
2217.000000	44.655102
2216.000000	44.708808
2215.000000	44.666024
2214.000000	44.545806
2213.000000	44.584611
2212.000000	44.582052
2211.000000	44.464672
2210.000000	44.371451
2209.000000	44.270608
2208.000000	44.240244
2207.000000	44.204582
2206.000000	44.248732
2205.000000	44.048802
2204.000000	43.956693
2203.000000	43.834868
2202.000000	43.869640
2201.000000	43.788654
2200.000000	43.755112
2199.000000	43.637286
2198.000000	43.648245
2197.000000	43.711850
2196.000000	43.496228
2195.000000	43.424123
2194.000000	43.329204
2193.000000	43.304009
2192.000000	43.240042
2191.000000	43.148092
2190.000000	43.101657
2189.000000	42.964307
2188.000000	42.862116
2187.000000	42.737259
2186.000000	42.628880
2185.000000	42.641378
2184.000000	42.733673
2183.000000	42.829408
2182.000000	42.733714
2181.000000	42.633275
2180.000000	42.641610
2179.000000	42.515027
2178.000000	42.408133
2177.000000	42.458220
2176.000000	42.529491
2175.000000	42.505689
2174.000000	42.762215
2173.000000	42.719045
2172.000000	42.708495
2171.000000	42.579172
2170.000000	42.726001
2169.000000	43.005821
2168.000000	42.960762
2167.000000	43.028052
2166.000000	43.162306
2165.000000	43.109292
2164.000000	43.302210
2163.000000	43.425427
2162.000000	43.445983
2161.000000	43.782520
2160.000000	43.876310
2159.000000	43.930934
2158.000000	44.027339
2157.000000	44.250555
2156.000000	44.432968
2155.000000	44.660814
2154.000000	44.646033
2153.000000	45.040083
2152.000000	44.990462
2151.000000	45.296501
2150.000000	45.418347
2149.000000	45.448342
2148.000000	45.563572
2147.000000	45.924749
2146.000000	45.936677
2145.000000	46.094137
2144.000000	46.105875
2143.000000	46.232769
2142.000000	46.464800
2141.000000	46.555909
2140.000000	46.851815
2139.000000	46.994080
2138.000000	47.254992
2137.000000	47.154421
2136.000000	47.367421
2135.000000	47.576639
2134.000000	47.664668
2133.000000	47.605178
2132.000000	47.766988
2131.000000	47.874128
2130.000000	48.087658
2129.000000	48.067245
2128.000000	48.158525
2127.000000	48.364005
2126.000000	48.320967
2125.000000	48.204073
2124.000000	48.300812
2123.000000	48.525528
2122.000000	48.479897
2121.000000	48.607351
2120.000000	48.524962
2119.000000	48.590618
2118.000000	48.661824
2117.000000	48.620974
2116.000000	48.665066
2115.000000	48.832216
2114.000000	48.705754
2113.000000	48.790292
2112.000000	48.802683
2111.000000	48.715593
2110.000000	48.684879
2109.000000	48.992857
2108.000000	48.985489
2107.000000	48.873964
2106.000000	48.981258
2105.000000	48.993890
2104.000000	48.996252
2103.000000	49.142965
2102.000000	49.053284
2101.000000	49.113503
2100.000000	49.108737
2099.000000	49.068662
2098.000000	49.020692
2097.000000	49.063852
2096.000000	48.990196
2095.000000	48.988997
2094.000000	49.108439
2093.000000	49.006773
2092.000000	49.113822
2091.000000	48.995617
2090.000000	49.009099
2089.000000	48.937329
2088.000000	48.890417
2087.000000	48.915382
2086.000000	49.034214
2085.000000	48.968042
2084.000000	48.766627
2083.000000	48.838082
2082.000000	48.783949
2081.000000	48.670380
2080.000000	48.556166
2079.000000	48.584924
2078.000000	48.431855
2077.000000	48.315977
2076.000000	48.293488
2075.000000	48.153752
2074.000000	48.023442
2073.000000	48.038184
2072.000000	47.878027
2071.000000	47.733505
2070.000000	47.643513
2069.000000	47.483770
2068.000000	47.364828
2067.000000	47.218259
2066.000000	47.091972
2065.000000	46.941722
2064.000000	46.773324
2063.000000	46.616056
2062.000000	46.482549
2061.000000	46.317758
2060.000000	46.093042
2059.000000	45.937725
2058.000000	45.828913
2057.000000	45.699253
2056.000000	45.629510
2055.000000	45.533972
2054.000000	45.371037
2053.000000	45.166715
2052.000000	45.016089
2051.000000	44.911288
2050.000000	44.756897
2049.000000	44.692628
2048.000000	44.613433
2047.000000	44.574456
2046.000000	44.515869
2045.000000	44.399461
2044.000000	44.352808
2043.000000	44.330056
2042.000000	44.331720
2041.000000	44.389098
2040.000000	44.398422
2039.000000	44.339080
2038.000000	44.371433
2037.000000	44.416143
2036.000000	44.488492
2035.000000	44.580526
2034.000000	44.687265
2033.000000	44.837628
2032.000000	44.961934
2031.000000	45.061695
2030.000000	45.174385
2029.000000	45.343332
2028.000000	45.471017
2027.000000	45.621959
2026.000000	45.806714
2025.000000	45.908763
2024.000000	45.986377
2023.000000	46.073644
2022.000000	46.160835
2021.000000	46.233760
2020.000000	46.322313
2019.000000	46.387098
2018.000000	46.444760
2017.000000	46.512346
2016.000000	46.516545
2015.000000	46.493201
2014.000000	46.508143
2013.000000	46.532221
2012.000000	46.547710
2011.000000	46.518521
2010.000000	46.497208
2009.000000	46.473182
2008.000000	46.430943
2007.000000	46.388475
2006.000000	46.343231
2005.000000	46.316554
2004.000000	46.245052
2003.000000	46.147046
2002.000000	46.089366
2001.000000	46.044247
2000.000000	45.994447
1999.000000	45.868289
1998.000000	45.767102
1997.000000	45.712425
1996.000000	45.611771
1995.000000	45.478940
1994.000000	45.379406
1993.000000	45.323818
1992.000000	45.212707
1991.000000	45.096381
1990.000000	45.030595
1989.000000	44.934502
1988.000000	44.810731
1987.000000	44.778363
1986.000000	44.634234
1985.000000	44.538987
1984.000000	44.472563
1983.000000	44.392601
1982.000000	44.275882
1981.000000	44.150220
1980.000000	44.099322
1979.000000	43.998990
1978.000000	43.872448
1977.000000	43.771861
1976.000000	43.629620
1975.000000	43.557845
1974.000000	43.477970
1973.000000	43.390228
1972.000000	43.311689
1971.000000	43.153023
1970.000000	43.093531
1969.000000	43.008885
1968.000000	42.903509
1967.000000	42.750850
1966.000000	42.746655
1965.000000	42.633987
1964.000000	42.506678
1963.000000	42.443111
1962.000000	42.376449
1961.000000	42.229496
1960.000000	42.171733
1959.000000	42.053323
1958.000000	41.920841
1957.000000	41.843797
1956.000000	41.787663
1955.000000	41.707597
1954.000000	41.673216
1953.000000	41.584801
1952.000000	41.477644
1951.000000	41.405654
1950.000000	41.379230
1949.000000	41.306967
1948.000000	41.248427
1947.000000	41.281696
1946.000000	41.136727
1945.000000	41.222914
1944.000000	41.196625
1943.000000	41.202516
1942.000000	41.286741
1941.000000	41.294014
1940.000000	41.341024
1939.000000	41.344839
1938.000000	41.381417
1937.000000	41.497850
1936.000000	41.606135
1935.000000	41.715843
1934.000000	41.750038
1933.000000	41.895884
1932.000000	42.052231
1931.000000	42.169358
1930.000000	42.346347
1929.000000	42.547284
1928.000000	42.724311
1927.000000	42.985647
1926.000000	43.053758
1925.000000	43.422484
1924.000000	43.656857
1923.000000	43.797850
1922.000000	44.049817
1921.000000	44.364794
1920.000000	44.683021
1919.000000	45.013176
1918.000000	45.201791
1917.000000	45.581260
1916.000000	45.833220
1915.000000	46.171244
1914.000000	46.588478
1913.000000	46.942494
1912.000000	47.267008
1911.000000	47.574289
1910.000000	47.881517
1909.000000	48.348773
1908.000000	48.655332
1907.000000	49.186065
1906.000000	49.537324
1905.000000	49.932909
1904.000000	50.368697
1903.000000	50.735549
1902.000000	51.237125
1901.000000	51.603343
1900.000000	52.061847
1899.000000	52.424831
1898.000000	52.971055
1897.000000	53.343189
1896.000000	53.706422
1895.000000	54.180042
1894.000000	54.528982
1893.000000	54.905390
1892.000000	55.307203
1891.000000	55.722723
1890.000000	56.111169
1889.000000	56.412945
1888.000000	56.728495
1887.000000	57.099470
1886.000000	57.357827
1885.000000	57.680973
1884.000000	57.984497
1883.000000	58.259684
1882.000000	58.509952
1881.000000	58.773622
1880.000000	58.960932
1879.000000	59.208416
1878.000000	59.383868
1877.000000	59.712432
1876.000000	59.900025
1875.000000	60.062192
1874.000000	60.262660
1873.000000	60.350981
1872.000000	60.534321
1871.000000	60.628557
1870.000000	60.774065
1869.000000	60.878627
1868.000000	60.976278
1867.000000	61.016513
1866.000000	61.031402
1865.000000	61.153023
1864.000000	61.227815
1863.000000	61.243027
1862.000000	61.346082
1861.000000	61.420663
1860.000000	61.451398
1859.000000	61.470633
1858.000000	61.471068
1857.000000	61.520447
1856.000000	61.505055
1855.000000	61.575322
1854.000000	61.586186
1853.000000	61.576540
1852.000000	61.598324
1851.000000	61.599662
1850.000000	61.610044
1849.000000	61.599703
1848.000000	61.606082
1847.000000	61.640191
1846.000000	61.609283
1845.000000	61.613133
1844.000000	61.580082
1843.000000	61.495556
1842.000000	61.487002
1841.000000	61.507454
1840.000000	61.489889
1839.000000	61.473617
1838.000000	61.484559
1837.000000	61.389795
1836.000000	61.322479
1835.000000	61.335355
1834.000000	61.307603
1833.000000	61.259372
1832.000000	61.262998
1831.000000	61.204544
1830.000000	61.163546
1829.000000	61.121909
1828.000000	61.088899
1827.000000	61.050035
1826.000000	61.051429
1825.000000	61.054568
1824.000000	61.057812
1823.000000	61.055991
1822.000000	60.994839
1821.000000	60.974137
1820.000000	60.939635
1819.000000	60.881910
1818.000000	60.878933
1817.000000	60.859789
1816.000000	60.834206
1815.000000	60.822225
1814.000000	60.768644
1813.000000	60.721968
1812.000000	60.707404
1811.000000	60.692456
1810.000000	60.665327
1809.000000	60.640825
1808.000000	60.651036
1807.000000	60.605345
1806.000000	60.580256
1805.000000	60.552624
1804.000000	60.511305
1803.000000	60.504784
1802.000000	60.478672
1801.000000	60.454368
1800.000000	60.437426
1799.000000	60.410271
1798.000000	60.400294
1797.000000	60.383178
1796.000000	60.378677
1795.000000	60.384049
1794.000000	60.359223
1793.000000	60.324117
1792.000000	60.294300
1791.000000	60.291374
1790.000000	60.276773
1789.000000	60.242960
1788.000000	60.236248
1787.000000	60.200236
1786.000000	60.169407
1785.000000	60.178995
1784.000000	60.125377
1783.000000	60.104026
1782.000000	60.091015
1781.000000	60.084016
1780.000000	60.020181
1779.000000	59.973428
1778.000000	59.936813
1777.000000	59.887936
1776.000000	59.851260
1775.000000	59.814447
1774.000000	59.739066
1773.000000	59.708163
1772.000000	59.671130
1771.000000	59.625812
1770.000000	59.585817
1769.000000	59.519105
1768.000000	59.484645
1767.000000	59.441657
1766.000000	59.386719
1765.000000	59.349599
1764.000000	59.323134
1763.000000	59.265326
1762.000000	59.208384
1761.000000	59.198952
1760.000000	59.119341
1759.000000	59.054125
1758.000000	59.006832
1757.000000	58.962725
1756.000000	58.957463
1755.000000	58.894269
1754.000000	58.822169
1753.000000	58.788656
1752.000000	58.738079
1751.000000	58.689354
1750.000000	58.631844
1749.000000	58.617668
1748.000000	58.533701
1747.000000	58.468632
1746.000000	58.453202
1745.000000	58.406139
1744.000000	58.347500
1743.000000	58.314098
1742.000000	58.273492
1741.000000	58.210979
1740.000000	58.174628
1739.000000	58.093100
1738.000000	58.064722
1737.000000	58.037753
1736.000000	58.025005
1735.000000	58.007291
1734.000000	58.035378
1733.000000	58.022551
1732.000000	58.002745
1731.000000	58.032161
1730.000000	58.032014
1729.000000	58.069036
1728.000000	58.092098
1727.000000	58.140966
1726.000000	58.200267
1725.000000	58.253669
1724.000000	58.271929
1723.000000	58.382186
1722.000000	58.434465
1721.000000	58.543446
1720.000000	58.616996
1719.000000	58.703018
1718.000000	58.748144
1717.000000	58.824317
1716.000000	58.914492
1715.000000	58.972727
1714.000000	59.042994
1713.000000	59.132038
1712.000000	59.168037
1711.000000	59.211611
1710.000000	59.254888
1709.000000	59.266001
1708.000000	59.340981
1707.000000	59.381027
1706.000000	59.427029
1705.000000	59.458920
1704.000000	59.472593
1703.000000	59.488863
1702.000000	59.502090
1701.000000	59.524720
1700.000000	59.517530
1699.000000	59.547103
1698.000000	59.559449
1697.000000	59.586429
1696.000000	59.621887
1695.000000	59.592563
1694.000000	59.641623
1693.000000	59.688335
1692.000000	59.724442
1691.000000	59.758783
1690.000000	59.835423
1689.000000	59.913891
1688.000000	59.975795
1687.000000	60.053727
1686.000000	60.167881
1685.000000	60.254441
1684.000000	60.371519
1683.000000	60.483179
1682.000000	60.630775
1681.000000	60.768275
1680.000000	60.871663
1679.000000	60.992617
1678.000000	61.131272
1677.000000	61.227659
1676.000000	61.359709
1675.000000	61.502944
1674.000000	61.670805
1673.000000	61.838233
1672.000000	61.911833
1671.000000	62.010691
1670.000000	62.169642
1669.000000	62.300888
1668.000000	62.402121
1667.000000	62.539860
1666.000000	62.580076
1665.000000	62.690292
1664.000000	62.718467
1663.000000	62.789602
1662.000000	62.862924
1661.000000	62.915836
1660.000000	62.972036
1659.000000	63.017750
1658.000000	63.085253
1657.000000	63.107760
1656.000000	63.156119
1655.000000	63.167066
1654.000000	63.208101
1653.000000	63.211332
1652.000000	63.229688
1651.000000	63.213771
1650.000000	63.230917
1649.000000	63.248437
1648.000000	63.252404
1647.000000	63.255857
1646.000000	63.227938
1645.000000	63.232491
1644.000000	63.193741
1643.000000	63.198649
1642.000000	63.189996
1641.000000	63.171219
1640.000000	63.178787
1639.000000	63.160150
1638.000000	63.101153
1637.000000	63.072787
1636.000000	63.056239
1635.000000	63.049125
1634.000000	63.006728
1633.000000	62.967270
1632.000000	62.945333
1631.000000	62.954621
1630.000000	62.909895
1629.000000	62.870588
1628.000000	62.855820
1627.000000	62.823798
1626.000000	62.795490
1625.000000	62.757379
1624.000000	62.732822
1623.000000	62.694687
1622.000000	62.653074
1621.000000	62.625531
1620.000000	62.614186
1619.000000	62.561288
1618.000000	62.513117
1617.000000	62.496708
1616.000000	62.449460
1615.000000	62.398348
1614.000000	62.371300
1613.000000	62.328658
1612.000000	62.295970
1611.000000	62.253322
1610.000000	62.206517
1609.000000	62.176829
1608.000000	62.125951
1607.000000	62.080857
1606.000000	62.031634
1605.000000	61.964826
1604.000000	61.915590
1603.000000	61.895486
1602.000000	61.868682
1601.000000	61.810212
1600.000000	61.755112
1599.000000	61.727515
1598.000000	61.675235
1597.000000	61.626770
1596.000000	61.593330
1595.000000	61.565076
1594.000000	61.532228
1593.000000	61.496442
1592.000000	61.435142
1591.000000	61.384135
1590.000000	61.360874
1589.000000	61.311003
1588.000000	61.288522
1587.000000	61.268315
1586.000000	61.214940
1585.000000	61.166081
1584.000000	61.126641
1583.000000	61.110171
1582.000000	61.085145
1581.000000	61.052434
1580.000000	61.022784
1579.000000	60.997990
1578.000000	60.974315
1577.000000	60.928070
1576.000000	60.898507
1575.000000	60.869609
1574.000000	60.836952
1573.000000	60.814042
1572.000000	60.780288
1571.000000	60.718651
1570.000000	60.687116
1569.000000	60.670827
1568.000000	60.640339
1567.000000	60.611234
1566.000000	60.590310
1565.000000	60.564263
1564.000000	60.537166
1563.000000	60.523167
1562.000000	60.516693
1561.000000	60.492166
1560.000000	60.475264
1559.000000	60.455399
1558.000000	60.451415
1557.000000	60.439529
1556.000000	60.408279
1555.000000	60.390555
1554.000000	60.372346
1553.000000	60.373798
1552.000000	60.356158
1551.000000	60.334155
1550.000000	60.296811
1549.000000	60.279066
1548.000000	60.241066
1547.000000	60.197534
1546.000000	60.161811
1545.000000	60.115518
1544.000000	60.045594
1543.000000	60.021241
1542.000000	59.973473
1541.000000	59.917999
1540.000000	59.847857
1539.000000	59.785041
1538.000000	59.709607
1537.000000	59.637753
1536.000000	59.571130
1535.000000	59.508536
1534.000000	59.418136
1533.000000	59.374943
1532.000000	59.299920
1531.000000	59.204935
1530.000000	59.137687
1529.000000	59.071463
1528.000000	59.028548
1527.000000	58.986315
1526.000000	58.914389
1525.000000	58.866644
1524.000000	58.811929
1523.000000	58.765077
1522.000000	58.722554
1521.000000	58.664878
1520.000000	58.623675
1519.000000	58.573357
1518.000000	58.556472
1517.000000	58.514916
1516.000000	58.468109
1515.000000	58.442667
1514.000000	58.407047
1513.000000	58.392486
1512.000000	58.371463
1511.000000	58.342935
1510.000000	58.316670
1509.000000	58.323153
1508.000000	58.281720
1507.000000	58.273137
1506.000000	58.258654
1505.000000	58.236892
1504.000000	58.241006
1503.000000	58.244682
1502.000000	58.216649
1501.000000	58.218222
1500.000000	58.218318
1499.000000	58.209871
1498.000000	58.230057
1497.000000	58.253533
1496.000000	58.274492
1495.000000	58.296421
1494.000000	58.313887
1493.000000	58.350146
1492.000000	58.385904
1491.000000	58.412826
1490.000000	58.476733
1489.000000	58.516611
1488.000000	58.566038
1487.000000	58.607291
1486.000000	58.663590
1485.000000	58.730739
1484.000000	58.787975
1483.000000	58.855845
1482.000000	58.882448
1481.000000	58.990736
1480.000000	59.054602
1479.000000	59.102746
1478.000000	59.175934
1477.000000	59.237720
1476.000000	59.299954
1475.000000	59.347079
1474.000000	59.436384
1473.000000	59.483263
1472.000000	59.532782
1471.000000	59.596238
1470.000000	59.674514
