PE UV       SUBTECH     SPECTRUM    ASCII       PEDS        4.00        
   -1
RDAgneauUK 32.Sample.asc
18/03/02
17:07:01.00
18/03/02
17:07:01.00
Administrator

200.000000
1
Lambda 750
750N8071901
PerkinElmer UV WinLab 6.0.4.0738 / 1.61.00 Lambda 900

0
0
3350/servo 860.8/2
0
0
UV/VIS
1
1
1
CommonBeamDepol,150mm sphere / downward view
0
0
0
0
Program
Program
3350/servo 860.8/2
3350/0.2 860.8/0.2
3350/0.2 860.8/0.2
0
1
 
 
 
0
 
860.8
319.2
860.8
Front
100
on
 
 
0
0
0
 
0
 
 
 
0
 
 
0
0
0
0
0
 
 
 
 
0
0


0
0
#HDR
-1
-1
#GR
nm
%R
1.0
0.0
2350.000000
-1.000000
2151
8
72.747920
16.826957
#DATA
2350.000000	40.620650
2349.000000	40.754949
2348.000000	40.725993
2347.000000	41.443779
2346.000000	41.130652
2345.000000	41.288833
2344.000000	41.449732
2343.000000	40.923925
2342.000000	41.051443
2341.000000	41.233895
2340.000000	41.535151
2339.000000	41.682518
2338.000000	41.778998
2337.000000	41.474378
2336.000000	41.788815
2335.000000	41.897846
2334.000000	42.002827
2333.000000	41.783116
2332.000000	41.860999
2331.000000	41.999937
2330.000000	41.326905
2329.000000	41.567683
2328.000000	41.362426
2327.000000	41.337747
2326.000000	41.462599
2325.000000	41.317002
2324.000000	41.470041
2323.000000	41.447134
2322.000000	41.132748
2321.000000	41.455268
2320.000000	41.071031
2319.000000	41.265908
2318.000000	41.006562
2317.000000	41.025320
2316.000000	41.091559
2315.000000	40.931908
2314.000000	40.900502
2313.000000	40.942928
2312.000000	40.619189
2311.000000	40.777769
2310.000000	40.724014
2309.000000	40.610882
2308.000000	40.375573
2307.000000	40.499413
2306.000000	40.240923
2305.000000	40.033162
2304.000000	40.008621
2303.000000	40.319073
2302.000000	40.085046
2301.000000	39.677589
2300.000000	39.618604
2299.000000	39.538395
2298.000000	39.406350
2297.000000	39.395192
2296.000000	39.268037
2295.000000	39.266609
2294.000000	39.119860
2293.000000	38.961284
2292.000000	38.882195
2291.000000	38.971766
2290.000000	38.846360
2289.000000	38.740042
2288.000000	38.659157
2287.000000	38.780174
2286.000000	38.637533
2285.000000	38.429562
2284.000000	38.456161
2283.000000	38.451738
2282.000000	38.208651
2281.000000	38.493840
2280.000000	38.411396
2279.000000	38.359800
2278.000000	38.400727
2277.000000	38.373038
2276.000000	38.306591
2275.000000	38.474268
2274.000000	38.542160
2273.000000	38.602902
2272.000000	38.632414
2271.000000	38.466791
2270.000000	38.419363
2269.000000	38.685812
2268.000000	38.825214
2267.000000	38.841753
2266.000000	38.916780
2265.000000	39.108980
2264.000000	39.217358
2263.000000	39.287020
2262.000000	39.517830
2261.000000	39.789959
2260.000000	39.876972
2259.000000	39.894668
2258.000000	40.217692
2257.000000	40.460751
2256.000000	40.448843
2255.000000	40.642919
2254.000000	40.851910
2253.000000	41.115325
2252.000000	41.288547
2251.000000	41.479323
2250.000000	41.723048
2249.000000	41.912270
2248.000000	42.282927
2247.000000	42.612497
2246.000000	42.780415
2245.000000	42.949566
2244.000000	43.167058
2243.000000	43.430735
2242.000000	43.588601
2241.000000	43.506366
2240.000000	43.600590
2239.000000	43.895033
2238.000000	44.021967
2237.000000	44.115565
2236.000000	44.405301
2235.000000	44.552527
2234.000000	44.486269
2233.000000	44.533740
2232.000000	44.689645
2231.000000	44.778231
2230.000000	44.858206
2229.000000	44.855789
2228.000000	44.854609
2227.000000	45.041850
2226.000000	45.013995
2225.000000	44.842447
2224.000000	44.770082
2223.000000	44.876011
2222.000000	44.971324
2221.000000	44.935310
2220.000000	44.886098
2219.000000	44.874572
2218.000000	44.811867
2217.000000	44.753403
2216.000000	44.670135
2215.000000	44.603206
2214.000000	44.564187
2213.000000	44.646068
2212.000000	44.603291
2211.000000	44.357990
2210.000000	44.361448
2209.000000	44.253951
2208.000000	44.155339
2207.000000	44.138045
2206.000000	44.034862
2205.000000	43.962391
2204.000000	43.996515
2203.000000	43.886204
2202.000000	43.793317
2201.000000	43.760193
2200.000000	43.544947
2199.000000	43.439271
2198.000000	43.402044
2197.000000	43.506734
2196.000000	43.267979
2195.000000	43.203165
2194.000000	43.162545
2193.000000	42.928411
2192.000000	42.843324
2191.000000	42.919554
2190.000000	42.955794
2189.000000	42.784614
2188.000000	42.685044
2187.000000	42.600690
2186.000000	42.715626
2185.000000	42.674883
2184.000000	42.560976
2183.000000	42.579128
2182.000000	42.428839
2181.000000	42.369189
2180.000000	42.440754
2179.000000	42.432673
2178.000000	42.320306
2177.000000	42.243052
2176.000000	42.355266
2175.000000	42.488362
2174.000000	42.656276
2173.000000	42.540323
2172.000000	42.666016
2171.000000	42.647143
2170.000000	42.714632
2169.000000	42.583481
2168.000000	42.721737
2167.000000	42.862176
2166.000000	42.933991
2165.000000	43.014567
2164.000000	43.115245
2163.000000	43.173430
2162.000000	43.286780
2161.000000	43.678435
2160.000000	43.801400
2159.000000	43.761490
2158.000000	43.807366
2157.000000	43.966098
2156.000000	44.468135
2155.000000	44.452046
2154.000000	44.778534
2153.000000	44.792484
2152.000000	45.048827
2151.000000	45.304343
2150.000000	45.360055
2149.000000	45.425629
2148.000000	45.497297
2147.000000	45.927970
2146.000000	45.921879
2145.000000	46.204666
2144.000000	46.212511
2143.000000	46.254669
2142.000000	46.410258
2141.000000	46.804249
2140.000000	46.894908
2139.000000	47.082702
2138.000000	47.067770
2137.000000	47.400535
2136.000000	47.510989
2135.000000	47.477786
2134.000000	47.553477
2133.000000	47.600556
2132.000000	47.856226
2131.000000	48.093892
2130.000000	48.106368
2129.000000	48.114622
2128.000000	48.125124
2127.000000	48.386375
2126.000000	48.223975
2125.000000	48.378937
2124.000000	48.481496
2123.000000	48.528953
2122.000000	48.532517
2121.000000	48.611576
2120.000000	48.585014
2119.000000	48.727626
2118.000000	48.750650
2117.000000	48.788214
2116.000000	48.875824
2115.000000	48.957636
2114.000000	48.733895
2113.000000	48.811824
2112.000000	49.024209
2111.000000	48.903170
2110.000000	49.025168
2109.000000	49.155230
2108.000000	49.104837
2107.000000	49.060083
2106.000000	49.037214
2105.000000	49.063420
2104.000000	49.163610
2103.000000	49.114328
2102.000000	49.130727
2101.000000	49.158538
2100.000000	49.320426
2099.000000	49.244769
2098.000000	49.195304
2097.000000	49.239941
2096.000000	49.165310
2095.000000	49.143419
2094.000000	49.170211
2093.000000	49.193155
2092.000000	49.323231
2091.000000	49.266881
2090.000000	49.080756
2089.000000	49.161691
2088.000000	49.115539
2087.000000	48.998450
2086.000000	49.099602
2085.000000	49.047102
2084.000000	48.886148
2083.000000	48.808939
2082.000000	48.772241
2081.000000	48.717874
2080.000000	48.666210
2079.000000	48.716637
2078.000000	48.575587
2077.000000	48.512519
2076.000000	48.322637
2075.000000	48.209531
2074.000000	48.115574
2073.000000	48.026886
2072.000000	47.909605
2071.000000	47.828951
2070.000000	47.836281
2069.000000	47.608154
2068.000000	47.362707
2067.000000	47.214323
2066.000000	47.076027
2065.000000	46.936876
2064.000000	46.863708
2063.000000	46.681473
2062.000000	46.451880
2061.000000	46.295766
2060.000000	46.061371
2059.000000	45.940651
2058.000000	45.825785
2057.000000	45.611465
2056.000000	45.512485
2055.000000	45.362444
2054.000000	45.210465
2053.000000	45.088941
2052.000000	44.903239
2051.000000	44.759799
2050.000000	44.663717
2049.000000	44.594652
2048.000000	44.481506
2047.000000	44.387203
2046.000000	44.312272
2045.000000	44.229460
2044.000000	44.174406
2043.000000	44.198010
2042.000000	44.214718
2041.000000	44.167420
2040.000000	44.190056
2039.000000	44.236186
2038.000000	44.234068
2037.000000	44.245288
2036.000000	44.334365
2035.000000	44.535674
2034.000000	44.637041
2033.000000	44.697222
2032.000000	44.822391
2031.000000	44.942096
2030.000000	45.075935
2029.000000	45.233571
2028.000000	45.336417
2027.000000	45.467907
2026.000000	45.603604
2025.000000	45.707977
2024.000000	45.850952
2023.000000	45.993310
2022.000000	46.085967
2021.000000	46.192087
2020.000000	46.288222
2019.000000	46.336213
2018.000000	46.383359
2017.000000	46.443447
2016.000000	46.463533
2015.000000	46.466202
2014.000000	46.529884
2013.000000	46.515431
2012.000000	46.530720
2011.000000	46.583567
2010.000000	46.532324
2009.000000	46.484721
2008.000000	46.421530
2007.000000	46.375114
2006.000000	46.275927
2005.000000	46.255101
2004.000000	46.186832
2003.000000	46.119303
2002.000000	46.058177
2001.000000	45.913304
2000.000000	45.861042
1999.000000	45.811172
1998.000000	45.700984
1997.000000	45.612468
1996.000000	45.505229
1995.000000	45.385274
1994.000000	45.307618
1993.000000	45.248758
1992.000000	45.098031
1991.000000	44.964388
1990.000000	44.914133
1989.000000	44.789458
1988.000000	44.713052
1987.000000	44.644760
1986.000000	44.520813
1985.000000	44.421792
1984.000000	44.329256
1983.000000	44.218529
1982.000000	44.142122
1981.000000	44.034295
1980.000000	43.898432
1979.000000	43.797472
1978.000000	43.733152
1977.000000	43.628849
1976.000000	43.459928
1975.000000	43.369755
1974.000000	43.243501
1973.000000	43.189514
1972.000000	43.096087
1971.000000	42.982402
1970.000000	42.927968
1969.000000	42.798897
1968.000000	42.728611
1967.000000	42.611985
1966.000000	42.462613
1965.000000	42.410295
1964.000000	42.291334
1963.000000	42.160869
1962.000000	42.072912
1961.000000	41.945362
1960.000000	41.830310
1959.000000	41.773421
1958.000000	41.622992
1957.000000	41.591340
1956.000000	41.489023
1955.000000	41.394166
1954.000000	41.438034
1953.000000	41.313683
1952.000000	41.190997
1951.000000	41.139934
1950.000000	41.150981
1949.000000	41.145398
1948.000000	41.054657
1947.000000	40.969196
1946.000000	40.939388
1945.000000	40.923558
1944.000000	40.930189
1943.000000	40.949159
1942.000000	40.970256
1941.000000	40.995973
1940.000000	41.055047
1939.000000	41.086068
1938.000000	41.113099
1937.000000	41.245270
1936.000000	41.298979
1935.000000	41.439998
1934.000000	41.555207
1933.000000	41.636570
1932.000000	41.829510
1931.000000	41.921510
1930.000000	42.194015
1929.000000	42.318504
1928.000000	42.504065
1927.000000	42.740716
1926.000000	42.886863
1925.000000	43.163666
1924.000000	43.494246
1923.000000	43.671127
1922.000000	43.959169
1921.000000	44.265506
1920.000000	44.543951
1919.000000	44.744293
1918.000000	45.105703
1917.000000	45.519001
1916.000000	45.759727
1915.000000	46.123522
1914.000000	46.587770
1913.000000	46.962119
1912.000000	47.353943
1911.000000	47.688063
1910.000000	48.101942
1909.000000	48.475673
1908.000000	48.781898
1907.000000	49.278609
1906.000000	49.790392
1905.000000	50.257738
1904.000000	50.643968
1903.000000	51.052974
1902.000000	51.617016
1901.000000	52.074031
1900.000000	52.477890
1899.000000	52.959893
1898.000000	53.445375
1897.000000	53.892886
1896.000000	54.334199
1895.000000	54.803332
1894.000000	55.195480
1893.000000	55.626338
1892.000000	56.101148
1891.000000	56.480851
1890.000000	56.921334
1889.000000	57.240824
1888.000000	57.592411
1887.000000	58.063932
1886.000000	58.397618
1885.000000	58.732850
1884.000000	59.092868
1883.000000	59.395020
1882.000000	59.594129
1881.000000	59.900579
1880.000000	60.163371
1879.000000	60.447792
1878.000000	60.689498
1877.000000	60.936243
1876.000000	61.163301
1875.000000	61.358167
1874.000000	61.550893
1873.000000	61.705512
1872.000000	61.889876
1871.000000	62.041826
1870.000000	62.174342
1869.000000	62.328625
1868.000000	62.449475
1867.000000	62.484142
1866.000000	62.546683
1865.000000	62.635154
1864.000000	62.709824
1863.000000	62.765280
1862.000000	62.819313
1861.000000	62.866720
1860.000000	62.944401
1859.000000	63.026512
1858.000000	62.987868
1857.000000	63.045038
1856.000000	63.064302
1855.000000	63.063317
1854.000000	63.135978
1853.000000	63.122350
1852.000000	63.139275
1851.000000	63.162571
1850.000000	63.148092
1849.000000	63.137425
1848.000000	63.152704
1847.000000	63.179715
1846.000000	63.119553
1845.000000	63.072065
1844.000000	63.075603
1843.000000	63.045334
1842.000000	63.046296
1841.000000	63.055086
1840.000000	63.025290
1839.000000	62.995558
1838.000000	62.952540
1837.000000	62.864440
1836.000000	62.841518
1835.000000	62.829948
1834.000000	62.794022
1833.000000	62.795295
1832.000000	62.784528
1831.000000	62.702813
1830.000000	62.646407
1829.000000	62.611663
1828.000000	62.559865
1827.000000	62.534981
1826.000000	62.538318
1825.000000	62.535440
1824.000000	62.529554
1823.000000	62.506659
1822.000000	62.443545
1821.000000	62.398148
1820.000000	62.374920
1819.000000	62.341296
1818.000000	62.321570
1817.000000	62.300775
1816.000000	62.262373
1815.000000	62.240293
1814.000000	62.177557
1813.000000	62.140837
1812.000000	62.142089
1811.000000	62.134195
1810.000000	62.101943
1809.000000	62.080062
1808.000000	62.056034
1807.000000	61.998824
1806.000000	61.973816
1805.000000	61.945030
1804.000000	61.899381
1803.000000	61.868741
1802.000000	61.863720
1801.000000	61.846837
1800.000000	61.822073
1799.000000	61.794130
1798.000000	61.784289
1797.000000	61.768791
1796.000000	61.721200
1795.000000	61.701431
1794.000000	61.708565
1793.000000	61.698759
1792.000000	61.662241
1791.000000	61.628354
1790.000000	61.603643
1789.000000	61.577539
1788.000000	61.557182
1787.000000	61.522871
1786.000000	61.493352
1785.000000	61.481297
1784.000000	61.448323
1783.000000	61.406182
1782.000000	61.389093
1781.000000	61.359573
1780.000000	61.312706
1779.000000	61.299398
1778.000000	61.243750
1777.000000	61.182198
1776.000000	61.146449
1775.000000	61.100900
1774.000000	61.014323
1773.000000	60.956400
1772.000000	60.926276
1771.000000	60.885480
1770.000000	60.838123
1769.000000	60.745636
1768.000000	60.691243
1767.000000	60.658316
1766.000000	60.604032
1765.000000	60.542518
1764.000000	60.501968
1763.000000	60.446878
1762.000000	60.412581
1761.000000	60.364293
1760.000000	60.318893
1759.000000	60.237812
1758.000000	60.175283
1757.000000	60.114441
1756.000000	60.089460
1755.000000	59.999574
1754.000000	59.937616
1753.000000	59.912179
1752.000000	59.888322
1751.000000	59.815700
1750.000000	59.758589
1749.000000	59.708753
1748.000000	59.665509
1747.000000	59.567073
1746.000000	59.513047
1745.000000	59.489068
1744.000000	59.432653
1743.000000	59.376420
1742.000000	59.304382
1741.000000	59.262569
1740.000000	59.211239
1739.000000	59.171551
1738.000000	59.109629
1737.000000	59.090195
1736.000000	59.076309
1735.000000	59.057547
1734.000000	59.028984
1733.000000	59.036035
1732.000000	59.047582
1731.000000	59.090356
1730.000000	59.081346
1729.000000	59.126766
1728.000000	59.163065
1727.000000	59.182394
1726.000000	59.234409
1725.000000	59.347141
1724.000000	59.362452
1723.000000	59.429237
1722.000000	59.531356
1721.000000	59.676306
1720.000000	59.765442
1719.000000	59.822162
1718.000000	59.875871
1717.000000	59.950254
1716.000000	60.038854
1715.000000	60.117543
1714.000000	60.193551
1713.000000	60.293019
1712.000000	60.334436
1711.000000	60.407384
1710.000000	60.462101
1709.000000	60.511225
1708.000000	60.556788
1707.000000	60.556393
1706.000000	60.620152
1705.000000	60.654134
1704.000000	60.725413
1703.000000	60.712866
1702.000000	60.716806
1701.000000	60.729904
1700.000000	60.713214
1699.000000	60.728662
1698.000000	60.790895
1697.000000	60.786089
1696.000000	60.836707
1695.000000	60.830787
1694.000000	60.878796
1693.000000	60.921147
1692.000000	60.957995
1691.000000	61.021952
1690.000000	61.109596
1689.000000	61.163765
1688.000000	61.260019
1687.000000	61.353114
1686.000000	61.438441
1685.000000	61.541955
1684.000000	61.711523
1683.000000	61.863359
1682.000000	61.971330
1681.000000	62.129840
1680.000000	62.261175
1679.000000	62.421039
1678.000000	62.576760
1677.000000	62.709366
1676.000000	62.874438
1675.000000	63.051341
1674.000000	63.224695
1673.000000	63.360563
1672.000000	63.489232
1671.000000	63.617650
1670.000000	63.799803
1669.000000	63.926617
1668.000000	64.028262
1667.000000	64.157367
1666.000000	64.264290
1665.000000	64.314877
1664.000000	64.377552
1663.000000	64.499118
1662.000000	64.579770
1661.000000	64.642858
1660.000000	64.698439
1659.000000	64.763135
1658.000000	64.825900
1657.000000	64.860804
1656.000000	64.890708
1655.000000	64.902818
1654.000000	64.956130
1653.000000	64.946327
1652.000000	65.000091
1651.000000	64.981977
1650.000000	64.994398
1649.000000	65.003891
1648.000000	64.977249
1647.000000	64.991477
1646.000000	64.963548
1645.000000	64.955929
1644.000000	64.950786
1643.000000	64.926224
1642.000000	64.914586
1641.000000	64.916360
1640.000000	64.890813
1639.000000	64.864052
1638.000000	64.831692
1637.000000	64.821944
1636.000000	64.791769
1635.000000	64.740697
1634.000000	64.716496
1633.000000	64.675089
1632.000000	64.658539
1631.000000	64.667982
1630.000000	64.623892
1629.000000	64.576286
1628.000000	64.532794
1627.000000	64.486690
1626.000000	64.463467
1625.000000	64.421645
1624.000000	64.388252
1623.000000	64.355709
1622.000000	64.317298
1621.000000	64.268451
1620.000000	64.244417
1619.000000	64.201285
1618.000000	64.133346
1617.000000	64.093353
1616.000000	64.064104
1615.000000	64.025381
1614.000000	63.980733
1613.000000	63.927922
1612.000000	63.891539
1611.000000	63.846486
1610.000000	63.792426
1609.000000	63.730318
1608.000000	63.694773
1607.000000	63.646170
1606.000000	63.578108
1605.000000	63.535471
1604.000000	63.482660
1603.000000	63.423382
1602.000000	63.372501
1601.000000	63.331605
1600.000000	63.282521
1599.000000	63.222470
1598.000000	63.164329
1597.000000	63.129400
1596.000000	63.083830
1595.000000	63.038469
1594.000000	62.994547
1593.000000	62.936973
1592.000000	62.891736
1591.000000	62.847490
1590.000000	62.800863
1589.000000	62.737728
1588.000000	62.703791
1587.000000	62.693077
1586.000000	62.641617
1585.000000	62.587827
1584.000000	62.554590
1583.000000	62.534068
1582.000000	62.494696
1581.000000	62.445520
1580.000000	62.400424
1579.000000	62.357099
1578.000000	62.330761
1577.000000	62.283211
1576.000000	62.251402
1575.000000	62.227063
1574.000000	62.183829
1573.000000	62.131888
1572.000000	62.094205
1571.000000	62.063717
1570.000000	62.026816
1569.000000	61.999394
1568.000000	61.974369
1567.000000	61.943114
1566.000000	61.916016
1565.000000	61.887176
1564.000000	61.868335
1563.000000	61.861709
1562.000000	61.835362
1561.000000	61.796660
1560.000000	61.788894
1559.000000	61.757799
1558.000000	61.748405
1557.000000	61.731566
1556.000000	61.709200
1555.000000	61.686027
1554.000000	61.658081
1553.000000	61.656880
1552.000000	61.631578
1551.000000	61.616040
1550.000000	61.591752
1549.000000	61.553016
1548.000000	61.526072
1547.000000	61.461381
1546.000000	61.422216
1545.000000	61.368600
1544.000000	61.314321
1543.000000	61.253673
1542.000000	61.204331
1541.000000	61.117039
1540.000000	61.049169
1539.000000	60.976672
1538.000000	60.902639
1537.000000	60.826721
1536.000000	60.764358
1535.000000	60.669180
1534.000000	60.593544
1533.000000	60.525906
1532.000000	60.442493
1531.000000	60.350112
1530.000000	60.282315
1529.000000	60.200499
1528.000000	60.144556
1527.000000	60.079747
1526.000000	60.020372
1525.000000	59.950934
1524.000000	59.897994
1523.000000	59.833883
1522.000000	59.773626
1521.000000	59.727853
1520.000000	59.699571
1519.000000	59.634085
1518.000000	59.618729
1517.000000	59.556973
1516.000000	59.512865
1515.000000	59.469975
1514.000000	59.452005
1513.000000	59.403421
1512.000000	59.377895
1511.000000	59.349631
1510.000000	59.312433
1509.000000	59.319407
1508.000000	59.289238
1507.000000	59.268991
1506.000000	59.246026
1505.000000	59.239187
1504.000000	59.236015
1503.000000	59.239032
1502.000000	59.223466
1501.000000	59.227236
1500.000000	59.246823
1499.000000	59.227441
1498.000000	59.235649
1497.000000	59.254572
1496.000000	59.273545
1495.000000	59.273025
1494.000000	59.298750
1493.000000	59.357414
1492.000000	59.367758
1491.000000	59.423744
1490.000000	59.475842
1489.000000	59.534478
1488.000000	59.612439
1487.000000	59.645039
1486.000000	59.699477
1485.000000	59.766674
1484.000000	59.852347
1483.000000	59.902842
1482.000000	59.974046
1481.000000	60.043499
1480.000000	60.143920
1479.000000	60.188333
1478.000000	60.272280
1477.000000	60.351343
1476.000000	60.422505
1475.000000	60.483922
1474.000000	60.570742
1473.000000	60.620728
1472.000000	60.682055
1471.000000	60.765023
1470.000000	60.852641
