PE UV       SUBTECH     SPECTRUM    ASCII       PEDS        4.00        
   -1
Empty Chamber.Sample.asc
18/03/21
08:59:50.00
18/03/21
08:59:50.00
Administrator

200.000000
1
Lambda 750
750N8071901
PerkinElmer UV WinLab 6.0.4.0738 / 1.61.00 Lambda 900

0
0
3350/servo 860.8/2
0
0
UV/VIS
1
1
1
CommonBeamDepol,150mm sphere / downward view
0
0
0
0
Program
Program
3350/servo 860.8/2
3350/0.2 860.8/0.2
3350/0.2 860.8/0.2
0
1
 
 
 
0
 
860.8
319.2
860.8
Front
100
on
 
 
0
0
0
 
0
 
 
 
0
 
 
0
0
0
0
0
 
 
 
 
0
0


0
0
#HDR
-1
-1
#GR
nm
%T
1.0
0.0
2350.000000
-1.000000
2151
8
100.659157
99.063367
#DATA
2350.000000	99.914633
2349.000000	100.355913
2348.000000	100.458452
2347.000000	100.044508
2346.000000	100.148712
2345.000000	100.348137
2344.000000	100.094046
2343.000000	99.979153
2342.000000	100.089926
2341.000000	100.071986
2340.000000	99.964146
2339.000000	99.826707
2338.000000	99.895368
2337.000000	99.883393
2336.000000	99.566355
2335.000000	100.017017
2334.000000	100.136841
2333.000000	100.235641
2332.000000	100.364646
2331.000000	100.051144
2330.000000	100.248834
2329.000000	100.117113
2328.000000	99.828345
2327.000000	99.965280
2326.000000	100.401913
2325.000000	100.413731
2324.000000	100.292659
2323.000000	100.005885
2322.000000	99.938745
2321.000000	100.091986
2320.000000	99.774272
2319.000000	99.923214
2318.000000	100.253285
2317.000000	100.263387
2316.000000	99.911182
2315.000000	99.755886
2314.000000	99.973441
2313.000000	100.132359
2312.000000	99.876238
2311.000000	100.211930
2310.000000	100.120794
2309.000000	100.031594
2308.000000	100.013503
2307.000000	99.967267
2306.000000	100.147138
2305.000000	100.076281
2304.000000	99.923628
2303.000000	99.849677
2302.000000	100.303255
2301.000000	99.917728
2300.000000	99.937315
2299.000000	100.081466
2298.000000	100.110366
2297.000000	100.257681
2296.000000	100.038469
2295.000000	99.764768
2294.000000	99.689243
2293.000000	99.945332
2292.000000	99.824724
2291.000000	99.910197
2290.000000	100.015508
2289.000000	100.151442
2288.000000	100.347411
2287.000000	100.176830
2286.000000	99.786411
2285.000000	100.124680
2284.000000	100.239545
2283.000000	100.090036
2282.000000	100.074632
2281.000000	99.995025
2280.000000	100.110629
2279.000000	100.140671
2278.000000	100.231363
2277.000000	99.952403
2276.000000	100.002030
2275.000000	100.054080
2274.000000	100.008619
2273.000000	100.173259
2272.000000	100.133923
2271.000000	99.996650
2270.000000	100.028020
2269.000000	100.110587
2268.000000	100.026400
2267.000000	100.022130
2266.000000	100.003248
2265.000000	100.004263
2264.000000	100.091612
2263.000000	100.142853
2262.000000	100.079872
2261.000000	100.126065
2260.000000	100.081530
2259.000000	100.078683
2258.000000	100.121166
2257.000000	100.030744
2256.000000	100.053082
2255.000000	100.133310
2254.000000	100.182020
2253.000000	100.153344
2252.000000	100.118386
2251.000000	99.977469
2250.000000	99.970868
2249.000000	100.035967
2248.000000	99.973993
2247.000000	99.977766
2246.000000	100.005786
2245.000000	100.014098
2244.000000	99.933007
2243.000000	100.030126
2242.000000	99.944636
2241.000000	99.834497
2240.000000	99.960922
2239.000000	99.880327
2238.000000	99.874975
2237.000000	100.152031
2236.000000	100.168123
2235.000000	100.084303
2234.000000	100.160517
2233.000000	100.174501
2232.000000	100.119048
2231.000000	100.023446
2230.000000	99.994421
2229.000000	100.017452
2228.000000	100.038255
2227.000000	99.975151
2226.000000	100.070812
2225.000000	100.102685
2224.000000	99.947909
2223.000000	99.966800
2222.000000	99.987104
2221.000000	99.995533
2220.000000	100.003350
2219.000000	99.883308
2218.000000	99.847929
2217.000000	99.942656
2216.000000	99.967233
2215.000000	99.936619
2214.000000	99.960952
2213.000000	100.108851
2212.000000	99.982336
2211.000000	100.003247
2210.000000	100.014015
2209.000000	100.036548
2208.000000	100.035514
2207.000000	100.087073
2206.000000	100.127362
2205.000000	99.998985
2204.000000	100.062541
2203.000000	100.108063
2202.000000	100.083351
2201.000000	100.019682
2200.000000	100.021590
2199.000000	100.099065
2198.000000	100.044731
2197.000000	99.846368
2196.000000	99.912841
2195.000000	100.005881
2194.000000	99.873570
2193.000000	99.937017
2192.000000	100.058750
2191.000000	100.032256
2190.000000	100.050098
2189.000000	99.973027
2188.000000	100.195311
2187.000000	100.037808
2186.000000	99.862834
2185.000000	100.045494
2184.000000	99.983690
2183.000000	100.223723
2182.000000	100.123829
2181.000000	100.111326
2180.000000	99.993620
2179.000000	99.885284
2178.000000	100.042500
2177.000000	99.919365
2176.000000	99.950067
2175.000000	100.096261
2174.000000	99.881870
2173.000000	99.837137
2172.000000	99.806275
2171.000000	100.057241
2170.000000	100.034491
2169.000000	99.919526
2168.000000	100.169355
2167.000000	99.999191
2166.000000	99.867131
2165.000000	99.892926
2164.000000	99.993129
2163.000000	99.968889
2162.000000	100.070345
2161.000000	100.185980
2160.000000	99.897497
2159.000000	100.004343
2158.000000	99.869300
2157.000000	99.948964
2156.000000	100.014653
2155.000000	100.039468
2154.000000	99.850442
2153.000000	100.039881
2152.000000	99.982420
2151.000000	100.157967
2150.000000	100.170276
2149.000000	100.248006
2148.000000	100.002322
2147.000000	100.006168
2146.000000	99.943520
2145.000000	99.986354
2144.000000	100.049663
2143.000000	100.075660
2142.000000	100.000908
2141.000000	99.976777
2140.000000	99.872596
2139.000000	99.961235
2138.000000	100.169259
2137.000000	99.871566
2136.000000	99.900693
2135.000000	99.936668
2134.000000	99.908955
2133.000000	99.805122
2132.000000	99.849588
2131.000000	100.045206
2130.000000	100.101500
2129.000000	99.979596
2128.000000	100.037304
2127.000000	99.886437
2126.000000	99.878746
2125.000000	99.977555
2124.000000	99.980484
2123.000000	100.023755
2122.000000	100.005865
2121.000000	99.984222
2120.000000	99.954834
2119.000000	100.017778
2118.000000	99.880960
2117.000000	100.043270
2116.000000	100.015876
2115.000000	100.032563
2114.000000	99.860174
2113.000000	99.898589
2112.000000	100.008597
2111.000000	99.995849
2110.000000	99.773674
2109.000000	100.176816
2108.000000	100.129611
2107.000000	100.094406
2106.000000	99.987442
2105.000000	99.880481
2104.000000	99.965906
2103.000000	100.052258
2102.000000	99.940141
2101.000000	99.953765
2100.000000	100.110103
2099.000000	99.892354
2098.000000	100.017024
2097.000000	99.982186
2096.000000	99.865626
2095.000000	99.928772
2094.000000	100.154229
2093.000000	100.167563
2092.000000	99.945018
2091.000000	99.999595
2090.000000	99.952813
2089.000000	99.900513
2088.000000	100.000000
2087.000000	99.998075
2086.000000	99.948637
2085.000000	100.129244
2084.000000	100.042669
2083.000000	100.006485
2082.000000	100.008612
2081.000000	100.071588
2080.000000	100.092241
2079.000000	100.099063
2078.000000	100.012872
2077.000000	99.959866
2076.000000	99.993310
2075.000000	100.048558
2074.000000	99.978421
2073.000000	99.958149
2072.000000	99.986321
2071.000000	100.010844
2070.000000	100.102314
2069.000000	100.026155
2068.000000	100.020484
2067.000000	100.056104
2066.000000	99.918419
2065.000000	99.973945
2064.000000	100.113636
2063.000000	99.990062
2062.000000	99.905618
2061.000000	100.019065
2060.000000	100.012880
2059.000000	99.970291
2058.000000	100.031637
2057.000000	100.103890
2056.000000	100.053056
2055.000000	100.005882
2054.000000	100.058544
2053.000000	100.061493
2052.000000	100.014404
2051.000000	100.036423
2050.000000	100.023948
2049.000000	100.005478
2048.000000	99.976070
2047.000000	100.059785
2046.000000	100.048530
2045.000000	99.992391
2044.000000	99.975456
2043.000000	99.980529
2042.000000	99.888269
2041.000000	99.917653
2040.000000	100.005074
2039.000000	100.003045
2038.000000	100.054736
2037.000000	100.014112
2036.000000	100.005481
2035.000000	100.059494
2034.000000	100.062955
2033.000000	100.033403
2032.000000	100.033300
2031.000000	100.026601
2030.000000	99.971264
2029.000000	99.974514
2028.000000	100.004263
2027.000000	100.037056
2026.000000	100.038789
2025.000000	99.985174
2024.000000	99.950958
2023.000000	99.981109
2022.000000	100.030483
2021.000000	100.001016
2020.000000	99.985677
2019.000000	99.997663
2018.000000	99.987397
2017.000000	100.068940
2016.000000	100.054069
2015.000000	99.991771
2014.000000	99.982628
2013.000000	99.973477
2012.000000	99.982317
2011.000000	100.013213
2010.000000	100.014230
2009.000000	100.018502
2008.000000	100.024708
2007.000000	99.960452
2006.000000	99.992984
2005.000000	100.031123
2004.000000	99.971733
2003.000000	99.958926
2002.000000	100.005900
2001.000000	100.014240
2000.000000	99.942755
1999.000000	99.927196
1998.000000	99.931977
1997.000000	99.980880
1996.000000	100.017194
1995.000000	100.003358
1994.000000	100.009361
1993.000000	100.021977
1992.000000	100.012314
1991.000000	100.038884
1990.000000	100.058726
1989.000000	100.035722
1988.000000	100.004783
1987.000000	99.995624
1986.000000	100.021782
1985.000000	100.027991
1984.000000	99.963878
1983.000000	100.021170
1982.000000	100.004377
1981.000000	100.010180
1980.000000	99.988296
1979.000000	99.983718
1978.000000	99.982806
1977.000000	99.966420
1976.000000	100.031762
1975.000000	99.990633
1974.000000	99.951655
1973.000000	100.003868
1972.000000	100.031973
1971.000000	100.023107
1970.000000	99.995318
1969.000000	100.012213
1968.000000	99.987381
1967.000000	99.990129
1966.000000	99.969676
1965.000000	100.003664
1964.000000	100.013132
1963.000000	100.019042
1962.000000	100.029126
1961.000000	100.026572
1960.000000	100.029521
1959.000000	100.003765
1958.000000	100.016285
1957.000000	100.010788
1956.000000	100.004578
1955.000000	99.942730
1954.000000	100.003968
1953.000000	99.996947
1952.000000	100.027163
1951.000000	100.045274
1950.000000	100.003765
1949.000000	99.987489
1948.000000	100.009867
1947.000000	100.001729
1946.000000	100.050653
1945.000000	100.016168
1944.000000	99.960433
1943.000000	99.949166
1942.000000	100.065006
1941.000000	100.028578
1940.000000	100.034374
1939.000000	99.964424
1938.000000	99.911224
1937.000000	99.980893
1936.000000	100.018195
1935.000000	99.979474
1934.000000	99.934561
1933.000000	100.047584
1932.000000	99.978858
1931.000000	100.023878
1930.000000	99.959172
1929.000000	99.975211
1928.000000	99.972979
1927.000000	100.029962
1926.000000	99.956153
1925.000000	99.906685
1924.000000	99.998476
1923.000000	99.895437
1922.000000	100.055767
1921.000000	99.942622
1920.000000	100.015542
1919.000000	99.941610
1918.000000	100.050293
1917.000000	99.984660
1916.000000	100.056283
1915.000000	100.009748
1914.000000	100.023062
1913.000000	99.997765
1912.000000	99.935001
1911.000000	100.115795
1910.000000	99.953674
1909.000000	99.965157
1908.000000	99.960803
1907.000000	99.986380
1906.000000	100.016664
1905.000000	99.975820
1904.000000	100.015542
1903.000000	100.016054
1902.000000	99.940057
1901.000000	99.987905
1900.000000	99.974798
1899.000000	99.904177
1898.000000	100.042200
1897.000000	99.950287
1896.000000	99.942876
1895.000000	100.005899
1894.000000	99.997560
1893.000000	99.986582
1892.000000	100.014952
1891.000000	100.051667
1890.000000	100.001627
1889.000000	100.012913
1888.000000	99.984756
1887.000000	99.962088
1886.000000	99.972268
1885.000000	100.001625
1884.000000	100.030174
1883.000000	100.015843
1882.000000	100.028239
1881.000000	99.997868
1880.000000	99.950259
1879.000000	99.897724
1878.000000	99.953328
1877.000000	99.978075
1876.000000	99.978481
1875.000000	99.993504
1874.000000	100.036437
1873.000000	100.019787
1872.000000	99.975147
1871.000000	99.966515
1870.000000	99.987926
1869.000000	100.048001
1868.000000	99.977674
1867.000000	99.963366
1866.000000	99.981731
1865.000000	99.976857
1864.000000	99.997665
1863.000000	100.012790
1862.000000	100.056581
1861.000000	99.978471
1860.000000	99.986699
1859.000000	99.990354
1858.000000	99.975536
1857.000000	100.017365
1856.000000	100.011273
1855.000000	100.004772
1854.000000	100.025485
1853.000000	99.986091
1852.000000	99.965078
1851.000000	99.964973
1850.000000	100.004874
1849.000000	100.026911
1848.000000	100.019900
1847.000000	100.038796
1846.000000	100.024172
1845.000000	100.038898
1844.000000	99.995735
1843.000000	99.974820
1842.000000	100.021931
1841.000000	100.023451
1840.000000	100.001827
1839.000000	100.011069
1838.000000	100.026203
1837.000000	100.040930
1836.000000	99.999898
1835.000000	99.991672
1834.000000	99.987202
1833.000000	100.008432
1832.000000	100.021038
1831.000000	100.005081
1830.000000	100.016564
1829.000000	100.042598
1828.000000	100.026632
1827.000000	100.010876
1826.000000	100.000712
1825.000000	100.002948
1824.000000	99.996137
1823.000000	99.965234
1822.000000	99.979360
1821.000000	99.999797
1820.000000	99.990442
1819.000000	100.000915
1818.000000	100.015968
1817.000000	100.025023
1816.000000	100.026755
1815.000000	100.013021
1814.000000	99.990846
1813.000000	99.978130
1812.000000	99.964900
1811.000000	99.972327
1810.000000	99.985245
1809.000000	99.985548
1808.000000	99.978322
1807.000000	100.003867
1806.000000	100.039094
1805.000000	100.018020
1804.000000	100.013028
1803.000000	100.029114
1802.000000	100.007534
1801.000000	100.013745
1800.000000	100.034520
1799.000000	100.019344
1798.000000	100.005803
1797.000000	100.001833
1796.000000	99.971901
1795.000000	99.966812
1794.000000	99.976891
1793.000000	99.967827
1792.000000	99.995112
1791.000000	99.991345
1790.000000	99.965280
1789.000000	99.991039
1788.000000	99.999796
1787.000000	100.004583
1786.000000	100.040131
1785.000000	100.006518
1784.000000	99.965481
1783.000000	99.983607
1782.000000	100.012015
1781.000000	100.029839
1780.000000	100.010082
1779.000000	99.947874
1778.000000	99.973733
1777.000000	100.005295
1776.000000	100.011407
1775.000000	99.985540
1774.000000	99.987273
1773.000000	99.996029
1772.000000	99.972102
1771.000000	99.987274
1770.000000	100.007331
1769.000000	99.985032
1768.000000	99.998574
1767.000000	99.966908
1766.000000	99.968743
1765.000000	99.989818
1764.000000	100.018738
1763.000000	100.030862
1762.000000	100.049709
1761.000000	100.027297
1760.000000	99.982483
1759.000000	100.004684
1758.000000	100.009675
1757.000000	100.006619
1756.000000	100.022607
1755.000000	100.028008
1754.000000	99.997760
1753.000000	99.985135
1752.000000	100.021589
1751.000000	100.015581
1750.000000	99.986968
1749.000000	99.998066
1748.000000	99.999898
1747.000000	100.005193
1746.000000	100.006415
1745.000000	99.967731
1744.000000	100.002953
1743.000000	100.013542
1742.000000	99.981166
1741.000000	100.003563
1740.000000	100.004276
1739.000000	99.993281
1738.000000	99.969358
1737.000000	99.996030
1736.000000	100.024132
1735.000000	100.018833
1734.000000	100.010890
1733.000000	99.994197
1732.000000	100.022806
1731.000000	100.028001
1730.000000	100.008247
1729.000000	99.999695
1728.000000	100.031776
1727.000000	99.980858
1726.000000	99.996131
1725.000000	100.035129
1724.000000	100.009672
1723.000000	99.992976
1722.000000	100.040730
1721.000000	100.022603
1720.000000	100.033393
1719.000000	100.008553
1718.000000	100.009978
1717.000000	100.033194
1716.000000	100.004684
1715.000000	99.985444
1714.000000	99.978930
1713.000000	99.977906
1712.000000	99.984629
1711.000000	100.067624
1710.000000	100.012523
1709.000000	99.969671
1708.000000	99.961220
1707.000000	99.984935
1706.000000	99.982189
1705.000000	99.992468
1704.000000	99.972621
1703.000000	99.962448
1702.000000	99.979740
1701.000000	99.999898
1700.000000	100.012114
1699.000000	100.012213
1698.000000	100.012316
1697.000000	100.031052
1696.000000	100.021173
1695.000000	100.020667
1694.000000	99.987787
1693.000000	100.023008
1692.000000	99.998677
1691.000000	99.981989
1690.000000	100.018119
1689.000000	99.976796
1688.000000	99.985341
1687.000000	100.008957
1686.000000	99.979243
1685.000000	99.993387
1684.000000	99.957370
1683.000000	99.971197
1682.000000	99.998066
1681.000000	100.020461
1680.000000	100.005496
1679.000000	100.018218
1678.000000	100.012113
1677.000000	100.010077
1676.000000	100.027173
1675.000000	99.997659
1674.000000	100.004071
1673.000000	99.981882
1672.000000	99.985853
1671.000000	99.988908
1670.000000	99.965708
1669.000000	100.022486
1668.000000	100.021675
1667.000000	100.011902
1666.000000	99.992778
1665.000000	100.013838
1664.000000	99.991150
1663.000000	99.971824
1662.000000	100.007121
1661.000000	100.008241
1660.000000	100.003459
1659.000000	100.009969
1658.000000	100.001221
1657.000000	99.988507
1656.000000	99.993999
1655.000000	99.968779
1654.000000	99.993084
1653.000000	99.991253
1652.000000	99.986472
1651.000000	99.991760
1650.000000	99.994100
1649.000000	99.995218
1648.000000	99.999288
1647.000000	99.997050
1646.000000	99.988708
1645.000000	99.991862
1644.000000	100.013124
1643.000000	100.000610
1642.000000	100.007020
1641.000000	99.990032
1640.000000	99.976098
1639.000000	99.996542
1638.000000	100.003763
1637.000000	99.992675
1636.000000	99.989828
1635.000000	99.992473
1634.000000	99.989623
1633.000000	99.978233
1632.000000	99.981387
1631.000000	99.986775
1630.000000	99.985250
1629.000000	99.993388
1628.000000	99.998169
1627.000000	99.997151
1626.000000	100.011293
1625.000000	99.997864
1624.000000	99.990132
1623.000000	100.014344
1622.000000	100.000610
1621.000000	99.992981
1620.000000	100.005392
1619.000000	100.002645
1618.000000	100.004374
1617.000000	100.008036
1616.000000	99.993998
1615.000000	99.979150
1614.000000	99.982607
1613.000000	99.984946
1612.000000	100.003560
1611.000000	100.008138
1610.000000	99.999491
1609.000000	99.995220
1608.000000	100.004374
1607.000000	100.016682
1606.000000	100.015461
1605.000000	100.026450
1604.000000	100.011088
1603.000000	100.009562
1602.000000	99.993388
1601.000000	99.985251
1600.000000	99.991049
1599.000000	99.981487
1598.000000	99.975895
1597.000000	99.982204
1596.000000	99.997457
1595.000000	99.997152
1594.000000	99.993796
1593.000000	99.983219
1592.000000	99.981286
1591.000000	99.996237
1590.000000	99.995728
1589.000000	99.980778
1588.000000	99.996033
1587.000000	100.003662
1586.000000	99.981896
1585.000000	99.999186
1584.000000	99.991965
1583.000000	99.971625
1582.000000	99.986067
1581.000000	99.981899
1580.000000	99.972137
1579.000000	99.990339
1578.000000	100.013426
1577.000000	100.004882
1576.000000	99.988915
1575.000000	100.003865
1574.000000	100.007730
1573.000000	99.994406
1572.000000	99.996644
1571.000000	99.991762
1570.000000	99.993999
1569.000000	99.998271
1568.000000	99.995627
1567.000000	100.011390
1566.000000	100.005186
1565.000000	99.998068
1564.000000	100.016881
1563.000000	100.013933
1562.000000	99.998780
1561.000000	99.994000
1560.000000	99.992982
1559.000000	99.980679
1558.000000	100.005491
1557.000000	100.009153
1556.000000	99.983934
1555.000000	99.995831
1554.000000	100.008949
1553.000000	100.005898
1552.000000	99.990239
1551.000000	99.980886
1550.000000	100.008541
1549.000000	100.032133
1548.000000	100.010270
1547.000000	99.996136
1546.000000	99.993493
1545.000000	100.006508
1544.000000	100.008643
1543.000000	100.004982
1542.000000	100.003762
1541.000000	99.995526
1540.000000	99.998678
1539.000000	100.007422
1538.000000	100.006813
1537.000000	99.984649
1536.000000	99.994611
1535.000000	100.024203
1534.000000	100.014438
1533.000000	99.996645
1532.000000	100.005389
1531.000000	99.998678
1530.000000	100.002746
1529.000000	99.992678
1528.000000	100.000102
1527.000000	99.984239
1526.000000	99.983120
1525.000000	100.011187
1524.000000	100.011494
1523.000000	99.995219
1522.000000	99.998881
1521.000000	99.991457
1520.000000	100.008238
1519.000000	99.996746
1518.000000	100.002441
1517.000000	100.012206
1516.000000	100.013630
1515.000000	99.998068
1514.000000	99.995321
1513.000000	100.007325
1512.000000	99.979353
1511.000000	99.982098
1510.000000	99.991965
1509.000000	100.022584
1508.000000	100.021773
1507.000000	100.023399
1506.000000	100.001831
1505.000000	100.017904
1504.000000	99.990641
1503.000000	100.019026
1502.000000	100.011598
1501.000000	100.004782
1500.000000	100.004171
1499.000000	99.995016
1498.000000	99.997762
1497.000000	99.988200
1496.000000	100.001322
1495.000000	99.986879
1494.000000	100.003560
1493.000000	100.021465
1492.000000	99.991354
1491.000000	99.988201
1490.000000	99.991659
