PE UV       SUBTECH     SPECTRUM    ASCII       PEDS        4.00        
   -1
Empty Chamber 2.Sample.asc
18/03/21
14:32:47.00
18/03/21
14:32:47.00
Administrator

200.000000
1
Lambda 750
750N8071901
PerkinElmer UV WinLab 6.0.4.0738 / 1.61.00 Lambda 900

0
0
3350/servo 860.8/2
0
0
UV/VIS
1
1
1
CommonBeamDepol,150mm sphere / downward view
0
0
0
0
Program
Program
3350/servo 860.8/2
3350/0.2 860.8/0.2
3350/0.2 860.8/0.2
0
1
 
 
 
0
 
860.8
319.2
860.8
Front
100
on
 
 
0
0
0
 
0
 
 
 
0
 
 
0
0
0
0
0
 
 
 
 
0
0


0
0
#HDR
-1
-1
#GR
nm
%T
1.0
0.0
2350.000000
-1.000000
2151
8
100.661795
99.287371
#DATA
2350.000000	99.944707
2349.000000	100.541384
2348.000000	99.690851
2347.000000	100.280610
2346.000000	99.891301
2345.000000	99.898370
2344.000000	99.817420
2343.000000	99.750582
2342.000000	100.405783
2341.000000	100.303902
2340.000000	99.425213
2339.000000	99.906087
2338.000000	100.342875
2337.000000	99.960616
2336.000000	100.046739
2335.000000	100.377249
2334.000000	100.126122
2333.000000	100.063414
2332.000000	99.947837
2331.000000	99.950878
2330.000000	99.600892
2329.000000	99.906619
2328.000000	100.018792
2327.000000	99.882312
2326.000000	100.202850
2325.000000	100.111041
2324.000000	100.000101
2323.000000	100.039813
2322.000000	100.053261
2321.000000	99.807104
2320.000000	99.818357
2319.000000	100.034837
2318.000000	99.952453
2317.000000	100.350087
2316.000000	99.864764
2315.000000	99.921110
2314.000000	100.033638
2313.000000	99.942352
2312.000000	100.131435
2311.000000	100.263732
2310.000000	99.949502
2309.000000	99.764137
2308.000000	99.968379
2307.000000	99.843508
2306.000000	99.605267
2305.000000	99.904379
2304.000000	100.130764
2303.000000	100.018210
2302.000000	99.857923
2301.000000	99.826750
2300.000000	99.801572
2299.000000	99.930883
2298.000000	99.782729
2297.000000	100.009225
2296.000000	100.087970
2295.000000	99.747590
2294.000000	100.003338
2293.000000	100.271220
2292.000000	100.034113
2291.000000	100.013054
2290.000000	100.233175
2289.000000	100.163386
2288.000000	100.111351
2287.000000	100.189415
2286.000000	100.178592
2285.000000	100.222998
2284.000000	100.088948
2283.000000	100.249754
2282.000000	100.041398
2281.000000	100.184945
2280.000000	100.094805
2279.000000	100.168921
2278.000000	99.926660
2277.000000	99.909659
2276.000000	99.998685
2275.000000	100.061005
2274.000000	100.045803
2273.000000	100.110186
2272.000000	100.030468
2271.000000	99.797280
2270.000000	99.759472
2269.000000	99.871650
2268.000000	100.023294
2267.000000	100.058275
2266.000000	100.179471
2265.000000	100.203567
2264.000000	100.088514
2263.000000	99.965961
2262.000000	99.890517
2261.000000	99.929765
2260.000000	100.006065
2259.000000	99.993422
2258.000000	100.178853
2257.000000	100.124494
2256.000000	99.964689
2255.000000	99.982586
2254.000000	99.932172
2253.000000	99.813573
2252.000000	99.949534
2251.000000	100.000101
2250.000000	100.066545
2249.000000	100.239061
2248.000000	100.154217
2247.000000	100.061773
2246.000000	99.960013
2245.000000	99.931734
2244.000000	99.954582
2243.000000	99.966325
2242.000000	100.053971
2241.000000	100.096412
2240.000000	100.051268
2239.000000	99.965170
2238.000000	99.958630
2237.000000	99.930957
2236.000000	99.924981
2235.000000	100.084579
2234.000000	100.099014
2233.000000	99.949675
2232.000000	100.076985
2231.000000	100.194066
2230.000000	100.010932
2229.000000	99.976722
2228.000000	100.157223
2227.000000	100.048287
2226.000000	99.934699
2225.000000	99.943286
2224.000000	100.004458
2223.000000	99.924540
2222.000000	100.036060
2221.000000	100.119292
2220.000000	100.069529
2219.000000	100.017110
2218.000000	99.918615
2217.000000	99.870374
2216.000000	100.004145
2215.000000	100.004757
2214.000000	99.902205
2213.000000	100.064189
2212.000000	99.928973
2211.000000	99.867436
2210.000000	100.028367
2209.000000	99.882075
2208.000000	99.954754
2207.000000	100.037455
2206.000000	100.122112
2205.000000	100.103713
2204.000000	100.070273
2203.000000	99.945463
2202.000000	99.923092
2201.000000	100.040229
2200.000000	100.047752
2199.000000	99.925115
2198.000000	100.056957
2197.000000	99.923359
2196.000000	99.892795
2195.000000	100.063329
2194.000000	99.996562
2193.000000	99.982299
2192.000000	100.134930
2191.000000	100.129832
2190.000000	100.109978
2189.000000	100.044924
2188.000000	100.154852
2187.000000	99.998383
2186.000000	100.064240
2185.000000	100.028490
2184.000000	100.050699
2183.000000	100.102798
2182.000000	100.099702
2181.000000	99.909228
2180.000000	99.915959
2179.000000	99.947375
2178.000000	99.934196
2177.000000	100.161456
2176.000000	100.016370
2175.000000	99.873065
2174.000000	100.006564
2173.000000	100.007071
2172.000000	99.921269
2171.000000	100.057254
2170.000000	99.869943
2169.000000	99.934491
2168.000000	99.874409
2167.000000	100.001311
2166.000000	99.893418
2165.000000	100.243654
2164.000000	99.876664
2163.000000	100.047164
2162.000000	99.992246
2161.000000	100.199296
2160.000000	100.007671
2159.000000	100.209472
2158.000000	100.064143
2157.000000	99.937061
2156.000000	100.132829
2155.000000	99.783166
2154.000000	99.905002
2153.000000	100.231189
2152.000000	100.044138
2151.000000	99.852017
2150.000000	99.967463
2149.000000	99.789074
2148.000000	100.015604
2147.000000	99.934895
2146.000000	99.979245
2145.000000	100.208786
2144.000000	99.937715
2143.000000	99.843749
2142.000000	100.021526
2141.000000	99.949921
2140.000000	99.947165
2139.000000	100.004030
2138.000000	100.229867
2137.000000	100.118952
2136.000000	100.057311
2135.000000	99.931021
2134.000000	100.050318
2133.000000	100.130417
2132.000000	99.911344
2131.000000	99.949688
2130.000000	100.026495
2129.000000	99.967355
2128.000000	100.059478
2127.000000	99.896985
2126.000000	99.923496
2125.000000	99.853864
2124.000000	100.189755
2123.000000	99.961302
2122.000000	99.893993
2121.000000	100.018453
2120.000000	99.892227
2119.000000	99.874477
2118.000000	99.980749
2117.000000	99.952142
2116.000000	100.134569
2115.000000	100.266617
2114.000000	99.958877
2113.000000	100.069731
2112.000000	100.148197
2111.000000	100.009386
2110.000000	99.965094
2109.000000	99.996569
2108.000000	100.001816
2107.000000	99.828803
2106.000000	100.047038
2105.000000	100.092853
2104.000000	99.920594
2103.000000	100.013120
2102.000000	99.922359
2101.000000	100.082103
2100.000000	100.029064
2099.000000	99.969802
2098.000000	100.078243
2097.000000	100.108080
2096.000000	99.969416
2095.000000	99.976071
2094.000000	100.056321
2093.000000	100.008588
2092.000000	99.945067
2091.000000	100.011118
2090.000000	100.006872
2089.000000	99.955732
2088.000000	99.884136
2087.000000	99.973751
2086.000000	100.034351
2085.000000	100.058699
2084.000000	100.071519
2083.000000	100.081323
2082.000000	100.056944
2081.000000	99.899268
2080.000000	100.034376
2079.000000	100.070821
2078.000000	99.904173
2077.000000	99.894895
2076.000000	99.990905
2075.000000	99.945845
2074.000000	99.832115
2073.000000	99.878389
2072.000000	99.915053
2071.000000	100.025375
2070.000000	100.148174
2069.000000	100.039644
2068.000000	100.076054
2067.000000	99.996763
2066.000000	99.990896
2065.000000	100.000405
2064.000000	99.966323
2063.000000	100.007380
2062.000000	100.037610
2061.000000	100.098939
2060.000000	100.069198
2059.000000	99.942274
2058.000000	99.865095
2057.000000	99.959348
2056.000000	100.067583
2055.000000	100.021042
2054.000000	99.998179
2053.000000	100.020846
2052.000000	100.020545
2051.000000	99.993626
2050.000000	100.011131
2049.000000	100.053330
2048.000000	100.050617
2047.000000	100.015695
2046.000000	100.065419
2045.000000	100.006275
2044.000000	99.960842
2043.000000	100.008808
2042.000000	100.047189
2041.000000	100.076956
2040.000000	100.041921
2039.000000	99.942303
2038.000000	99.978642
2037.000000	99.954857
2036.000000	99.943083
2035.000000	100.019249
2034.000000	100.023096
2033.000000	99.990681
2032.000000	99.992098
2031.000000	100.058858
2030.000000	99.984712
2029.000000	99.913137
2028.000000	99.952099
2027.000000	99.978329
2026.000000	99.988658
2025.000000	99.949372
2024.000000	99.981161
2023.000000	100.026042
2022.000000	99.980746
2021.000000	99.956424
2020.000000	100.011353
2019.000000	100.043095
2018.000000	100.017843
2017.000000	100.032145
2016.000000	100.059842
2015.000000	99.983981
2014.000000	99.960260
2013.000000	99.982355
2012.000000	99.973734
2011.000000	100.050215
2010.000000	100.013390
2009.000000	99.963893
2008.000000	99.974436
2007.000000	99.967638
2006.000000	100.000101
2005.000000	100.013697
2004.000000	100.003552
2003.000000	100.007208
2002.000000	100.026805
2001.000000	100.035235
2000.000000	99.991373
1999.000000	99.975240
1998.000000	100.031260
1997.000000	100.024466
1996.000000	100.038682
1995.000000	99.983659
1994.000000	99.986296
1993.000000	100.009444
1992.000000	99.997258
1991.000000	99.980102
1990.000000	99.972995
1989.000000	100.042461
1988.000000	99.981519
1987.000000	99.993804
1986.000000	99.996039
1985.000000	99.955627
1984.000000	99.998070
1983.000000	100.006401
1982.000000	100.024383
1981.000000	100.003454
1980.000000	99.962217
1979.000000	99.965364
1978.000000	100.022961
1977.000000	99.976635
1976.000000	99.940674
1975.000000	99.959674
1974.000000	99.975621
1973.000000	99.992888
1972.000000	99.963426
1971.000000	99.997663
1970.000000	99.982831
1969.000000	100.039628
1968.000000	100.021029
1967.000000	100.007212
1966.000000	99.999086
1965.000000	99.978367
1964.000000	99.960899
1963.000000	100.009855
1962.000000	99.950437
1961.000000	99.989845
1960.000000	100.032009
1959.000000	100.074582
1958.000000	99.995734
1957.000000	99.998476
1956.000000	100.040735
1955.000000	99.868566
1954.000000	99.974919
1953.000000	99.989950
1952.000000	100.040517
1951.000000	100.026614
1950.000000	100.001117
1949.000000	100.015231
1948.000000	100.088782
1947.000000	100.011168
1946.000000	99.996853
1945.000000	100.003756
1944.000000	100.033497
1943.000000	99.978079
1942.000000	100.108975
1941.000000	100.030655
1940.000000	99.921821
1939.000000	99.977485
1938.000000	99.950852
1937.000000	100.004054
1936.000000	99.973657
1935.000000	100.021390
1934.000000	99.984696
1933.000000	99.992704
1932.000000	100.022189
1931.000000	99.996250
1930.000000	100.011046
1929.000000	100.033947
1928.000000	100.020980
1927.000000	100.039626
1926.000000	100.042247
1925.000000	99.948855
1924.000000	99.954326
1923.000000	100.032519
1922.000000	99.925063
1921.000000	100.041656
1920.000000	100.059889
1919.000000	100.028170
1918.000000	100.038002
1917.000000	100.066200
1916.000000	100.014997
1915.000000	100.100789
1914.000000	100.026750
1913.000000	100.051476
1912.000000	100.019058
1911.000000	100.022399
1910.000000	100.067331
1909.000000	99.991077
1908.000000	100.047753
1907.000000	99.982353
1906.000000	100.022511
1905.000000	100.004055
1904.000000	100.087747
1903.000000	99.997060
1902.000000	99.923163
1901.000000	99.892983
1900.000000	100.005171
1899.000000	99.993509
1898.000000	100.014208
1897.000000	99.983263
1896.000000	100.023841
1895.000000	100.012991
1894.000000	99.973416
1893.000000	99.993912
1892.000000	100.032187
1891.000000	100.033490
1890.000000	99.974332
1889.000000	99.943482
1888.000000	99.961651
1887.000000	99.924943
1886.000000	99.962887
1885.000000	99.966239
1884.000000	99.941404
1883.000000	99.998986
1882.000000	99.973144
1881.000000	99.974668
1880.000000	100.030410
1879.000000	99.931727
1878.000000	99.994123
1877.000000	100.067282
1876.000000	100.094649
1875.000000	99.982280
1874.000000	100.064626
1873.000000	99.990990
1872.000000	99.977825
1871.000000	99.997368
1870.000000	100.028656
1869.000000	100.027643
1868.000000	100.026940
1867.000000	100.001114
1866.000000	99.982985
1865.000000	100.002837
1864.000000	99.962124
1863.000000	99.971643
1862.000000	100.015703
1861.000000	100.020563
1860.000000	100.005877
1859.000000	100.000203
1858.000000	99.995541
1857.000000	99.956538
1856.000000	99.958991
1855.000000	100.049631
1854.000000	100.019351
1853.000000	100.028168
1852.000000	100.021074
1851.000000	100.015500
1850.000000	99.998683
1849.000000	99.995847
1848.000000	99.977520
1847.000000	99.994226
1846.000000	100.018235
1845.000000	99.975590
1844.000000	100.005166
1843.000000	100.007494
1842.000000	100.017012
1841.000000	99.995443
1840.000000	99.982785
1839.000000	100.002634
1838.000000	100.016008
1837.000000	100.021279
1836.000000	100.032838
1835.000000	100.056481
1834.000000	100.025752
1833.000000	100.002027
1832.000000	100.002940
1831.000000	99.981346
1830.000000	99.983168
1829.000000	100.003448
1828.000000	99.979413
1827.000000	99.988743
1826.000000	100.022115
1825.000000	100.030946
1824.000000	99.998884
1823.000000	100.005784
1822.000000	100.044046
1821.000000	100.040490
1820.000000	100.005886
1819.000000	99.999493
1818.000000	99.994925
1817.000000	99.995838
1816.000000	100.022741
1815.000000	100.020305
1814.000000	100.001218
1813.000000	100.010861
1812.000000	100.025482
1811.000000	100.014011
1810.000000	100.007920
1809.000000	100.013405
1808.000000	99.996548
1807.000000	99.980809
1806.000000	99.988422
1805.000000	99.975219
1804.000000	99.997664
1803.000000	100.032914
1802.000000	100.015035
1801.000000	99.990553
1800.000000	99.994006
1799.000000	100.022149
1798.000000	100.006908
1797.000000	99.995733
1796.000000	99.997358
1795.000000	100.011075
1794.000000	100.023068
1793.000000	100.022152
1792.000000	100.027841
1791.000000	100.040861
1790.000000	100.023280
1789.000000	99.997764
1788.000000	100.000915
1787.000000	100.029889
1786.000000	100.021753
1785.000000	100.006708
1784.000000	99.988922
1783.000000	99.954278
1782.000000	99.979370
1781.000000	100.009654
1780.000000	99.995530
1779.000000	99.996545
1778.000000	100.005692
1777.000000	100.009656
1776.000000	100.019315
1775.000000	99.993395
1774.000000	99.987095
1773.000000	99.992175
1772.000000	99.999594
1771.000000	100.015755
1770.000000	100.029273
1769.000000	100.020125
1768.000000	99.971348
1767.000000	100.023781
1766.000000	99.987502
1765.000000	100.032021
1764.000000	100.028666
1763.000000	100.007215
1762.000000	99.990347
1761.000000	100.011890
1760.000000	99.954895
1759.000000	99.986383
1758.000000	100.004676
1757.000000	100.017381
1756.000000	99.991362
1755.000000	99.997764
1754.000000	100.016565
1753.000000	99.992989
1752.000000	99.978563
1751.000000	99.968409
1750.000000	99.989231
1749.000000	100.022154
1748.000000	100.000305
1747.000000	100.045026
1746.000000	100.050009
1745.000000	99.997460
1744.000000	100.011280
1743.000000	100.039534
1742.000000	100.034654
1741.000000	99.986894
1740.000000	100.007519
1739.000000	99.995835
1738.000000	99.963933
1737.000000	99.992482
1736.000000	100.018087
1735.000000	99.996850
1734.000000	100.010161
1733.000000	99.995225
1732.000000	99.992584
1731.000000	99.988723
1730.000000	100.023070
1729.000000	100.021949
1728.000000	100.046949
1727.000000	100.024385
1726.000000	99.995225
1725.000000	100.011278
1724.000000	100.037600
1723.000000	99.983949
1722.000000	99.987807
1721.000000	100.028650
1720.000000	100.032413
1719.000000	100.031905
1718.000000	100.001626
1717.000000	100.043290
1716.000000	100.037087
1715.000000	100.025909
1714.000000	100.018286
1713.000000	100.010669
1712.000000	99.990247
1711.000000	99.998984
1710.000000	100.026317
1709.000000	100.010160
1708.000000	100.013003
1707.000000	99.987305
1706.000000	100.006400
1705.000000	99.975825
1704.000000	100.018591
1703.000000	100.007315
1702.000000	99.983236
1701.000000	100.020217
1700.000000	99.953694
1699.000000	99.983345
1698.000000	99.996445
1697.000000	99.984157
1696.000000	100.015136
1695.000000	100.006603
1694.000000	100.027127
1693.000000	99.997460
1692.000000	99.962629
1691.000000	100.008027
1690.000000	99.996343
1689.000000	100.002844
1688.000000	100.011581
1687.000000	100.043792
1686.000000	100.002235
1685.000000	100.018083
1684.000000	99.979892
1683.000000	99.978569
1682.000000	100.014425
1681.000000	99.975725
1680.000000	99.980706
1679.000000	99.981817
1678.000000	99.985373
1677.000000	99.994008
1676.000000	100.022144
1675.000000	100.019504
1674.000000	99.993296
1673.000000	99.981517
1672.000000	100.017473
1671.000000	100.007416
1670.000000	100.021026
1669.000000	99.988223
1668.000000	99.965282
1667.000000	99.993705
1666.000000	99.996041
1665.000000	99.996548
1664.000000	100.009038
1663.000000	99.996548
1662.000000	99.981827
1661.000000	99.990050
1660.000000	100.016958
1659.000000	100.024169
1658.000000	100.008429
1657.000000	100.015030
1656.000000	100.023151
1655.000000	99.999898
1654.000000	100.019700
1653.000000	100.002031
1652.000000	99.985077
1651.000000	100.010357
1650.000000	100.014519
1649.000000	99.979695
1648.000000	99.998680
1647.000000	99.985583
1646.000000	100.006701
1645.000000	99.999289
1644.000000	99.989137
1643.000000	99.985281
1642.000000	99.988326
1641.000000	99.989646
1640.000000	100.009340
1639.000000	99.989342
1638.000000	99.981830
1637.000000	100.016145
1636.000000	100.000000
1635.000000	100.023048
1634.000000	100.001015
1633.000000	100.004264
1632.000000	100.018581
1631.000000	100.014318
1630.000000	100.015028
1629.000000	100.027925
1628.000000	100.030261
1627.000000	99.994315
1626.000000	99.993097
1625.000000	100.013605
1624.000000	99.993300
1623.000000	100.005076
1622.000000	99.999492
1621.000000	100.001320
1620.000000	99.999695
1619.000000	99.992082
1618.000000	99.991879
1617.000000	99.995330
1616.000000	100.001929
1615.000000	100.021322
1614.000000	100.018175
1613.000000	100.019392
1612.000000	99.990052
1611.000000	100.002944
1610.000000	100.008933
1609.000000	100.009948
1608.000000	100.023960
1607.000000	100.013807
1606.000000	100.013909
1605.000000	100.003553
1604.000000	99.995229
1603.000000	99.999493
1602.000000	100.018577
1601.000000	100.019188
1600.000000	99.998985
1599.000000	100.008020
1598.000000	100.010456
1597.000000	99.989241
1596.000000	99.988226
1595.000000	99.988530
1594.000000	99.997056
1593.000000	99.998274
1592.000000	99.997056
1591.000000	100.000609
1590.000000	100.009035
1589.000000	99.985790
1588.000000	99.976960
1587.000000	99.994823
1586.000000	100.007614
1585.000000	100.027209
1584.000000	100.023147
1583.000000	100.014314
1582.000000	100.006598
1581.000000	100.006395
1580.000000	99.999290
1579.000000	99.988937
1578.000000	100.009846
1577.000000	100.022129
1576.000000	100.024970
1575.000000	100.025580
1574.000000	100.008221
1573.000000	100.014312
1572.000000	100.013399
1571.000000	100.006598
1570.000000	100.007308
1569.000000	100.014108
1568.000000	100.015834
1567.000000	100.009946
1566.000000	99.997362
1565.000000	99.995027
1564.000000	100.004770
1563.000000	100.013295
1562.000000	100.002436
1561.000000	100.008628
1560.000000	100.004465
1559.000000	100.023038
1558.000000	100.004669
1557.000000	99.996549
1556.000000	99.998579
1555.000000	100.012483
1554.000000	100.019891
1553.000000	100.012380
1552.000000	100.008727
1551.000000	100.002739
1550.000000	100.004566
1549.000000	100.003349
1548.000000	100.001623
1547.000000	99.990666
1546.000000	99.996753
1545.000000	100.012583
1544.000000	100.012075
1543.000000	99.999391
1542.000000	99.993608
1541.000000	100.005378
1540.000000	99.991275
1539.000000	99.997362
1538.000000	99.992391
1537.000000	100.002333
1536.000000	99.981437
1535.000000	99.985899
1534.000000	100.013089
1533.000000	100.015118
1532.000000	100.003044
1531.000000	100.008015
1530.000000	100.017758
1529.000000	100.014310
1528.000000	100.013396
1527.000000	100.008727
1526.000000	100.008627
1525.000000	99.979808
1524.000000	99.978592
1523.000000	99.989549
1522.000000	99.981327
1521.000000	100.009540
1520.000000	100.002131
1519.000000	99.999087
1518.000000	99.997768
1517.000000	100.001421
1516.000000	100.032474
1515.000000	100.005277
1514.000000	100.009741
1513.000000	100.008729
1512.000000	99.994115
1511.000000	100.000203
1510.000000	99.998072
1509.000000	100.007916
1508.000000	100.014921
1507.000000	99.996143
1506.000000	99.998985
1505.000000	99.979906
1504.000000	99.988939
1503.000000	100.000507
1502.000000	100.005379
1501.000000	100.012891
1500.000000	100.009844
1499.000000	99.993100
1498.000000	100.007104
1497.000000	100.005886
1496.000000	100.017049
1495.000000	99.998782
1494.000000	100.009234
1493.000000	100.011670
1492.000000	99.994520
1491.000000	100.009235
