PE UV       SUBTECH     SPECTRUM    ASCII       PEDS        4.00        
   -1
RDmsopph192.Sample.asc
18/03/21
09:51:54.00
18/03/21
09:51:54.00
Administrator

200.000000
1
Lambda 750
750N8071901
PerkinElmer UV WinLab 6.0.4.0738 / 1.61.00 Lambda 900

0
0
3350/servo 860.8/2
0
0
UV/VIS
1
1
1
CommonBeamDepol,150mm sphere / downward view
0
0
0
0
Program
Program
3350/servo 860.8/2
3350/0.2 860.8/0.2
3350/0.2 860.8/0.2
0
1
 
 
 
0
 
860.8
319.2
860.8
Front
100
on
 
 
0
0
0
 
0
 
 
 
0
 
 
0
0
0
0
0
 
 
 
 
0
0


0
0
#HDR
-1
-1
#GR
nm
%R
1.0
0.0
2350.000000
-1.000000
2151
8
67.608212
10.826838
#DATA
2350.000000	28.878545
2349.000000	28.941509
2348.000000	28.714123
2347.000000	29.259509
2346.000000	28.936308
2345.000000	28.935158
2344.000000	28.823810
2343.000000	28.294761
2342.000000	29.039094
2341.000000	29.156038
2340.000000	28.939079
2339.000000	29.114574
2338.000000	29.546968
2337.000000	29.628700
2336.000000	29.545057
2335.000000	29.584236
2334.000000	29.601794
2333.000000	29.701444
2332.000000	29.677148
2331.000000	29.745629
2330.000000	29.954003
2329.000000	29.685984
2328.000000	29.608027
2327.000000	29.427226
2326.000000	29.374964
2325.000000	29.226670
2324.000000	29.477143
2323.000000	29.076958
2322.000000	29.254379
2321.000000	29.279619
2320.000000	29.377138
2319.000000	29.425029
2318.000000	29.387889
2317.000000	29.208731
2316.000000	29.186989
2315.000000	28.997199
2314.000000	29.040142
2313.000000	28.978693
2312.000000	29.168719
2311.000000	28.579741
2310.000000	28.599323
2309.000000	28.641002
2308.000000	28.908229
2307.000000	28.580403
2306.000000	28.493936
2305.000000	28.724396
2304.000000	28.515805
2303.000000	28.532099
2302.000000	28.520467
2301.000000	28.095492
2300.000000	28.200530
2299.000000	27.885253
2298.000000	27.989761
2297.000000	27.918311
2296.000000	27.825184
2295.000000	27.585704
2294.000000	27.798743
2293.000000	27.708848
2292.000000	27.704377
2291.000000	27.412629
2290.000000	27.351917
2289.000000	27.178192
2288.000000	27.303562
2287.000000	27.427911
2286.000000	27.308744
2285.000000	27.239730
2284.000000	27.125863
2283.000000	27.193996
2282.000000	27.202600
2281.000000	27.090997
2280.000000	27.232619
2279.000000	27.417314
2278.000000	27.326894
2277.000000	27.309705
2276.000000	27.274508
2275.000000	27.484712
2274.000000	27.586273
2273.000000	27.453520
2272.000000	27.430990
2271.000000	27.413048
2270.000000	27.336981
2269.000000	27.508238
2268.000000	27.694893
2267.000000	27.783011
2266.000000	27.977236
2265.000000	27.980146
2264.000000	27.935221
2263.000000	27.952037
2262.000000	28.160819
2261.000000	28.443275
2260.000000	28.605384
2259.000000	28.794860
2258.000000	28.887464
2257.000000	29.032029
2256.000000	29.121404
2255.000000	29.400614
2254.000000	29.706615
2253.000000	29.783783
2252.000000	29.897639
2251.000000	30.009398
2250.000000	30.221289
2249.000000	30.461393
2248.000000	30.608470
2247.000000	30.768856
2246.000000	30.917593
2245.000000	31.103716
2244.000000	31.390359
2243.000000	31.709653
2242.000000	31.815273
2241.000000	31.926692
2240.000000	32.151111
2239.000000	32.199749
2238.000000	32.246168
2237.000000	32.425716
2236.000000	32.560918
2235.000000	32.566383
2234.000000	32.638811
2233.000000	32.781746
2232.000000	32.879169
2231.000000	32.979721
2230.000000	32.986309
2229.000000	33.013523
2228.000000	33.084018
2227.000000	33.031324
2226.000000	33.063530
2225.000000	32.998845
2224.000000	32.913590
2223.000000	32.988916
2222.000000	33.036529
2221.000000	32.953089
2220.000000	32.965872
2219.000000	32.974260
2218.000000	32.942588
2217.000000	32.868732
2216.000000	32.769302
2215.000000	32.831120
2214.000000	32.763132
2213.000000	32.783664
2212.000000	32.684821
2211.000000	32.535699
2210.000000	32.617948
2209.000000	32.560172
2208.000000	32.287720
2207.000000	32.216889
2206.000000	32.153318
2205.000000	32.044673
2204.000000	32.025077
2203.000000	32.025338
2202.000000	31.945783
2201.000000	31.901016
2200.000000	31.829815
2199.000000	31.933346
2198.000000	31.794562
2197.000000	31.622535
2196.000000	31.597409
2195.000000	31.443177
2194.000000	31.275169
2193.000000	31.119394
2192.000000	31.222635
2191.000000	31.143557
2190.000000	31.071065
2189.000000	31.156380
2188.000000	31.063470
2187.000000	30.994043
2186.000000	31.039405
2185.000000	31.008362
2184.000000	30.961843
2183.000000	30.974496
2182.000000	30.672426
2181.000000	30.765292
2180.000000	30.819150
2179.000000	30.658616
2178.000000	30.604554
2177.000000	30.661948
2176.000000	30.703506
2175.000000	30.848250
2174.000000	30.786891
2173.000000	30.829903
2172.000000	30.871742
2171.000000	30.992018
2170.000000	31.038508
2169.000000	31.281309
2168.000000	31.226036
2167.000000	31.211060
2166.000000	31.352935
2165.000000	31.227714
2164.000000	31.272375
2163.000000	31.374411
2162.000000	31.776568
2161.000000	31.884114
2160.000000	31.719199
2159.000000	31.864806
2158.000000	31.784440
2157.000000	32.271542
2156.000000	32.307467
2155.000000	32.541355
2154.000000	32.674478
2153.000000	33.022361
2152.000000	33.043426
2151.000000	33.027445
2150.000000	33.083272
2149.000000	33.398889
2148.000000	33.423552
2147.000000	33.654648
2146.000000	33.716838
2145.000000	33.865174
2144.000000	34.052487
2143.000000	34.120201
2142.000000	34.174288
2141.000000	34.372902
2140.000000	34.432356
2139.000000	34.634406
2138.000000	34.737865
2137.000000	34.904093
2136.000000	35.013371
2135.000000	34.976303
2134.000000	35.174181
2133.000000	35.128275
2132.000000	35.368015
2131.000000	35.475964
2130.000000	35.610643
2129.000000	35.612556
2128.000000	35.476752
2127.000000	35.501386
2126.000000	35.778209
2125.000000	35.831074
2124.000000	35.819564
2123.000000	35.580598
2122.000000	35.876523
2121.000000	35.932361
2120.000000	36.098416
2119.000000	36.094234
2118.000000	36.078659
2117.000000	36.122094
2116.000000	36.192375
2115.000000	36.430666
2114.000000	36.208389
2113.000000	36.167608
2112.000000	36.199317
2111.000000	36.317057
2110.000000	36.301948
2109.000000	36.333633
2108.000000	36.325720
2107.000000	36.387302
2106.000000	36.431581
2105.000000	36.535257
2104.000000	36.462111
2103.000000	36.508883
2102.000000	36.555925
2101.000000	36.587851
2100.000000	36.625971
2099.000000	36.561141
2098.000000	36.606989
2097.000000	36.582892
2096.000000	36.548152
2095.000000	36.499129
2094.000000	36.499460
2093.000000	36.496089
2092.000000	36.527791
2091.000000	36.433677
2090.000000	36.448520
2089.000000	36.510783
2088.000000	36.511589
2087.000000	36.439275
2086.000000	36.442205
2085.000000	36.489148
2084.000000	36.432039
2083.000000	36.303191
2082.000000	36.218342
2081.000000	36.189755
2080.000000	36.029319
2079.000000	36.050288
2078.000000	35.921364
2077.000000	35.841564
2076.000000	35.795718
2075.000000	35.757391
2074.000000	35.554461
2073.000000	35.460192
2072.000000	35.385772
2071.000000	35.268768
2070.000000	35.177052
2069.000000	34.963500
2068.000000	34.884063
2067.000000	34.803936
2066.000000	34.555027
2065.000000	34.544446
2064.000000	34.441153
2063.000000	34.192545
2062.000000	34.068516
2061.000000	33.938699
2060.000000	33.855818
2059.000000	33.696975
2058.000000	33.509299
2057.000000	33.418860
2056.000000	33.306991
2055.000000	33.146449
2054.000000	32.935733
2053.000000	32.809665
2052.000000	32.719156
2051.000000	32.574701
2050.000000	32.396516
2049.000000	32.281496
2048.000000	32.182863
2047.000000	32.199042
2046.000000	32.141838
2045.000000	32.086902
2044.000000	32.025185
2043.000000	31.962084
2042.000000	31.991479
2041.000000	32.032306
2040.000000	32.065305
2039.000000	32.024558
2038.000000	32.113632
2037.000000	32.185350
2036.000000	32.210348
2035.000000	32.291070
2034.000000	32.369167
2033.000000	32.442712
2032.000000	32.563199
2031.000000	32.667605
2030.000000	32.818427
2029.000000	32.923127
2028.000000	32.997169
2027.000000	33.121724
2026.000000	33.254876
2025.000000	33.322569
2024.000000	33.363185
2023.000000	33.453925
2022.000000	33.546645
2021.000000	33.588738
2020.000000	33.629984
2019.000000	33.635652
2018.000000	33.675810
2017.000000	33.681827
2016.000000	33.653037
2015.000000	33.683924
2014.000000	33.684101
2013.000000	33.697137
2012.000000	33.637090
2011.000000	33.647023
2010.000000	33.654995
2009.000000	33.502255
2008.000000	33.384716
2007.000000	33.324319
2006.000000	33.252360
2005.000000	33.171245
2004.000000	33.079981
2003.000000	32.992980
2002.000000	32.935067
2001.000000	32.846713
2000.000000	32.738078
1999.000000	32.652881
1998.000000	32.528381
1997.000000	32.456835
1996.000000	32.384297
1995.000000	32.255577
1994.000000	32.146269
1993.000000	32.092682
1992.000000	31.989571
1991.000000	31.843467
1990.000000	31.808471
1989.000000	31.696216
1988.000000	31.623685
1987.000000	31.508154
1986.000000	31.381917
1985.000000	31.270599
1984.000000	31.160394
1983.000000	31.085522
1982.000000	31.000719
1981.000000	30.900187
1980.000000	30.813371
1979.000000	30.690608
1978.000000	30.595815
1977.000000	30.512614
1976.000000	30.414210
1975.000000	30.308679
1974.000000	30.178471
1973.000000	30.127907
1972.000000	30.035842
1971.000000	29.908459
1970.000000	29.808030
1969.000000	29.718254
1968.000000	29.671114
1967.000000	29.579454
1966.000000	29.460626
1965.000000	29.380033
1964.000000	29.302263
1963.000000	29.228045
1962.000000	29.158468
1961.000000	29.080043
1960.000000	28.984626
1959.000000	28.902670
1958.000000	28.860016
1957.000000	28.774423
1956.000000	28.726308
1955.000000	28.616550
1954.000000	28.602824
1953.000000	28.558259
1952.000000	28.513673
1951.000000	28.506809
1950.000000	28.418763
1949.000000	28.335712
1948.000000	28.351816
1947.000000	28.332779
1946.000000	28.263300
1945.000000	28.304558
1944.000000	28.277851
1943.000000	28.333918
1942.000000	28.394548
1941.000000	28.342468
1940.000000	28.408713
1939.000000	28.565707
1938.000000	28.550403
1937.000000	28.567450
1936.000000	28.822728
1935.000000	28.801152
1934.000000	28.963653
1933.000000	29.037585
1932.000000	29.204204
1931.000000	29.363370
1930.000000	29.517107
1929.000000	29.673293
1928.000000	29.847089
1927.000000	30.019937
1926.000000	30.129095
1925.000000	30.432416
1924.000000	30.696343
1923.000000	30.961590
1922.000000	31.170286
1921.000000	31.495283
1920.000000	31.689760
1919.000000	32.077428
1918.000000	32.320366
1917.000000	32.565518
1916.000000	32.939657
1915.000000	33.363761
1914.000000	33.708452
1913.000000	34.058024
1912.000000	34.473279
1911.000000	34.854397
1910.000000	35.237656
1909.000000	35.646588
1908.000000	36.099718
1907.000000	36.540594
1906.000000	37.076908
1905.000000	37.577086
1904.000000	38.052342
1903.000000	38.617025
1902.000000	39.120814
1901.000000	39.621303
1900.000000	40.096499
1899.000000	40.669926
1898.000000	41.254196
1897.000000	41.758917
1896.000000	42.357271
1895.000000	42.942953
1894.000000	43.396384
1893.000000	43.906862
1892.000000	44.444908
1891.000000	44.980188
1890.000000	45.512584
1889.000000	46.017726
1888.000000	46.498414
1887.000000	47.000500
1886.000000	47.367448
1885.000000	47.820647
1884.000000	48.259362
1883.000000	48.635273
1882.000000	49.081811
1881.000000	49.447864
1880.000000	49.776876
1879.000000	50.074475
1878.000000	50.480368
1877.000000	50.823087
1876.000000	51.060983
1875.000000	51.363868
1874.000000	51.639787
1873.000000	51.863766
1872.000000	52.103805
1871.000000	52.371704
1870.000000	52.538249
1869.000000	52.738882
1868.000000	52.868246
1867.000000	53.057855
1866.000000	53.184372
1865.000000	53.294262
1864.000000	53.382814
1863.000000	53.505419
1862.000000	53.571048
1861.000000	53.631972
1860.000000	53.686337
1859.000000	53.732883
1858.000000	53.802598
1857.000000	53.892789
1856.000000	53.971156
1855.000000	54.009760
1854.000000	54.040923
1853.000000	54.038738
1852.000000	54.048728
1851.000000	54.068427
1850.000000	54.092873
1849.000000	54.118223
1848.000000	54.109619
1847.000000	54.141171
1846.000000	54.094693
1845.000000	54.057611
1844.000000	54.043262
1843.000000	54.038320
1842.000000	53.995141
1841.000000	53.985956
1840.000000	53.949859
1839.000000	53.935204
1838.000000	53.907623
1837.000000	53.834193
1836.000000	53.763431
1835.000000	53.747028
1834.000000	53.706948
1833.000000	53.667887
1832.000000	53.616389
1831.000000	53.549610
1830.000000	53.503849
1829.000000	53.490509
1828.000000	53.431419
1827.000000	53.394814
1826.000000	53.354152
1825.000000	53.296051
1824.000000	53.275795
1823.000000	53.239438
1822.000000	53.183494
1821.000000	53.149221
1820.000000	53.107730
1819.000000	53.050871
1818.000000	53.021883
1817.000000	52.987997
1816.000000	52.933403
1815.000000	52.877785
1814.000000	52.821724
1813.000000	52.798501
1812.000000	52.798414
1811.000000	52.758962
1810.000000	52.711832
1809.000000	52.690608
1808.000000	52.643294
1807.000000	52.585411
1806.000000	52.540435
1805.000000	52.502843
1804.000000	52.461633
1803.000000	52.428768
1802.000000	52.385010
1801.000000	52.354403
1800.000000	52.339794
1799.000000	52.301341
1798.000000	52.265277
1797.000000	52.256053
1796.000000	52.236907
1795.000000	52.202945
1794.000000	52.171089
1793.000000	52.146397
1792.000000	52.110878
1791.000000	52.071081
1790.000000	52.038035
1789.000000	52.027067
1788.000000	51.981903
1787.000000	51.942898
1786.000000	51.932230
1785.000000	51.894508
1784.000000	51.862053
1783.000000	51.837929
1782.000000	51.820433
1781.000000	51.780013
1780.000000	51.732380
1779.000000	51.678504
1778.000000	51.575700
1777.000000	51.539291
1776.000000	51.525917
1775.000000	51.433698
1774.000000	51.345622
1773.000000	51.323416
1772.000000	51.238823
1771.000000	51.190788
1770.000000	51.131592
1769.000000	51.064140
1768.000000	50.993535
1767.000000	50.947354
1766.000000	50.893324
1765.000000	50.851103
1764.000000	50.805233
1763.000000	50.739872
1762.000000	50.688186
1761.000000	50.637566
1760.000000	50.540785
1759.000000	50.499787
1758.000000	50.444735
1757.000000	50.387721
1756.000000	50.341697
1755.000000	50.290422
1754.000000	50.206640
1753.000000	50.143199
1752.000000	50.115686
1751.000000	50.038443
1750.000000	49.989310
1749.000000	49.938606
1748.000000	49.881108
1747.000000	49.777282
1746.000000	49.718036
1745.000000	49.635468
1744.000000	49.582383
1743.000000	49.560660
1742.000000	49.462974
1741.000000	49.424128
1740.000000	49.357190
1739.000000	49.324769
1738.000000	49.275393
1737.000000	49.238431
1736.000000	49.221107
1735.000000	49.171623
1734.000000	49.171934
1733.000000	49.149204
1732.000000	49.171652
1731.000000	49.200392
1730.000000	49.180340
1729.000000	49.211162
1728.000000	49.295438
1727.000000	49.372088
1726.000000	49.478936
1725.000000	49.528145
1724.000000	49.584953
1723.000000	49.687377
1722.000000	49.834685
1721.000000	49.942526
1720.000000	50.040112
1719.000000	50.173504
1718.000000	50.250572
1717.000000	50.374242
1716.000000	50.473913
1715.000000	50.564309
1714.000000	50.670615
1713.000000	50.791611
1712.000000	50.864092
1711.000000	50.965934
1710.000000	51.005743
1709.000000	51.059317
1708.000000	51.142687
1707.000000	51.208345
1706.000000	51.177995
1705.000000	51.262423
1704.000000	51.292107
1703.000000	51.252356
1702.000000	51.324644
1701.000000	51.377162
1700.000000	51.370252
1699.000000	51.338258
1698.000000	51.397634
1697.000000	51.435111
1696.000000	51.476639
1695.000000	51.522028
1694.000000	51.538544
1693.000000	51.592204
1692.000000	51.663725
1691.000000	51.730728
1690.000000	51.832779
1689.000000	51.946113
1688.000000	52.050474
1687.000000	52.184826
1686.000000	52.286038
1685.000000	52.480620
1684.000000	52.637507
1683.000000	52.798591
1682.000000	52.987779
1681.000000	53.199261
1680.000000	53.343166
1679.000000	53.562414
1678.000000	53.769639
1677.000000	53.967855
1676.000000	54.161612
1675.000000	54.356814
1674.000000	54.568583
1673.000000	54.743797
1672.000000	54.940653
1671.000000	55.118894
1670.000000	55.278089
1669.000000	55.470631
1668.000000	55.647864
1667.000000	55.816743
1666.000000	55.886685
1665.000000	55.997985
1664.000000	56.118591
1663.000000	56.189847
1662.000000	56.295467
1661.000000	56.402200
1660.000000	56.479115
1659.000000	56.551006
1658.000000	56.589382
1657.000000	56.622242
1656.000000	56.667924
1655.000000	56.707227
1654.000000	56.741966
1653.000000	56.756902
1652.000000	56.777004
1651.000000	56.755652
1650.000000	56.783259
1649.000000	56.802552
1648.000000	56.784466
1647.000000	56.775018
1646.000000	56.758995
1645.000000	56.742977
1644.000000	56.728887
1643.000000	56.698536
1642.000000	56.675321
1641.000000	56.630627
1640.000000	56.608421
1639.000000	56.584290
1638.000000	56.541892
1637.000000	56.522044
1636.000000	56.465356
1635.000000	56.425853
1634.000000	56.392487
1633.000000	56.342833
1632.000000	56.297848
1631.000000	56.256428
1630.000000	56.208923
1629.000000	56.154874
1628.000000	56.105844
1627.000000	56.063321
1626.000000	56.005913
1625.000000	55.956084
1624.000000	55.900784
1623.000000	55.848055
1622.000000	55.815437
1621.000000	55.728770
1620.000000	55.674657
1619.000000	55.625032
1618.000000	55.564281
1617.000000	55.499178
1616.000000	55.420671
1615.000000	55.330168
1614.000000	55.276595
1613.000000	55.226085
1612.000000	55.155858
1611.000000	55.082008
1610.000000	55.010162
1609.000000	54.933710
1608.000000	54.866733
1607.000000	54.791748
1606.000000	54.715202
1605.000000	54.668853
1604.000000	54.586569
1603.000000	54.501704
1602.000000	54.429247
1601.000000	54.346928
1600.000000	54.276054
1599.000000	54.215928
1598.000000	54.140558
1597.000000	54.069363
1596.000000	54.011529
1595.000000	53.945880
1594.000000	53.876033
1593.000000	53.815612
1592.000000	53.759265
1591.000000	53.694710
1590.000000	53.628672
1589.000000	53.562130
1588.000000	53.529890
1587.000000	53.469495
1586.000000	53.398657
1585.000000	53.360737
1584.000000	53.297924
1583.000000	53.243130
1582.000000	53.199134
1581.000000	53.134565
1580.000000	53.087098
1579.000000	53.036713
1578.000000	52.994151
1577.000000	52.953149
1576.000000	52.883407
1575.000000	52.832125
1574.000000	52.785708
1573.000000	52.708427
1572.000000	52.667273
1571.000000	52.631097
1570.000000	52.587889
1569.000000	52.537205
1568.000000	52.480273
1567.000000	52.441850
1566.000000	52.399160
1565.000000	52.384056
1564.000000	52.354710
1563.000000	52.328163
1562.000000	52.283842
1561.000000	52.243941
1560.000000	52.219994
1559.000000	52.187920
1558.000000	52.179051
1557.000000	52.162819
1556.000000	52.141817
1555.000000	52.133818
1554.000000	52.107275
1553.000000	52.070310
1552.000000	52.029794
1551.000000	51.976267
1550.000000	51.952803
1549.000000	51.918548
1548.000000	51.881226
1547.000000	51.810965
1546.000000	51.731736
1545.000000	51.678770
1544.000000	51.592041
1543.000000	51.500842
1542.000000	51.421155
1541.000000	51.325617
1540.000000	51.244281
1539.000000	51.157012
1538.000000	51.062876
1537.000000	50.941858
1536.000000	50.852908
1535.000000	50.752985
1534.000000	50.634721
1533.000000	50.561262
1532.000000	50.470516
1531.000000	50.371200
1530.000000	50.256966
1529.000000	50.185027
1528.000000	50.110955
1527.000000	50.025980
1526.000000	49.932074
1525.000000	49.849741
1524.000000	49.786850
1523.000000	49.740510
1522.000000	49.685828
1521.000000	49.637082
1520.000000	49.590590
1519.000000	49.528748
1518.000000	49.487695
1517.000000	49.465882
1516.000000	49.415538
1515.000000	49.368680
1514.000000	49.348582
1513.000000	49.322987
1512.000000	49.291908
1511.000000	49.262160
1510.000000	49.229552
1509.000000	49.217175
1508.000000	49.212515
1507.000000	49.176162
1506.000000	49.170475
1505.000000	49.165551
1504.000000	49.131329
1503.000000	49.138331
1502.000000	49.131810
1501.000000	49.123073
1500.000000	49.123248
1499.000000	49.115871
1498.000000	49.129312
1497.000000	49.125473
1496.000000	49.138419
1495.000000	49.155789
1494.000000	49.179978
1493.000000	49.223343
1492.000000	49.230862
1491.000000	49.274979
1490.000000	49.306988
1489.000000	49.329516
1488.000000	49.389218
1487.000000	49.430613
1486.000000	49.482902
1485.000000	49.532935
1484.000000	49.578083
1483.000000	49.650931
1482.000000	49.685227
1481.000000	49.754026
1480.000000	49.820003
1479.000000	49.855792
1478.000000	49.938846
1477.000000	49.976459
1476.000000	50.031975
1475.000000	50.096484
1474.000000	50.155872
1473.000000	50.206014
1472.000000	50.269859
1471.000000	50.341264
1470.000000	50.392553
