PE UV       SUBTECH     SPECTRUM    ASCII       PEDS        4.00        
   -1
RDmsopph202.Sample.asc
18/03/21
10:50:13.00
18/03/21
10:50:13.00
Administrator

200.000000
1
Lambda 750
750N8071901
PerkinElmer UV WinLab 6.0.4.0738 / 1.61.00 Lambda 900

0
0
3350/servo 860.8/2
0
0
UV/VIS
1
1
1
CommonBeamDepol,150mm sphere / downward view
0
0
0
0
Program
Program
3350/servo 860.8/2
3350/0.2 860.8/0.2
3350/0.2 860.8/0.2
0
1
 
 
 
0
 
860.8
319.2
860.8
Front
100
on
 
 
0
0
0
 
0
 
 
 
0
 
 
0
0
0
0
0
 
 
 
 
0
0


0
0
#HDR
-1
-1
#GR
nm
%R
1.0
0.0
2350.000000
-1.000000
2151
8
62.751303
8.702626
#DATA
2350.000000	29.583377
2349.000000	29.946076
2348.000000	29.735295
2347.000000	30.531071
2346.000000	30.471074
2345.000000	30.116107
2344.000000	30.303874
2343.000000	29.816311
2342.000000	30.456591
2341.000000	30.079692
2340.000000	30.197802
2339.000000	30.481068
2338.000000	30.793938
2337.000000	30.468432
2336.000000	30.577516
2335.000000	30.769862
2334.000000	30.696217
2333.000000	30.929975
2332.000000	31.337862
2331.000000	30.803421
2330.000000	30.426270
2329.000000	30.514295
2328.000000	30.613263
2327.000000	30.570155
2326.000000	30.843458
2325.000000	30.878850
2324.000000	30.667683
2323.000000	30.377919
2322.000000	30.492466
2321.000000	30.474631
2320.000000	30.639026
2319.000000	30.471224
2318.000000	30.644663
2317.000000	30.520383
2316.000000	30.491136
2315.000000	30.179496
2314.000000	30.047371
2313.000000	30.079923
2312.000000	29.687484
2311.000000	29.848176
2310.000000	29.787660
2309.000000	29.885348
2308.000000	29.748889
2307.000000	29.704492
2306.000000	29.596199
2305.000000	29.617520
2304.000000	29.693530
2303.000000	29.546143
2302.000000	29.610679
2301.000000	29.507302
2300.000000	29.279887
2299.000000	28.953958
2298.000000	29.010674
2297.000000	28.967040
2296.000000	28.859370
2295.000000	28.830579
2294.000000	28.809896
2293.000000	28.678172
2292.000000	28.624244
2291.000000	28.734442
2290.000000	28.663709
2289.000000	28.645308
2288.000000	28.626789
2287.000000	28.618444
2286.000000	28.493360
2285.000000	28.448866
2284.000000	28.452294
2283.000000	28.361312
2282.000000	28.276383
2281.000000	28.312613
2280.000000	28.454321
2279.000000	28.576507
2278.000000	28.560121
2277.000000	28.547130
2276.000000	28.712391
2275.000000	28.611565
2274.000000	28.560419
2273.000000	28.744035
2272.000000	28.809713
2271.000000	28.720370
2270.000000	28.640303
2269.000000	28.690169
2268.000000	28.850823
2267.000000	28.957045
2266.000000	28.969292
2265.000000	28.825076
2264.000000	28.996887
2263.000000	29.193648
2262.000000	29.371683
2261.000000	29.534725
2260.000000	29.519682
2259.000000	29.682811
2258.000000	29.888759
2257.000000	30.132434
2256.000000	30.319965
2255.000000	30.363124
2254.000000	30.526822
2253.000000	30.627127
2252.000000	30.741075
2251.000000	30.921296
2250.000000	31.170047
2249.000000	31.464303
2248.000000	31.617760
2247.000000	31.877635
2246.000000	32.140164
2245.000000	32.280224
2244.000000	32.337387
2243.000000	32.438148
2242.000000	32.638642
2241.000000	32.744269
2240.000000	32.852487
2239.000000	32.982697
2238.000000	33.069426
2237.000000	33.204152
2236.000000	33.275261
2235.000000	33.327747
2234.000000	33.471791
2233.000000	33.548433
2232.000000	33.572717
2231.000000	33.600065
2230.000000	33.550663
2229.000000	33.675161
2228.000000	33.781838
2227.000000	33.811179
2226.000000	33.787397
2225.000000	33.747529
2224.000000	33.516855
2223.000000	33.472088
2222.000000	33.647501
2221.000000	33.632249
2220.000000	33.657451
2219.000000	33.628243
2218.000000	33.644915
2217.000000	33.604963
2216.000000	33.481747
2215.000000	33.403779
2214.000000	33.474920
2213.000000	33.518305
2212.000000	33.474304
2211.000000	33.310300
2210.000000	33.202395
2209.000000	33.144129
2208.000000	33.148895
2207.000000	33.181302
2206.000000	33.088325
2205.000000	32.967618
2204.000000	33.001675
2203.000000	32.908936
2202.000000	32.803755
2201.000000	32.854090
2200.000000	32.676380
2199.000000	32.673239
2198.000000	32.574361
2197.000000	32.493253
2196.000000	32.490286
2195.000000	32.366930
2194.000000	32.277586
2193.000000	32.146392
2192.000000	32.118494
2191.000000	31.922780
2190.000000	31.944020
2189.000000	31.945092
2188.000000	31.950186
2187.000000	31.891498
2186.000000	31.864729
2185.000000	31.868397
2184.000000	31.808351
2183.000000	31.842322
2182.000000	31.694371
2181.000000	31.574486
2180.000000	31.504146
2179.000000	31.570072
2178.000000	31.613629
2177.000000	31.570284
2176.000000	31.592978
2175.000000	31.569700
2174.000000	31.590339
2173.000000	31.633602
2172.000000	31.634723
2171.000000	31.802695
2170.000000	31.977557
2169.000000	31.982728
2168.000000	32.018789
2167.000000	32.005017
2166.000000	32.088006
2165.000000	32.121680
2164.000000	32.201458
2163.000000	32.452170
2162.000000	32.558966
2161.000000	32.515008
2160.000000	32.689800
2159.000000	32.867516
2158.000000	32.993647
2157.000000	32.918541
2156.000000	33.105187
2155.000000	33.174655
2154.000000	33.322494
2153.000000	33.637642
2152.000000	33.709458
2151.000000	33.755489
2150.000000	33.991813
2149.000000	34.135833
2148.000000	34.133762
2147.000000	34.322018
2146.000000	34.400761
2145.000000	34.564838
2144.000000	34.699119
2143.000000	34.716892
2142.000000	34.828464
2141.000000	35.128168
2140.000000	35.093082
2139.000000	35.210525
2138.000000	35.479979
2137.000000	35.456703
2136.000000	35.605576
2135.000000	35.651646
2134.000000	35.645858
2133.000000	35.904154
2132.000000	35.992160
2131.000000	36.218137
2130.000000	36.074009
2129.000000	36.081538
2128.000000	36.107677
2127.000000	36.136429
2126.000000	36.136116
2125.000000	36.446485
2124.000000	36.506259
2123.000000	36.517978
2122.000000	36.661779
2121.000000	36.666545
2120.000000	36.548867
2119.000000	36.575950
2118.000000	36.670321
2117.000000	36.637695
2116.000000	36.702628
2115.000000	36.682173
2114.000000	36.822452
2113.000000	36.766567
2112.000000	36.749602
2111.000000	36.855554
2110.000000	36.902888
2109.000000	37.005351
2108.000000	37.030782
2107.000000	37.068806
2106.000000	37.086507
2105.000000	36.869646
2104.000000	36.877110
2103.000000	37.055567
2102.000000	37.021043
2101.000000	37.007206
2100.000000	37.157952
2099.000000	37.012670
2098.000000	36.992151
2097.000000	37.038979
2096.000000	37.049119
2095.000000	37.129354
2094.000000	37.078276
2093.000000	36.963706
2092.000000	37.000049
2091.000000	36.988797
2090.000000	36.874924
2089.000000	36.978059
2088.000000	36.794242
2087.000000	36.855693
2086.000000	36.920075
2085.000000	36.823358
2084.000000	36.755957
2083.000000	36.832719
2082.000000	36.719982
2081.000000	36.679818
2080.000000	36.675009
2079.000000	36.579977
2078.000000	36.438281
2077.000000	36.405364
2076.000000	36.391390
2075.000000	36.392288
2074.000000	36.211155
2073.000000	36.106092
2072.000000	35.988270
2071.000000	35.919026
2070.000000	35.787085
2069.000000	35.596988
2068.000000	35.504159
2067.000000	35.416107
2066.000000	35.296860
2065.000000	35.203514
2064.000000	34.997058
2063.000000	34.790333
2062.000000	34.769738
2061.000000	34.586183
2060.000000	34.461360
2059.000000	34.409589
2058.000000	34.275693
2057.000000	34.131984
2056.000000	33.962325
2055.000000	33.847873
2054.000000	33.731914
2053.000000	33.619622
2052.000000	33.528028
2051.000000	33.381796
2050.000000	33.302180
2049.000000	33.189346
2048.000000	33.092613
2047.000000	33.136723
2046.000000	33.071426
2045.000000	32.970311
2044.000000	32.911798
2043.000000	32.863732
2042.000000	32.866773
2041.000000	32.924538
2040.000000	32.948182
2039.000000	32.929306
2038.000000	33.007184
2037.000000	33.064181
2036.000000	33.073064
2035.000000	33.161450
2034.000000	33.290551
2033.000000	33.333435
2032.000000	33.408902
2031.000000	33.515376
2030.000000	33.615714
2029.000000	33.709627
2028.000000	33.831269
2027.000000	33.928330
2026.000000	34.010851
2025.000000	34.093212
2024.000000	34.150088
2023.000000	34.236180
2022.000000	34.309935
2021.000000	34.290846
2020.000000	34.363198
2019.000000	34.420893
2018.000000	34.422117
2017.000000	34.452566
2016.000000	34.447909
2015.000000	34.417309
2014.000000	34.378797
2013.000000	34.384197
2012.000000	34.365841
2011.000000	34.345074
2010.000000	34.305198
2009.000000	34.236631
2008.000000	34.157898
2007.000000	34.077967
2006.000000	34.044676
2005.000000	33.975246
2004.000000	33.814007
2003.000000	33.716761
2002.000000	33.703457
2001.000000	33.611174
2000.000000	33.516828
1999.000000	33.415492
1998.000000	33.299610
1997.000000	33.259057
1996.000000	33.203381
1995.000000	33.113013
1994.000000	32.993097
1993.000000	32.889858
1992.000000	32.797294
1991.000000	32.705120
1990.000000	32.619331
1989.000000	32.496659
1988.000000	32.364401
1987.000000	32.285969
1986.000000	32.197198
1985.000000	32.117549
1984.000000	32.077190
1983.000000	31.964468
1982.000000	31.873515
1981.000000	31.789369
1980.000000	31.684785
1979.000000	31.601988
1978.000000	31.486629
1977.000000	31.401059
1976.000000	31.307009
1975.000000	31.240347
1974.000000	31.113113
1973.000000	30.991749
1972.000000	30.934945
1971.000000	30.863364
1970.000000	30.770679
1969.000000	30.718775
1968.000000	30.578688
1967.000000	30.504932
1966.000000	30.453776
1965.000000	30.368035
1964.000000	30.279907
1963.000000	30.206125
1962.000000	30.138076
1961.000000	29.985238
1960.000000	29.933791
1959.000000	29.880010
1958.000000	29.832972
1957.000000	29.718169
1956.000000	29.673420
1955.000000	29.578956
1954.000000	29.526976
1953.000000	29.497237
1952.000000	29.437414
1951.000000	29.461635
1950.000000	29.345790
1949.000000	29.288678
1948.000000	29.339819
1947.000000	29.260205
1946.000000	29.278690
1945.000000	29.237437
1944.000000	29.200605
1943.000000	29.272617
1942.000000	29.315007
1941.000000	29.290434
1940.000000	29.366294
1939.000000	29.365868
1938.000000	29.409112
1937.000000	29.448191
1936.000000	29.680829
1935.000000	29.711524
1934.000000	29.789967
1933.000000	29.882615
1932.000000	30.017473
1931.000000	30.138226
1930.000000	30.292933
1929.000000	30.477514
1928.000000	30.686254
1927.000000	30.749691
1926.000000	30.936202
1925.000000	31.198431
1924.000000	31.409973
1923.000000	31.666525
1922.000000	31.865998
1921.000000	32.109682
1920.000000	32.366111
1919.000000	32.643657
1918.000000	32.957408
1917.000000	33.222093
1916.000000	33.471806
1915.000000	33.886387
1914.000000	34.115132
1913.000000	34.519579
1912.000000	34.788420
1911.000000	35.204731
1910.000000	35.579922
1909.000000	35.862452
1908.000000	36.338453
1907.000000	36.705355
1906.000000	37.128423
1905.000000	37.553414
1904.000000	38.015672
1903.000000	38.455770
1902.000000	38.981320
1901.000000	39.477691
1900.000000	39.957076
1899.000000	40.430115
1898.000000	40.941303
1897.000000	41.470095
1896.000000	41.847017
1895.000000	42.397611
1894.000000	42.852757
1893.000000	43.282921
1892.000000	43.853218
1891.000000	44.266515
1890.000000	44.722281
1889.000000	45.133861
1888.000000	45.551765
1887.000000	46.018759
1886.000000	46.361765
1885.000000	46.732569
1884.000000	47.188543
1883.000000	47.536728
1882.000000	47.928260
1881.000000	48.233428
1880.000000	48.601465
1879.000000	48.849288
1878.000000	49.214437
1877.000000	49.549327
1876.000000	49.792473
1875.000000	50.035218
1874.000000	50.301142
1873.000000	50.528373
1872.000000	50.736705
1871.000000	50.934587
1870.000000	51.099605
1869.000000	51.322607
1868.000000	51.487579
1867.000000	51.535143
1866.000000	51.630678
1865.000000	51.766142
1864.000000	51.884778
1863.000000	51.990698
1862.000000	52.053217
1861.000000	52.104014
1860.000000	52.165035
1859.000000	52.202285
1858.000000	52.267165
1857.000000	52.371764
1856.000000	52.396810
1855.000000	52.406201
1854.000000	52.470528
1853.000000	52.508665
1852.000000	52.489417
1851.000000	52.502480
1850.000000	52.566524
1849.000000	52.539419
1848.000000	52.521471
1847.000000	52.521081
1846.000000	52.495897
1845.000000	52.493472
1844.000000	52.438001
1843.000000	52.436881
1842.000000	52.442611
1841.000000	52.406091
1840.000000	52.399780
1839.000000	52.363539
1838.000000	52.345589
1837.000000	52.280975
1836.000000	52.222639
1835.000000	52.184983
1834.000000	52.108745
1833.000000	52.062942
1832.000000	52.037347
1831.000000	51.974941
1830.000000	51.960979
1829.000000	51.954026
1828.000000	51.885110
1827.000000	51.858993
1826.000000	51.825896
1825.000000	51.753428
1824.000000	51.712887
1823.000000	51.688692
1822.000000	51.661342
1821.000000	51.627642
1820.000000	51.564364
1819.000000	51.497320
1818.000000	51.491719
1817.000000	51.444512
1816.000000	51.394143
1815.000000	51.360286
1814.000000	51.318486
1813.000000	51.307140
1812.000000	51.268982
1811.000000	51.215783
1810.000000	51.190996
1809.000000	51.171626
1808.000000	51.143439
1807.000000	51.075698
1806.000000	51.035935
1805.000000	51.011898
1804.000000	50.964195
1803.000000	50.917901
1802.000000	50.888359
1801.000000	50.878879
1800.000000	50.854606
1799.000000	50.815202
1798.000000	50.787976
1797.000000	50.772652
1796.000000	50.731450
1795.000000	50.690641
1794.000000	50.670318
1793.000000	50.645349
1792.000000	50.621349
1791.000000	50.589119
1790.000000	50.543452
1789.000000	50.512928
1788.000000	50.487151
1787.000000	50.439376
1786.000000	50.440062
1785.000000	50.447528
1784.000000	50.397684
1783.000000	50.351335
1782.000000	50.332358
1781.000000	50.294471
1780.000000	50.256285
1779.000000	50.205855
1778.000000	50.166051
1777.000000	50.103101
1776.000000	50.080156
1775.000000	50.013798
1774.000000	49.920534
1773.000000	49.875876
1772.000000	49.829963
1771.000000	49.772919
1770.000000	49.721226
1769.000000	49.678243
1768.000000	49.619641
1767.000000	49.573059
1766.000000	49.524015
1765.000000	49.472293
1764.000000	49.409442
1763.000000	49.333260
1762.000000	49.279320
1761.000000	49.240818
1760.000000	49.161325
1759.000000	49.122929
1758.000000	49.062259
1757.000000	49.004451
1756.000000	48.950977
1755.000000	48.910777
1754.000000	48.841566
1753.000000	48.779420
1752.000000	48.752202
1751.000000	48.711431
1750.000000	48.643035
1749.000000	48.615633
1748.000000	48.531702
1747.000000	48.456958
1746.000000	48.395076
1745.000000	48.312221
1744.000000	48.278674
1743.000000	48.245693
1742.000000	48.140007
1741.000000	48.110102
1740.000000	48.063527
1739.000000	48.001490
1738.000000	47.925740
1737.000000	47.907085
1736.000000	47.929689
1735.000000	47.870041
1734.000000	47.850142
1733.000000	47.838321
1732.000000	47.859898
1731.000000	47.861331
1730.000000	47.859292
1729.000000	47.887794
1728.000000	47.976343
1727.000000	47.988075
1726.000000	48.079929
1725.000000	48.151885
1724.000000	48.186838
1723.000000	48.295793
1722.000000	48.394763
1721.000000	48.516102
1720.000000	48.599228
1719.000000	48.729778
1718.000000	48.774836
1717.000000	48.905581
1716.000000	49.020255
1715.000000	49.062436
1714.000000	49.171414
1713.000000	49.276707
1712.000000	49.342655
1711.000000	49.437773
1710.000000	49.448234
1709.000000	49.518353
1708.000000	49.582631
1707.000000	49.637359
1706.000000	49.649741
1705.000000	49.708961
1704.000000	49.736286
1703.000000	49.742934
1702.000000	49.748225
1701.000000	49.757409
1700.000000	49.827561
1699.000000	49.796040
1698.000000	49.857804
1697.000000	49.862964
1696.000000	49.885990
1695.000000	49.885059
1694.000000	49.906319
1693.000000	49.998626
1692.000000	50.004479
1691.000000	50.101502
1690.000000	50.191472
1689.000000	50.244460
1688.000000	50.344477
1687.000000	50.436619
1686.000000	50.568584
1685.000000	50.684395
1684.000000	50.845323
1683.000000	51.015338
1682.000000	51.183630
1681.000000	51.335265
1680.000000	51.456210
1679.000000	51.665791
1678.000000	51.849473
1677.000000	52.021742
1676.000000	52.192807
1675.000000	52.395652
1674.000000	52.570916
1673.000000	52.748401
1672.000000	52.910164
1671.000000	53.075610
1670.000000	53.235437
1669.000000	53.428874
1668.000000	53.580089
1667.000000	53.712347
1666.000000	53.806022
1665.000000	53.908916
1664.000000	54.001088
1663.000000	54.086725
1662.000000	54.182753
1661.000000	54.275171
1660.000000	54.337011
1659.000000	54.398551
1658.000000	54.447737
1657.000000	54.487954
1656.000000	54.559213
1655.000000	54.565877
1654.000000	54.586229
1653.000000	54.608331
1652.000000	54.612716
1651.000000	54.604186
1650.000000	54.618256
1649.000000	54.619814
1648.000000	54.581420
1647.000000	54.616302
1646.000000	54.585378
1645.000000	54.582160
1644.000000	54.579147
1643.000000	54.550578
1642.000000	54.544927
1641.000000	54.515475
1640.000000	54.476404
1639.000000	54.428481
1638.000000	54.397776
1637.000000	54.373718
1636.000000	54.331412
1635.000000	54.275307
1634.000000	54.253588
1633.000000	54.193413
1632.000000	54.151796
1631.000000	54.122377
1630.000000	54.081995
1629.000000	54.045097
1628.000000	53.990105
1627.000000	53.949549
1626.000000	53.885963
1625.000000	53.853494
1624.000000	53.798389
1623.000000	53.740698
1622.000000	53.710897
1621.000000	53.636398
1620.000000	53.572646
1619.000000	53.528621
1618.000000	53.453555
1617.000000	53.408961
1616.000000	53.354471
1615.000000	53.274932
1614.000000	53.209204
1613.000000	53.152393
1612.000000	53.089893
1611.000000	53.029369
1610.000000	52.977860
1609.000000	52.900319
1608.000000	52.824472
1607.000000	52.749200
1606.000000	52.682486
1605.000000	52.632521
1604.000000	52.559035
1603.000000	52.470599
1602.000000	52.401646
1601.000000	52.343995
1600.000000	52.272008
1599.000000	52.192669
1598.000000	52.121666
1597.000000	52.060308
1596.000000	52.007697
1595.000000	51.951682
1594.000000	51.900206
1593.000000	51.848488
1592.000000	51.778232
1591.000000	51.707625
1590.000000	51.662425
1589.000000	51.610403
1588.000000	51.569032
1587.000000	51.525841
1586.000000	51.463672
1585.000000	51.416324
1584.000000	51.360332
1583.000000	51.308958
1582.000000	51.240560
1581.000000	51.186852
1580.000000	51.151706
1579.000000	51.120716
1578.000000	51.091930
1577.000000	51.044122
1576.000000	50.969983
1575.000000	50.921700
1574.000000	50.869444
1573.000000	50.815177
1572.000000	50.773280
1571.000000	50.728306
1570.000000	50.694748
1569.000000	50.652354
1568.000000	50.587054
1567.000000	50.551300
1566.000000	50.522786
1565.000000	50.486187
1564.000000	50.454732
1563.000000	50.428734
1562.000000	50.386903
1561.000000	50.356694
1560.000000	50.358506
1559.000000	50.310715
1558.000000	50.306557
1557.000000	50.284406
1556.000000	50.252678
1555.000000	50.250299
1554.000000	50.225701
1553.000000	50.192259
1552.000000	50.143359
1551.000000	50.106599
1550.000000	50.099038
1549.000000	50.046878
1548.000000	50.007778
1547.000000	49.947584
1546.000000	49.882002
1545.000000	49.830226
1544.000000	49.742684
1543.000000	49.675388
1542.000000	49.599083
1541.000000	49.522440
1540.000000	49.445269
1539.000000	49.359193
1538.000000	49.273096
1537.000000	49.161839
1536.000000	49.081311
1535.000000	49.007122
1534.000000	48.908646
1533.000000	48.803105
1532.000000	48.717177
1531.000000	48.618970
1530.000000	48.552570
1529.000000	48.452212
1528.000000	48.383675
1527.000000	48.304010
1526.000000	48.236678
1525.000000	48.176507
1524.000000	48.132608
1523.000000	48.068019
1522.000000	47.998206
1521.000000	47.958514
1520.000000	47.905964
1519.000000	47.849875
1518.000000	47.814860
1517.000000	47.787036
1516.000000	47.747389
1515.000000	47.708788
1514.000000	47.679785
1513.000000	47.655610
1512.000000	47.621353
1511.000000	47.584169
1510.000000	47.565791
1509.000000	47.555490
1508.000000	47.538652
1507.000000	47.528892
1506.000000	47.492201
1505.000000	47.489126
1504.000000	47.480458
1503.000000	47.482653
1502.000000	47.453828
1501.000000	47.459867
1500.000000	47.452454
1499.000000	47.442107
1498.000000	47.443984
1497.000000	47.466141
1496.000000	47.474051
1495.000000	47.482521
1494.000000	47.518673
1493.000000	47.529845
1492.000000	47.543263
1491.000000	47.553461
1490.000000	47.605737
1489.000000	47.634923
1488.000000	47.707329
1487.000000	47.718992
1486.000000	47.754494
1485.000000	47.813886
1484.000000	47.837938
1483.000000	47.914433
1482.000000	47.923616
1481.000000	47.981363
1480.000000	48.072409
1479.000000	48.085957
1478.000000	48.145087
1477.000000	48.205234
1476.000000	48.226324
1475.000000	48.293679
1474.000000	48.355875
1473.000000	48.404150
1472.000000	48.436264
1471.000000	48.514751
1470.000000	48.562538
