PE UV       SUBTECH     SPECTRUM    ASCII       PEDS        4.00        
   -1
RDms1556132.Sample.asc
18/03/21
11:38:35.00
18/03/21
11:38:35.00
Administrator

200.000000
1
Lambda 750
750N8071901
PerkinElmer UV WinLab 6.0.4.0738 / 1.61.00 Lambda 900

0
0
3350/servo 860.8/2
0
0
UV/VIS
1
1
1
CommonBeamDepol,150mm sphere / downward view
0
0
0
0
Program
Program
3350/servo 860.8/2
3350/0.2 860.8/0.2
3350/0.2 860.8/0.2
0
1
 
 
 
0
 
860.8
319.2
860.8
Front
100
on
 
 
0
0
0
 
0
 
 
 
0
 
 
0
0
0
0
0
 
 
 
 
0
0


0
0
#HDR
-1
-1
#GR
nm
%R
1.0
0.0
2350.000000
-1.000000
2151
8
63.839081
10.806392
#DATA
2350.000000	39.335591
2349.000000	39.639179
2348.000000	39.228299
2347.000000	40.212765
2346.000000	39.916774
2345.000000	39.720111
2344.000000	39.993602
2343.000000	39.522151
2342.000000	39.885187
2341.000000	40.007503
2340.000000	40.067048
2339.000000	40.038933
2338.000000	40.350762
2337.000000	40.220298
2336.000000	40.088993
2335.000000	40.063936
2334.000000	40.183312
2333.000000	40.410077
2332.000000	40.517130
2331.000000	40.432026
2330.000000	40.494356
2329.000000	40.286021
2328.000000	40.410677
2327.000000	40.453984
2326.000000	40.535762
2325.000000	40.607563
2324.000000	40.220743
2323.000000	39.871761
2322.000000	39.902965
2321.000000	39.968473
2320.000000	39.874521
2319.000000	40.071085
2318.000000	39.953529
2317.000000	40.067046
2316.000000	39.882253
2315.000000	39.847153
2314.000000	39.749653
2313.000000	39.615763
2312.000000	39.345553
2311.000000	39.700048
2310.000000	39.648711
2309.000000	39.658178
2308.000000	39.501655
2307.000000	39.403495
2306.000000	39.418070
2305.000000	39.184396
2304.000000	39.161272
2303.000000	39.160809
2302.000000	39.179312
2301.000000	39.037652
2300.000000	38.828191
2299.000000	38.768344
2298.000000	38.723001
2297.000000	38.696338
2296.000000	38.586040
2295.000000	38.618100
2294.000000	38.521545
2293.000000	38.475777
2292.000000	38.437848
2291.000000	38.418204
2290.000000	38.344032
2289.000000	38.490841
2288.000000	38.455125
2287.000000	38.480237
2286.000000	38.109841
2285.000000	38.101344
2284.000000	38.153776
2283.000000	37.966495
2282.000000	38.095175
2281.000000	38.221489
2280.000000	38.206076
2279.000000	38.140639
2278.000000	38.160534
2277.000000	38.039058
2276.000000	38.141399
2275.000000	38.388173
2274.000000	38.369109
2273.000000	38.466010
2272.000000	38.627999
2271.000000	38.474883
2270.000000	38.487301
2269.000000	38.486106
2268.000000	38.656425
2267.000000	38.861254
2266.000000	38.892701
2265.000000	38.919577
2264.000000	39.107441
2263.000000	39.127857
2262.000000	39.198340
2261.000000	39.340014
2260.000000	39.526088
2259.000000	39.632413
2258.000000	39.858883
2257.000000	40.026950
2256.000000	40.030347
2255.000000	40.205498
2254.000000	40.377427
2253.000000	40.330001
2252.000000	40.417612
2251.000000	40.579189
2250.000000	40.910166
2249.000000	41.213185
2248.000000	41.285613
2247.000000	41.381502
2246.000000	41.645665
2245.000000	41.863994
2244.000000	42.006616
2243.000000	42.235717
2242.000000	42.286753
2241.000000	42.257455
2240.000000	42.395354
2239.000000	42.511235
2238.000000	42.586219
2237.000000	42.731647
2236.000000	42.756458
2235.000000	42.946161
2234.000000	43.082880
2233.000000	43.042226
2232.000000	43.177978
2231.000000	43.196212
2230.000000	43.126830
2229.000000	43.251717
2228.000000	43.340162
2227.000000	43.294704
2226.000000	43.342551
2225.000000	43.366253
2224.000000	43.251636
2223.000000	43.156854
2222.000000	43.191836
2221.000000	43.144034
2220.000000	43.155927
2219.000000	43.214351
2218.000000	43.147270
2217.000000	43.062695
2216.000000	43.025033
2215.000000	42.963145
2214.000000	42.950278
2213.000000	43.000909
2212.000000	42.929625
2211.000000	42.954870
2210.000000	43.022532
2209.000000	42.916171
2208.000000	42.908472
2207.000000	42.833455
2206.000000	42.891370
2205.000000	42.822851
2204.000000	42.738515
2203.000000	42.754042
2202.000000	42.643582
2201.000000	42.511353
2200.000000	42.470162
2199.000000	42.486943
2198.000000	42.398227
2197.000000	42.202193
2196.000000	42.164573
2195.000000	42.126101
2194.000000	42.098070
2193.000000	42.043348
2192.000000	42.049851
2191.000000	41.913610
2190.000000	41.945390
2189.000000	41.923554
2188.000000	42.015397
2187.000000	41.933898
2186.000000	41.730357
2185.000000	41.790104
2184.000000	41.884482
2183.000000	41.942688
2182.000000	41.731824
2181.000000	41.715520
2180.000000	41.702424
2179.000000	41.667510
2178.000000	41.644371
2177.000000	41.597085
2176.000000	41.591185
2175.000000	41.778515
2174.000000	41.809820
2173.000000	41.735343
2172.000000	41.719424
2171.000000	41.994108
2170.000000	42.122815
2169.000000	42.180406
2168.000000	42.196298
2167.000000	42.094895
2166.000000	42.190563
2165.000000	42.218148
2164.000000	42.397531
2163.000000	42.439271
2162.000000	42.657560
2161.000000	42.823332
2160.000000	42.805018
2159.000000	42.927748
2158.000000	42.832113
2157.000000	43.016561
2156.000000	43.313156
2155.000000	43.377606
2154.000000	43.496561
2153.000000	43.541311
2152.000000	43.711852
2151.000000	43.891875
2150.000000	44.016971
2149.000000	44.126627
2148.000000	44.066496
2147.000000	44.465533
2146.000000	44.330732
2145.000000	44.520848
2144.000000	44.793569
2143.000000	44.732762
2142.000000	44.727588
2141.000000	44.890693
2140.000000	45.081027
2139.000000	45.136701
2138.000000	45.337538
2137.000000	45.347242
2136.000000	45.451928
2135.000000	45.491184
2134.000000	45.660282
2133.000000	45.635836
2132.000000	45.492531
2131.000000	45.712501
2130.000000	45.988719
2129.000000	45.878652
2128.000000	45.966115
2127.000000	45.896958
2126.000000	45.884218
2125.000000	46.068119
2124.000000	46.169333
2123.000000	46.207166
2122.000000	46.197806
2121.000000	46.299847
2120.000000	46.162730
2119.000000	46.295617
2118.000000	46.162078
2117.000000	46.314009
2116.000000	46.284890
2115.000000	46.388799
2114.000000	46.327494
2113.000000	46.259939
2112.000000	46.234421
2111.000000	46.318595
2110.000000	46.351044
2109.000000	46.336489
2108.000000	46.309285
2107.000000	46.463992
2106.000000	46.542575
2105.000000	46.473091
2104.000000	46.393751
2103.000000	46.526920
2102.000000	46.474155
2101.000000	46.439422
2100.000000	46.555949
2099.000000	46.386307
2098.000000	46.418330
2097.000000	46.442605
2096.000000	46.382330
2095.000000	46.405268
2094.000000	46.514741
2093.000000	46.411831
2092.000000	46.383440
2091.000000	46.424328
2090.000000	46.405079
2089.000000	46.425192
2088.000000	46.397040
2087.000000	46.373925
2086.000000	46.333917
2085.000000	46.341283
2084.000000	46.263492
2083.000000	46.325320
2082.000000	46.157915
2081.000000	46.140586
2080.000000	46.062252
2079.000000	46.146725
2078.000000	46.098849
2077.000000	45.951345
2076.000000	45.744858
2075.000000	45.745946
2074.000000	45.760466
2073.000000	45.710597
2072.000000	45.558729
2071.000000	45.458332
2070.000000	45.373498
2069.000000	45.240627
2068.000000	45.194080
2067.000000	45.079859
2066.000000	44.906232
2065.000000	44.817938
2064.000000	44.836343
2063.000000	44.678827
2062.000000	44.506048
2061.000000	44.429256
2060.000000	44.322139
2059.000000	44.261773
2058.000000	44.140859
2057.000000	44.009610
2056.000000	43.893779
2055.000000	43.767001
2054.000000	43.660991
2053.000000	43.515471
2052.000000	43.410390
2051.000000	43.322920
2050.000000	43.241153
2049.000000	43.176412
2048.000000	43.056261
2047.000000	43.070168
2046.000000	43.065811
2045.000000	42.945210
2044.000000	42.841727
2043.000000	42.894824
2042.000000	42.934431
2041.000000	42.939476
2040.000000	42.950780
2039.000000	42.941516
2038.000000	43.023209
2037.000000	43.062608
2036.000000	43.073257
2035.000000	43.111581
2034.000000	43.129578
2033.000000	43.159615
2032.000000	43.270422
2031.000000	43.331749
2030.000000	43.464827
2029.000000	43.575193
2028.000000	43.572594
2027.000000	43.651566
2026.000000	43.743279
2025.000000	43.792612
2024.000000	43.802094
2023.000000	43.864756
2022.000000	43.961201
2021.000000	43.951922
2020.000000	43.944541
2019.000000	44.012545
2018.000000	44.085187
2017.000000	44.105724
2016.000000	44.058837
2015.000000	44.003235
2014.000000	43.978865
2013.000000	43.949584
2012.000000	43.887676
2011.000000	43.878941
2010.000000	43.814898
2009.000000	43.793687
2008.000000	43.759126
2007.000000	43.639025
2006.000000	43.535385
2005.000000	43.519828
2004.000000	43.478261
2003.000000	43.395741
2002.000000	43.322975
2001.000000	43.223695
2000.000000	43.161566
1999.000000	43.094555
1998.000000	42.964835
1997.000000	42.895993
1996.000000	42.824950
1995.000000	42.708532
1994.000000	42.622591
1993.000000	42.540322
1992.000000	42.466460
1991.000000	42.397968
1990.000000	42.322070
1989.000000	42.170671
1988.000000	42.083063
1987.000000	41.996184
1986.000000	41.892735
1985.000000	41.806536
1984.000000	41.732552
1983.000000	41.621469
1982.000000	41.573823
1981.000000	41.526707
1980.000000	41.381072
1979.000000	41.311509
1978.000000	41.217411
1977.000000	41.107102
1976.000000	41.000647
1975.000000	40.921202
1974.000000	40.797036
1973.000000	40.777316
1972.000000	40.703500
1971.000000	40.578440
1970.000000	40.497325
1969.000000	40.415311
1968.000000	40.335267
1967.000000	40.251448
1966.000000	40.209538
1965.000000	40.072490
1964.000000	40.026121
1963.000000	39.985092
1962.000000	39.890664
1961.000000	39.783246
1960.000000	39.665777
1959.000000	39.586452
1958.000000	39.551335
1957.000000	39.439269
1956.000000	39.377932
1955.000000	39.354381
1954.000000	39.301438
1953.000000	39.289661
1952.000000	39.238219
1951.000000	39.178779
1950.000000	39.178933
1949.000000	39.100699
1948.000000	39.095753
1947.000000	39.045681
1946.000000	38.999501
1945.000000	39.004502
1944.000000	38.987269
1943.000000	39.086209
1942.000000	39.055207
1941.000000	39.082321
1940.000000	39.159737
1939.000000	39.204027
1938.000000	39.165222
1937.000000	39.242844
1936.000000	39.441553
1935.000000	39.514258
1934.000000	39.678498
1933.000000	39.709206
1932.000000	39.789003
1931.000000	39.913349
1930.000000	40.078141
1929.000000	40.148287
1928.000000	40.418678
1927.000000	40.638486
1926.000000	40.787437
1925.000000	40.924599
1924.000000	41.108980
1923.000000	41.314504
1922.000000	41.635617
1921.000000	41.854854
1920.000000	42.017879
1919.000000	42.312703
1918.000000	42.552150
1917.000000	42.833298
1916.000000	43.084307
1915.000000	43.326649
1914.000000	43.700009
1913.000000	43.970224
1912.000000	44.304810
1911.000000	44.605706
1910.000000	44.879318
1909.000000	45.145538
1908.000000	45.517199
1907.000000	45.886623
1906.000000	46.238102
1905.000000	46.520857
1904.000000	46.891545
1903.000000	47.320745
1902.000000	47.661017
1901.000000	48.054782
1900.000000	48.382917
1899.000000	48.705528
1898.000000	49.103674
1897.000000	49.392010
1896.000000	49.803014
1895.000000	50.197460
1894.000000	50.472979
1893.000000	50.885899
1892.000000	51.205961
1891.000000	51.504744
1890.000000	51.797701
1889.000000	52.087551
1888.000000	52.381156
1887.000000	52.617841
1886.000000	52.891998
1885.000000	53.152051
1884.000000	53.457910
1883.000000	53.752034
1882.000000	54.020670
1881.000000	54.168638
1880.000000	54.404925
1879.000000	54.554347
1878.000000	54.753708
1877.000000	55.011500
1876.000000	55.158851
1875.000000	55.330939
1874.000000	55.486425
1873.000000	55.637061
1872.000000	55.742644
1871.000000	55.850799
1870.000000	55.992658
1869.000000	56.077012
1868.000000	56.212394
1867.000000	56.272243
1866.000000	56.324542
1865.000000	56.366030
1864.000000	56.438581
1863.000000	56.501768
1862.000000	56.535704
1861.000000	56.564298
1860.000000	56.614207
1859.000000	56.702091
1858.000000	56.695012
1857.000000	56.737018
1856.000000	56.769677
1855.000000	56.774992
1854.000000	56.807772
1853.000000	56.803955
1852.000000	56.818842
1851.000000	56.818683
1850.000000	56.860039
1849.000000	56.882932
1848.000000	56.884664
1847.000000	56.890407
1846.000000	56.873644
1845.000000	56.892582
1844.000000	56.859145
1843.000000	56.813957
1842.000000	56.837941
1841.000000	56.799398
1840.000000	56.781622
1839.000000	56.815218
1838.000000	56.779814
1837.000000	56.749181
1836.000000	56.739609
1835.000000	56.704452
1834.000000	56.679597
1833.000000	56.643929
1832.000000	56.644894
1831.000000	56.631067
1830.000000	56.610624
1829.000000	56.563984
1828.000000	56.516820
1827.000000	56.491560
1826.000000	56.498593
1825.000000	56.477755
1824.000000	56.455280
1823.000000	56.450006
1822.000000	56.400337
1821.000000	56.373794
1820.000000	56.346581
1819.000000	56.315485
1818.000000	56.297522
1817.000000	56.304954
1816.000000	56.294932
1815.000000	56.271254
1814.000000	56.250795
1813.000000	56.226057
1812.000000	56.205121
1811.000000	56.155726
1810.000000	56.133458
1809.000000	56.160400
1808.000000	56.146991
1807.000000	56.106378
1806.000000	56.113445
1805.000000	56.088033
1804.000000	56.021000
1803.000000	56.029317
1802.000000	56.039847
1801.000000	56.037713
1800.000000	56.031327
1799.000000	55.995866
1798.000000	55.983727
1797.000000	55.975858
1796.000000	55.943382
1795.000000	55.945376
1794.000000	55.952336
1793.000000	55.910265
1792.000000	55.877669
1791.000000	55.886000
1790.000000	55.901713
1789.000000	55.870714
1788.000000	55.845000
1787.000000	55.830832
1786.000000	55.833562
1785.000000	55.828151
1784.000000	55.811808
1783.000000	55.803061
1782.000000	55.765044
1781.000000	55.766749
1780.000000	55.761038
1779.000000	55.724749
1778.000000	55.692048
1777.000000	55.664874
1776.000000	55.670193
1775.000000	55.637392
1774.000000	55.580670
1773.000000	55.529896
1772.000000	55.494318
1771.000000	55.480331
1770.000000	55.453920
1769.000000	55.416410
1768.000000	55.376800
1767.000000	55.359718
1766.000000	55.326653
1765.000000	55.281500
1764.000000	55.280808
1763.000000	55.262113
1762.000000	55.231982
1761.000000	55.214350
1760.000000	55.149271
1759.000000	55.142574
1758.000000	55.115924
1757.000000	55.068985
1756.000000	55.081165
1755.000000	55.019978
1754.000000	54.956651
1753.000000	54.954047
1752.000000	54.951170
1751.000000	54.938945
1750.000000	54.891508
1749.000000	54.863864
1748.000000	54.838404
1747.000000	54.798749
1746.000000	54.765590
1745.000000	54.728123
1744.000000	54.693566
1743.000000	54.662100
1742.000000	54.639699
1741.000000	54.625355
1740.000000	54.580399
1739.000000	54.538374
1738.000000	54.526094
1737.000000	54.492250
1736.000000	54.478622
1735.000000	54.507031
1734.000000	54.502254
1733.000000	54.479368
1732.000000	54.489124
1731.000000	54.533727
1730.000000	54.534884
1729.000000	54.508906
1728.000000	54.582609
1727.000000	54.616736
1726.000000	54.618404
1725.000000	54.708161
1724.000000	54.727295
1723.000000	54.790326
1722.000000	54.874871
1721.000000	54.912506
1720.000000	54.962820
1719.000000	55.062457
1718.000000	55.112742
1717.000000	55.158387
1716.000000	55.212530
1715.000000	55.251008
1714.000000	55.318757
1713.000000	55.393138
1712.000000	55.438378
1711.000000	55.529642
1710.000000	55.534515
1709.000000	55.569239
1708.000000	55.596077
1707.000000	55.628440
1706.000000	55.654877
1705.000000	55.698793
1704.000000	55.705320
1703.000000	55.719051
1702.000000	55.732082
1701.000000	55.723753
1700.000000	55.760535
1699.000000	55.757084
1698.000000	55.805408
1697.000000	55.811505
1696.000000	55.834282
1695.000000	55.876963
1694.000000	55.842497
1693.000000	55.895974
1692.000000	55.924164
1691.000000	55.930630
1690.000000	56.024605
1689.000000	56.026111
1688.000000	56.109382
1687.000000	56.189875
1686.000000	56.219119
1685.000000	56.323874
1684.000000	56.394734
1683.000000	56.506570
1682.000000	56.598317
1681.000000	56.680701
1680.000000	56.750556
1679.000000	56.870588
1678.000000	56.984472
1677.000000	57.097779
1676.000000	57.131357
1675.000000	57.272450
1674.000000	57.329293
1673.000000	57.485684
1672.000000	57.566243
1671.000000	57.639849
1670.000000	57.705583
1669.000000	57.832280
1668.000000	57.928318
1667.000000	57.966612
1666.000000	58.035907
1665.000000	58.081967
1664.000000	58.132842
1663.000000	58.185656
1662.000000	58.237784
1661.000000	58.294917
1660.000000	58.343677
1659.000000	58.378645
1658.000000	58.424408
1657.000000	58.444701
1656.000000	58.452900
1655.000000	58.465074
1654.000000	58.505732
1653.000000	58.508592
1652.000000	58.511648
1651.000000	58.505408
1650.000000	58.517438
1649.000000	58.517814
1648.000000	58.496057
1647.000000	58.514015
1646.000000	58.500065
1645.000000	58.517530
1644.000000	58.502720
1643.000000	58.482432
1642.000000	58.489324
1641.000000	58.460661
1640.000000	58.454028
1639.000000	58.452061
1638.000000	58.439047
1637.000000	58.430481
1636.000000	58.389558
1635.000000	58.368689
1634.000000	58.359258
1633.000000	58.332155
1632.000000	58.306186
1631.000000	58.278680
1630.000000	58.262712
1629.000000	58.241357
1628.000000	58.215682
1627.000000	58.214226
1626.000000	58.198399
1625.000000	58.163458
1624.000000	58.144986
1623.000000	58.126218
1622.000000	58.108488
1621.000000	58.053989
1620.000000	58.033837
1619.000000	58.018475
1618.000000	57.980884
1617.000000	57.947462
1616.000000	57.939741
1615.000000	57.892119
1614.000000	57.850508
1613.000000	57.822802
1612.000000	57.806416
1611.000000	57.770712
1610.000000	57.740240
1609.000000	57.701653
1608.000000	57.678236
1607.000000	57.652332
1606.000000	57.613837
1605.000000	57.584439
1604.000000	57.533268
1603.000000	57.499179
1602.000000	57.483566
1601.000000	57.455742
1600.000000	57.428946
1599.000000	57.398967
1598.000000	57.358782
1597.000000	57.305959
1596.000000	57.269244
1595.000000	57.251371
1594.000000	57.226376
1593.000000	57.197922
1592.000000	57.165814
1591.000000	57.129998
1590.000000	57.101009
1589.000000	57.071678
1588.000000	57.045337
1587.000000	57.033436
1586.000000	57.009984
1585.000000	56.981831
1584.000000	56.950260
1583.000000	56.925665
1582.000000	56.900676
1581.000000	56.867082
1580.000000	56.853138
1579.000000	56.842368
1578.000000	56.835207
1577.000000	56.800699
1576.000000	56.763340
1575.000000	56.739016
1574.000000	56.704993
1573.000000	56.678901
1572.000000	56.659893
1571.000000	56.629612
1570.000000	56.609413
1569.000000	56.593010
1568.000000	56.579433
1567.000000	56.556007
1566.000000	56.519312
1565.000000	56.528902
1564.000000	56.514161
1563.000000	56.499055
1562.000000	56.474234
1561.000000	56.453586
1560.000000	56.443454
1559.000000	56.424647
1558.000000	56.421831
1557.000000	56.422453
1556.000000	56.411724
1555.000000	56.403996
1554.000000	56.375009
1553.000000	56.383408
1552.000000	56.358307
1551.000000	56.326117
1550.000000	56.321470
1549.000000	56.306183
1548.000000	56.292089
1547.000000	56.247553
1546.000000	56.217787
1545.000000	56.202300
1544.000000	56.151422
1543.000000	56.110184
1542.000000	56.059608
1541.000000	56.022010
1540.000000	55.982166
1539.000000	55.924659
1538.000000	55.875585
1537.000000	55.803388
1536.000000	55.756647
1535.000000	55.735733
1534.000000	55.679342
1533.000000	55.621719
1532.000000	55.565712
1531.000000	55.532100
1530.000000	55.494418
1529.000000	55.430656
1528.000000	55.398666
1527.000000	55.353764
1526.000000	55.302066
1525.000000	55.266779
1524.000000	55.246061
1523.000000	55.223358
1522.000000	55.181252
1521.000000	55.155353
1520.000000	55.121257
1519.000000	55.081976
1518.000000	55.075099
1517.000000	55.060034
1516.000000	55.051641
1515.000000	55.002304
1514.000000	54.999832
1513.000000	54.987634
1512.000000	54.958167
1511.000000	54.950261
1510.000000	54.927919
1509.000000	54.921677
1508.000000	54.929411
1507.000000	54.899284
1506.000000	54.891660
1505.000000	54.898763
1504.000000	54.883031
1503.000000	54.895204
1502.000000	54.883524
1501.000000	54.885794
1500.000000	54.883279
1499.000000	54.872273
1498.000000	54.868560
1497.000000	54.884309
1496.000000	54.910709
1495.000000	54.918295
1494.000000	54.911844
1493.000000	54.940768
1492.000000	54.945261
1491.000000	54.952682
1490.000000	54.982504
1489.000000	55.017315
1488.000000	55.058688
1487.000000	55.044133
1486.000000	55.086014
1485.000000	55.117275
1484.000000	55.132209
1483.000000	55.176131
1482.000000	55.186586
1481.000000	55.238470
1480.000000	55.286103
1479.000000	55.280786
1478.000000	55.312497
1477.000000	55.358877
1476.000000	55.379792
1475.000000	55.411772
1474.000000	55.452658
1473.000000	55.472501
1472.000000	55.498954
1471.000000	55.533840
1470.000000	55.589744
