PE UV       SUBTECH     SPECTRUM    ASCII       PEDS        4.00        
   -1
RDms1556142.Sample.asc
18/03/21
15:24:42.00
18/03/21
15:24:42.00
Administrator

200.000000
1
Lambda 750
750N8071901
PerkinElmer UV WinLab 6.0.4.0738 / 1.61.00 Lambda 900

0
0
3350/servo 860.8/2
0
0
UV/VIS
1
1
1
CommonBeamDepol,150mm sphere / downward view
0
0
0
0
Program
Program
3350/servo 860.8/2
3350/0.2 860.8/0.2
3350/0.2 860.8/0.2
0
1
 
 
 
0
 
860.8
319.2
860.8
Front
100
on
 
 
0
0
0
 
0
 
 
 
0
 
 
0
0
0
0
0
 
 
 
 
0
0


0
0
#HDR
-1
-1
#GR
nm
%R
1.0
0.0
2350.000000
-1.000000
2151
8
56.453990
8.061651
#DATA
2350.000000	37.160600
2349.000000	37.842372
2348.000000	37.017874
2347.000000	37.714738
2346.000000	37.724988
2345.000000	37.662332
2344.000000	37.639851
2343.000000	37.199197
2342.000000	37.683137
2341.000000	37.587789
2340.000000	37.654991
2339.000000	38.039367
2338.000000	37.949675
2337.000000	37.623125
2336.000000	38.530316
2335.000000	38.086862
2334.000000	38.148838
2333.000000	38.508848
2332.000000	38.237852
2331.000000	38.372267
2330.000000	38.225005
2329.000000	37.969689
2328.000000	38.091293
2327.000000	38.122084
2326.000000	38.309020
2325.000000	37.849681
2324.000000	38.068491
2323.000000	38.165269
2322.000000	37.672074
2321.000000	37.814960
2320.000000	37.771353
2319.000000	37.891577
2318.000000	37.738609
2317.000000	37.993337
2316.000000	37.736904
2315.000000	37.744834
2314.000000	37.683302
2313.000000	37.398496
2312.000000	37.449012
2311.000000	37.445360
2310.000000	37.506603
2309.000000	37.614450
2308.000000	37.312136
2307.000000	37.136188
2306.000000	37.035320
2305.000000	37.142155
2304.000000	37.037225
2303.000000	36.955897
2302.000000	36.980547
2301.000000	36.893498
2300.000000	36.774369
2299.000000	37.066033
2298.000000	36.920949
2297.000000	36.752960
2296.000000	36.726718
2295.000000	36.535960
2294.000000	36.504324
2293.000000	36.501316
2292.000000	36.394161
2291.000000	36.371051
2290.000000	36.450424
2289.000000	36.226903
2288.000000	36.128548
2287.000000	36.245761
2286.000000	36.290756
2285.000000	36.252400
2284.000000	36.279836
2283.000000	36.264389
2282.000000	36.092473
2281.000000	36.405241
2280.000000	36.210564
2279.000000	36.044919
2278.000000	36.003795
2277.000000	36.095088
2276.000000	36.236633
2275.000000	36.283510
2274.000000	36.393409
2273.000000	36.446476
2272.000000	36.393966
2271.000000	36.325942
2270.000000	36.401321
2269.000000	36.475855
2268.000000	36.528490
2267.000000	36.604446
2266.000000	36.665837
2265.000000	36.776579
2264.000000	36.939787
2263.000000	36.889811
2262.000000	36.935042
2261.000000	37.162921
2260.000000	37.231034
2259.000000	37.429552
2258.000000	37.524699
2257.000000	37.693068
2256.000000	37.768197
2255.000000	37.932103
2254.000000	38.056325
2253.000000	38.172991
2252.000000	38.302275
2251.000000	38.475321
2250.000000	38.737933
2249.000000	38.798696
2248.000000	38.855046
2247.000000	39.132359
2246.000000	39.356863
2245.000000	39.346005
2244.000000	39.387438
2243.000000	39.699575
2242.000000	39.930658
2241.000000	39.939112
2240.000000	39.973981
2239.000000	40.109431
2238.000000	40.236081
2237.000000	40.258644
2236.000000	40.190392
2235.000000	40.303551
2234.000000	40.532181
2233.000000	40.583443
2232.000000	40.640777
2231.000000	40.667420
2230.000000	40.660526
2229.000000	40.761406
2228.000000	40.803854
2227.000000	40.741922
2226.000000	40.806072
2225.000000	40.867757
2224.000000	40.795824
2223.000000	40.666316
2222.000000	40.630704
2221.000000	40.762899
2220.000000	40.763763
2219.000000	40.606134
2218.000000	40.514996
2217.000000	40.542022
2216.000000	40.648694
2215.000000	40.603795
2214.000000	40.586630
2213.000000	40.665295
2212.000000	40.509372
2211.000000	40.321450
2210.000000	40.474922
2209.000000	40.357418
2208.000000	40.156852
2207.000000	40.215256
2206.000000	40.280431
2205.000000	40.279601
2204.000000	40.236114
2203.000000	40.030961
2202.000000	39.906720
2201.000000	39.976833
2200.000000	39.902757
2199.000000	39.899695
2198.000000	39.891569
2197.000000	39.941417
2196.000000	39.730948
2195.000000	39.700147
2194.000000	39.701250
2193.000000	39.757047
2192.000000	39.782959
2191.000000	39.763102
2190.000000	39.608633
2189.000000	39.588032
2188.000000	39.543682
2187.000000	39.404568
2186.000000	39.338010
2185.000000	39.223693
2184.000000	39.178794
2183.000000	39.278977
2182.000000	39.424336
2181.000000	39.297434
2180.000000	39.396967
2179.000000	39.452031
2178.000000	39.304433
2177.000000	39.331686
2176.000000	39.442010
2175.000000	39.370753
2174.000000	39.399892
2173.000000	39.443086
2172.000000	39.586387
2171.000000	39.534928
2170.000000	39.496293
2169.000000	39.634437
2168.000000	39.819258
2167.000000	39.897707
2166.000000	39.832999
2165.000000	39.926298
2164.000000	39.782345
2163.000000	40.046499
2162.000000	40.042716
2161.000000	40.081757
2160.000000	40.240126
2159.000000	40.361672
2158.000000	40.454385
2157.000000	40.450022
2156.000000	40.684744
2155.000000	40.726047
2154.000000	40.873421
2153.000000	40.981120
2152.000000	41.097435
2151.000000	40.916366
2150.000000	41.335648
2149.000000	41.464277
2148.000000	41.383233
2147.000000	41.716343
2146.000000	41.897486
2145.000000	41.927834
2144.000000	41.900310
2143.000000	41.964252
2142.000000	42.030120
2141.000000	42.113096
2140.000000	42.242905
2139.000000	42.677221
2138.000000	42.555784
2137.000000	42.774409
2136.000000	42.644362
2135.000000	42.618543
2134.000000	42.739714
2133.000000	42.616522
2132.000000	43.012977
2131.000000	42.963646
2130.000000	42.905599
2129.000000	43.005225
2128.000000	42.996044
2127.000000	42.999632
2126.000000	43.011690
2125.000000	43.058110
2124.000000	43.248470
2123.000000	43.176303
2122.000000	43.281241
2121.000000	43.240082
2120.000000	43.165986
2119.000000	43.381974
2118.000000	43.306359
2117.000000	43.279447
2116.000000	43.312758
2115.000000	43.416413
2114.000000	43.441109
2113.000000	43.402466
2112.000000	43.315132
2111.000000	43.521146
2110.000000	43.352108
2109.000000	43.416681
2108.000000	43.348110
2107.000000	43.491275
2106.000000	43.536073
2105.000000	43.378418
2104.000000	43.365378
2103.000000	43.470744
2102.000000	43.444333
2101.000000	43.516302
2100.000000	43.589190
2099.000000	43.512644
2098.000000	43.426162
2097.000000	43.581510
2096.000000	43.459530
2095.000000	43.468919
2094.000000	43.567418
2093.000000	43.533282
2092.000000	43.467908
2091.000000	43.526707
2090.000000	43.392995
2089.000000	43.434415
2088.000000	43.396448
2087.000000	43.371317
2086.000000	43.413354
2085.000000	43.462263
2084.000000	43.347428
2083.000000	43.335589
2082.000000	43.272151
2081.000000	43.157317
2080.000000	43.112000
2079.000000	43.109325
2078.000000	43.099642
2077.000000	42.993318
2076.000000	42.896540
2075.000000	42.878562
2074.000000	42.876307
2073.000000	42.738144
2072.000000	42.612779
2071.000000	42.627091
2070.000000	42.650439
2069.000000	42.420405
2068.000000	42.296085
2067.000000	42.270936
2066.000000	42.201966
2065.000000	42.058983
2064.000000	41.955795
2063.000000	41.833139
2062.000000	41.752966
2061.000000	41.689210
2060.000000	41.524174
2059.000000	41.447505
2058.000000	41.374944
2057.000000	41.283455
2056.000000	41.215416
2055.000000	41.069440
2054.000000	40.963431
2053.000000	40.832718
2052.000000	40.779510
2051.000000	40.741475
2050.000000	40.665870
2049.000000	40.541719
2048.000000	40.477359
2047.000000	40.463587
2046.000000	40.411270
2045.000000	40.382083
2044.000000	40.342811
2043.000000	40.336414
2042.000000	40.376785
2041.000000	40.343894
2040.000000	40.317203
2039.000000	40.302960
2038.000000	40.329049
2037.000000	40.358433
2036.000000	40.413870
2035.000000	40.480658
2034.000000	40.539432
2033.000000	40.594947
2032.000000	40.699308
2031.000000	40.732516
2030.000000	40.777200
2029.000000	40.869718
2028.000000	40.929193
2027.000000	40.971936
2026.000000	41.044431
2025.000000	41.123389
2024.000000	41.149094
2023.000000	41.225175
2022.000000	41.254893
2021.000000	41.266335
2020.000000	41.323022
2019.000000	41.333030
2018.000000	41.359188
2017.000000	41.369023
2016.000000	41.358896
2015.000000	41.327514
2014.000000	41.337518
2013.000000	41.330159
2012.000000	41.300391
2011.000000	41.328375
2010.000000	41.274804
2009.000000	41.164747
2008.000000	41.099559
2007.000000	41.069945
2006.000000	41.021008
2005.000000	40.996863
2004.000000	40.945300
2003.000000	40.846902
2002.000000	40.753714
2001.000000	40.656231
2000.000000	40.616814
1999.000000	40.570380
1998.000000	40.471444
1997.000000	40.388778
1996.000000	40.284930
1995.000000	40.190690
1994.000000	40.118486
1993.000000	40.089261
1992.000000	40.018788
1991.000000	39.877750
1990.000000	39.841156
1989.000000	39.764228
1988.000000	39.670716
1987.000000	39.604461
1986.000000	39.503144
1985.000000	39.430989
1984.000000	39.377088
1983.000000	39.276505
1982.000000	39.229898
1981.000000	39.144458
1980.000000	39.037183
1979.000000	38.940120
1978.000000	38.831465
1977.000000	38.757011
1976.000000	38.749309
1975.000000	38.650485
1974.000000	38.594164
1973.000000	38.562433
1972.000000	38.473066
1971.000000	38.404589
1970.000000	38.290895
1969.000000	38.238973
1968.000000	38.170810
1967.000000	38.109333
1966.000000	38.051406
1965.000000	37.946826
1964.000000	37.868169
1963.000000	37.852058
1962.000000	37.761868
1961.000000	37.644466
1960.000000	37.584138
1959.000000	37.482904
1958.000000	37.432552
1957.000000	37.405751
1956.000000	37.360995
1955.000000	37.216846
1954.000000	37.214335
1953.000000	37.170423
1952.000000	37.175523
1951.000000	37.176114
1950.000000	37.090621
1949.000000	37.073528
1948.000000	37.020818
1947.000000	36.955025
1946.000000	36.908482
1945.000000	36.933086
1944.000000	36.895391
1943.000000	36.980664
1942.000000	37.007938
1941.000000	37.009367
1940.000000	37.051841
1939.000000	37.085407
1938.000000	37.041736
1937.000000	37.160166
1936.000000	37.184986
1935.000000	37.255977
1934.000000	37.346107
1933.000000	37.387608
1932.000000	37.406684
1931.000000	37.658638
1930.000000	37.681158
1929.000000	37.751032
1928.000000	37.918302
1927.000000	38.110729
1926.000000	38.283503
1925.000000	38.414133
1924.000000	38.545174
1923.000000	38.826159
1922.000000	38.956653
1921.000000	39.224512
1920.000000	39.351818
1919.000000	39.540532
1918.000000	39.704453
1917.000000	39.964437
1916.000000	40.203758
1915.000000	40.509338
1914.000000	40.700129
1913.000000	40.963473
1912.000000	41.284873
1911.000000	41.532703
1910.000000	41.808418
1909.000000	42.105599
1908.000000	42.333281
1907.000000	42.648535
1906.000000	42.894415
1905.000000	43.161655
1904.000000	43.610911
1903.000000	43.918608
1902.000000	44.259954
1901.000000	44.550459
1900.000000	44.838844
1899.000000	45.253741
1898.000000	45.563335
1897.000000	45.829779
1896.000000	46.151388
1895.000000	46.467639
1894.000000	46.768479
1893.000000	47.014234
1892.000000	47.395627
1891.000000	47.586200
1890.000000	47.876863
1889.000000	48.209288
1888.000000	48.450760
1887.000000	48.684267
1886.000000	48.946733
1885.000000	49.143669
1884.000000	49.424585
1883.000000	49.695925
1882.000000	49.837139
1881.000000	49.999493
1880.000000	50.221993
1879.000000	50.402494
1878.000000	50.600615
1877.000000	50.788583
1876.000000	50.947907
1875.000000	51.042356
1874.000000	51.220194
1873.000000	51.269602
1872.000000	51.414459
1871.000000	51.498739
1870.000000	51.605110
1869.000000	51.725356
1868.000000	51.853604
1867.000000	51.872156
1866.000000	51.870000
1865.000000	51.903113
1864.000000	51.950530
1863.000000	51.998509
1862.000000	52.092816
1861.000000	52.084469
1860.000000	52.118168
1859.000000	52.091848
1858.000000	52.133329
1857.000000	52.164051
1856.000000	52.139723
1855.000000	52.161595
1854.000000	52.220358
1853.000000	52.256739
1852.000000	52.244840
1851.000000	52.281783
1850.000000	52.286869
1849.000000	52.261777
1848.000000	52.220634
1847.000000	52.255874
1846.000000	52.295841
1845.000000	52.272983
1844.000000	52.262533
1843.000000	52.249371
1842.000000	52.272117
1841.000000	52.260093
1840.000000	52.227171
1839.000000	52.211783
1838.000000	52.185604
1837.000000	52.136813
1836.000000	52.135280
1835.000000	52.122238
1834.000000	52.082752
1833.000000	52.055233
1832.000000	52.042243
1831.000000	52.002571
1830.000000	51.986494
1829.000000	51.967343
1828.000000	51.947013
1827.000000	51.927364
1826.000000	51.940578
1825.000000	51.904886
1824.000000	51.890411
1823.000000	51.875287
1822.000000	51.841346
1821.000000	51.800202
1820.000000	51.770348
1819.000000	51.760532
1818.000000	51.752158
1817.000000	51.719178
1816.000000	51.695673
1815.000000	51.689904
1814.000000	51.661074
1813.000000	51.663552
1812.000000	51.650300
1811.000000	51.621333
1810.000000	51.628491
1809.000000	51.643726
1808.000000	51.605782
1807.000000	51.554570
1806.000000	51.548502
1805.000000	51.549630
1804.000000	51.542267
1803.000000	51.519535
1802.000000	51.492898
1801.000000	51.484318
1800.000000	51.489961
1799.000000	51.471607
1798.000000	51.425814
1797.000000	51.420423
1796.000000	51.427788
1795.000000	51.443177
1794.000000	51.454694
1793.000000	51.433870
1792.000000	51.410197
1791.000000	51.422923
1790.000000	51.403837
1789.000000	51.356235
1788.000000	51.344619
1787.000000	51.393506
1786.000000	51.358868
1785.000000	51.323185
1784.000000	51.333821
1783.000000	51.313937
1782.000000	51.327192
1781.000000	51.281785
1780.000000	51.270865
1779.000000	51.256085
1778.000000	51.247234
1777.000000	51.223841
1776.000000	51.196037
1775.000000	51.172449
1774.000000	51.143113
1773.000000	51.115372
1772.000000	51.088638
1771.000000	51.077792
1770.000000	51.021416
1769.000000	50.981582
1768.000000	50.947499
1767.000000	50.954529
1766.000000	50.917421
1765.000000	50.934867
1764.000000	50.901036
1763.000000	50.851881
1762.000000	50.785841
1761.000000	50.757658
1760.000000	50.691814
1759.000000	50.714154
1758.000000	50.694893
1757.000000	50.654971
1756.000000	50.661901
1755.000000	50.635883
1754.000000	50.596833
1753.000000	50.597693
1752.000000	50.571167
1751.000000	50.513738
1750.000000	50.492439
1749.000000	50.497450
1748.000000	50.459354
1747.000000	50.443199
1746.000000	50.415522
1745.000000	50.359766
1744.000000	50.339420
1743.000000	50.323591
1742.000000	50.279316
1741.000000	50.271320
1740.000000	50.248231
1739.000000	50.194000
1738.000000	50.186076
1737.000000	50.149151
1736.000000	50.168674
1735.000000	50.157276
1734.000000	50.160181
1733.000000	50.120650
1732.000000	50.132276
1731.000000	50.141471
1730.000000	50.157069
1729.000000	50.177678
1728.000000	50.196791
1727.000000	50.198585
1726.000000	50.268019
1725.000000	50.296680
1724.000000	50.354606
1723.000000	50.384462
1722.000000	50.453223
1721.000000	50.483904
1720.000000	50.570931
1719.000000	50.615129
1718.000000	50.662363
1717.000000	50.683803
1716.000000	50.747336
1715.000000	50.765851
1714.000000	50.819621
1713.000000	50.859051
1712.000000	50.915325
1711.000000	50.952371
1710.000000	50.983875
1709.000000	51.023993
1708.000000	51.040458
1707.000000	51.036260
1706.000000	51.038469
1705.000000	51.087095
1704.000000	51.149473
1703.000000	51.094225
1702.000000	51.118390
1701.000000	51.160149
1700.000000	51.132664
1699.000000	51.144553
1698.000000	51.191274
1697.000000	51.208494
1696.000000	51.219958
1695.000000	51.230286
1694.000000	51.246775
1693.000000	51.257392
1692.000000	51.277307
1691.000000	51.331949
1690.000000	51.382557
1689.000000	51.394930
1688.000000	51.448727
1687.000000	51.513618
1686.000000	51.570360
1685.000000	51.589216
1684.000000	51.681996
1683.000000	51.755641
1682.000000	51.831595
1681.000000	51.907705
1680.000000	51.965323
1679.000000	52.073575
1678.000000	52.132815
1677.000000	52.221868
1676.000000	52.302695
1675.000000	52.387875
1674.000000	52.469017
1673.000000	52.518153
1672.000000	52.622880
1671.000000	52.714087
1670.000000	52.765944
1669.000000	52.851929
1668.000000	52.887911
1667.000000	52.969720
1666.000000	53.013258
1665.000000	53.048969
1664.000000	53.091249
1663.000000	53.136948
1662.000000	53.156156
1661.000000	53.204489
1660.000000	53.237890
1659.000000	53.290018
1658.000000	53.290707
1657.000000	53.336813
1656.000000	53.346960
1655.000000	53.376763
1654.000000	53.380450
1653.000000	53.390249
1652.000000	53.385771
1651.000000	53.379235
1650.000000	53.397385
1649.000000	53.407059
1648.000000	53.365383
1647.000000	53.360225
1646.000000	53.347669
1645.000000	53.349213
1644.000000	53.348420
1643.000000	53.327087
1642.000000	53.354103
1641.000000	53.327750
1640.000000	53.322038
1639.000000	53.307280
1638.000000	53.268422
1637.000000	53.278197
1636.000000	53.247526
1635.000000	53.248966
1634.000000	53.227048
1633.000000	53.181540
1632.000000	53.184237
1631.000000	53.181499
1630.000000	53.143172
1629.000000	53.113468
1628.000000	53.080202
1627.000000	53.052554
1626.000000	53.031543
1625.000000	53.025839
1624.000000	53.009709
1623.000000	52.999560
1622.000000	52.985817
1621.000000	52.947160
1620.000000	52.905855
1619.000000	52.874149
1618.000000	52.842971
1617.000000	52.841312
1616.000000	52.822184
1615.000000	52.806168
1614.000000	52.762398
1613.000000	52.733159
1612.000000	52.711822
1611.000000	52.689159
1610.000000	52.654034
1609.000000	52.635923
1608.000000	52.611258
1607.000000	52.585412
1606.000000	52.559663
1605.000000	52.520519
1604.000000	52.484994
1603.000000	52.462910
1602.000000	52.453433
1601.000000	52.417647
1600.000000	52.365382
1599.000000	52.344330
1598.000000	52.324319
1597.000000	52.289976
1596.000000	52.263662
1595.000000	52.245408
1594.000000	52.225664
1593.000000	52.202621
1592.000000	52.175502
1591.000000	52.161110
1590.000000	52.151461
1589.000000	52.107654
1588.000000	52.058446
1587.000000	52.043068
1586.000000	52.023711
1585.000000	52.001645
1584.000000	51.981365
1583.000000	51.967875
1582.000000	51.950291
1581.000000	51.936197
1580.000000	51.910631
1579.000000	51.887078
1578.000000	51.880902
1577.000000	51.861567
1576.000000	51.828833
1575.000000	51.801165
1574.000000	51.771450
1573.000000	51.750577
1572.000000	51.718919
1571.000000	51.714540
1570.000000	51.697562
1569.000000	51.663678
1568.000000	51.648586
1567.000000	51.640289
1566.000000	51.620805
1565.000000	51.602084
1564.000000	51.585148
1563.000000	51.585040
1562.000000	51.576268
1561.000000	51.556549
1560.000000	51.540412
1559.000000	51.533625
1558.000000	51.512836
1557.000000	51.491428
1556.000000	51.492211
1555.000000	51.490414
1554.000000	51.472867
1553.000000	51.450589
1552.000000	51.408679
1551.000000	51.398130
1550.000000	51.390200
1549.000000	51.357434
1548.000000	51.353885
1547.000000	51.323790
1546.000000	51.293585
1545.000000	51.266491
1544.000000	51.222678
1543.000000	51.178272
1542.000000	51.147421
1541.000000	51.101927
1540.000000	51.061691
1539.000000	51.004712
1538.000000	50.978154
1537.000000	50.947816
1536.000000	50.897861
1535.000000	50.855568
1534.000000	50.818499
1533.000000	50.783221
1532.000000	50.731648
1531.000000	50.686824
1530.000000	50.643041
1529.000000	50.628560
1528.000000	50.573781
1527.000000	50.543885
1526.000000	50.506944
1525.000000	50.468632
1524.000000	50.410194
1523.000000	50.395073
1522.000000	50.381575
1521.000000	50.340897
1520.000000	50.319205
1519.000000	50.285611
1518.000000	50.289467
1517.000000	50.272006
1516.000000	50.245485
1515.000000	50.217455
1514.000000	50.192629
1513.000000	50.208121
1512.000000	50.185995
1511.000000	50.161332
1510.000000	50.148718
1509.000000	50.146499
1508.000000	50.134444
1507.000000	50.108239
1506.000000	50.127616
1505.000000	50.114727
1504.000000	50.102394
1503.000000	50.119806
1502.000000	50.103529
1501.000000	50.080033
1500.000000	50.091437
1499.000000	50.087617
1498.000000	50.096305
1497.000000	50.110878
1496.000000	50.108282
1495.000000	50.124820
1494.000000	50.107868
1493.000000	50.124771
1492.000000	50.154041
1491.000000	50.165056
1490.000000	50.172456
1489.000000	50.181775
1488.000000	50.216082
1487.000000	50.237550
1486.000000	50.256509
1485.000000	50.273491
1484.000000	50.278230
1483.000000	50.321876
1482.000000	50.305568
1481.000000	50.349108
1480.000000	50.380590
1479.000000	50.391697
1478.000000	50.429116
1477.000000	50.446169
1476.000000	50.449994
1475.000000	50.499926
1474.000000	50.533470
1473.000000	50.543389
1472.000000	50.560635
1471.000000	50.569229
1470.000000	50.621131
