PE UV       SUBTECH     SPECTRUM    ASCII       PEDS        4.00        
   -1
RTmsopph192.Sample.asc
18/03/21
09:42:13.00
18/03/21
09:42:13.00
Administrator

200.000000
1
Lambda 750
750N8071901
PerkinElmer UV WinLab 6.0.4.0738 / 1.61.00 Lambda 900

0
0
3350/servo 860.8/2
0
0
UV/VIS
1
1
1
CommonBeamDepol,150mm sphere / downward view
0
0
0
0
Program
Program
3350/servo 860.8/2
3350/0.2 860.8/0.2
3350/0.2 860.8/0.2
0
1
 
 
 
0
 
860.8
319.2
860.8
Front
100
on
 
 
0
0
0
 
0
 
 
 
0
 
 
0
0
0
0
0
 
 
 
 
0
0


0
0
#HDR
-1
-1
#GR
nm
%R
1.0
0.0
2350.000000
-1.000000
2151
8
66.992537
11.006624
#DATA
2350.000000	28.769868
2349.000000	28.511270
2348.000000	28.246035
2347.000000	29.054409
2346.000000	29.167030
2345.000000	28.789391
2344.000000	28.748045
2343.000000	28.355886
2342.000000	28.687613
2341.000000	28.801582
2340.000000	28.861903
2339.000000	28.872713
2338.000000	29.182479
2337.000000	29.340118
2336.000000	29.255455
2335.000000	29.144526
2334.000000	29.229964
2333.000000	29.323528
2332.000000	29.440974
2331.000000	29.471743
2330.000000	29.114327
2329.000000	29.282525
2328.000000	29.159557
2327.000000	29.123677
2326.000000	29.341192
2325.000000	29.060792
2324.000000	29.152801
2323.000000	28.896644
2322.000000	28.887151
2321.000000	29.185911
2320.000000	29.338502
2319.000000	29.054184
2318.000000	29.126984
2317.000000	29.066165
2316.000000	29.000015
2315.000000	28.815152
2314.000000	28.757315
2313.000000	28.768218
2312.000000	28.556804
2311.000000	28.486520
2310.000000	28.523027
2309.000000	28.444023
2308.000000	28.476833
2307.000000	28.440426
2306.000000	28.341416
2305.000000	28.213285
2304.000000	28.120864
2303.000000	28.005311
2302.000000	28.036866
2301.000000	28.013829
2300.000000	27.941765
2299.000000	27.852443
2298.000000	27.717146
2297.000000	27.601831
2296.000000	27.476125
2295.000000	27.427396
2294.000000	27.552469
2293.000000	27.417858
2292.000000	27.211396
2291.000000	27.294750
2290.000000	27.204135
2289.000000	27.105922
2288.000000	27.206884
2287.000000	27.084295
2286.000000	26.951243
2285.000000	26.964783
2284.000000	26.934430
2283.000000	26.761480
2282.000000	26.718560
2281.000000	26.745590
2280.000000	26.870938
2279.000000	26.983822
2278.000000	26.877173
2277.000000	27.047363
2276.000000	27.151293
2275.000000	27.098948
2274.000000	27.220221
2273.000000	27.331894
2272.000000	27.269552
2271.000000	27.184960
2270.000000	27.137188
2269.000000	27.217503
2268.000000	27.215930
2267.000000	27.403748
2266.000000	27.391989
2265.000000	27.459220
2264.000000	27.798108
2263.000000	27.875382
2262.000000	28.049689
2261.000000	28.285034
2260.000000	28.349015
2259.000000	28.450075
2258.000000	28.652945
2257.000000	28.958770
2256.000000	29.071773
2255.000000	29.065969
2254.000000	29.162892
2253.000000	29.433906
2252.000000	29.667372
2251.000000	29.776476
2250.000000	29.833848
2249.000000	30.134846
2248.000000	30.497026
2247.000000	30.659714
2246.000000	30.895973
2245.000000	31.045804
2244.000000	31.111136
2243.000000	31.284240
2242.000000	31.517157
2241.000000	31.724883
2240.000000	31.784691
2239.000000	31.908273
2238.000000	31.982937
2237.000000	32.107029
2236.000000	32.246920
2235.000000	32.355830
2234.000000	32.437936
2233.000000	32.480667
2232.000000	32.562589
2231.000000	32.606723
2230.000000	32.669240
2229.000000	32.726282
2228.000000	32.838659
2227.000000	32.788614
2226.000000	32.625552
2225.000000	32.658460
2224.000000	32.639019
2223.000000	32.585647
2222.000000	32.640317
2221.000000	32.641178
2220.000000	32.721033
2219.000000	32.683037
2218.000000	32.525940
2217.000000	32.638952
2216.000000	32.632656
2215.000000	32.491297
2214.000000	32.476003
2213.000000	32.570837
2212.000000	32.431338
2211.000000	32.138251
2210.000000	32.135462
2209.000000	32.082509
2208.000000	32.071792
2207.000000	32.150238
2206.000000	32.054496
2205.000000	31.969494
2204.000000	31.804863
2203.000000	31.857150
2202.000000	31.783244
2201.000000	31.642507
2200.000000	31.666118
2199.000000	31.581701
2198.000000	31.556504
2197.000000	31.429582
2196.000000	31.272588
2195.000000	31.259461
2194.000000	31.149145
2193.000000	31.129232
2192.000000	31.116906
2191.000000	30.980449
2190.000000	30.909718
2189.000000	30.782203
2188.000000	30.666351
2187.000000	30.630560
2186.000000	30.704031
2185.000000	30.631844
2184.000000	30.649620
2183.000000	30.640585
2182.000000	30.561467
2181.000000	30.451693
2180.000000	30.447080
2179.000000	30.480877
2178.000000	30.433643
2177.000000	30.439063
2176.000000	30.543376
2175.000000	30.512047
2174.000000	30.544765
2173.000000	30.532484
2172.000000	30.632969
2171.000000	30.628244
2170.000000	30.757723
2169.000000	30.903707
2168.000000	30.954602
2167.000000	30.834449
2166.000000	31.012327
2165.000000	31.144883
2164.000000	31.145769
2163.000000	31.180172
2162.000000	31.458549
2161.000000	31.450633
2160.000000	31.465718
2159.000000	31.734001
2158.000000	31.783229
2157.000000	32.129650
2156.000000	32.368402
2155.000000	32.142641
2154.000000	32.339210
2153.000000	32.764799
2152.000000	32.754968
2151.000000	32.860275
2150.000000	32.867752
2149.000000	33.031427
2148.000000	33.107062
2147.000000	33.321368
2146.000000	33.440905
2145.000000	33.627336
2144.000000	33.670557
2143.000000	33.839987
2142.000000	34.029689
2141.000000	34.149654
2140.000000	34.300817
2139.000000	34.212537
2138.000000	34.504136
2137.000000	34.523032
2136.000000	34.726865
2135.000000	34.786711
2134.000000	34.980383
2133.000000	34.814210
2132.000000	35.181488
2131.000000	35.237722
2130.000000	35.294831
2129.000000	35.337712
2128.000000	35.347352
2127.000000	35.336847
2126.000000	35.469671
2125.000000	35.445064
2124.000000	35.477380
2123.000000	35.537333
2122.000000	35.666684
2121.000000	35.767804
2120.000000	35.722939
2119.000000	35.849992
2118.000000	35.850281
2117.000000	35.892197
2116.000000	35.844016
2115.000000	36.015432
2114.000000	35.995922
2113.000000	35.937285
2112.000000	35.979748
2111.000000	36.128142
2110.000000	36.020835
2109.000000	36.094233
2108.000000	36.039260
2107.000000	36.054857
2106.000000	36.207871
2105.000000	36.192779
2104.000000	36.110850
2103.000000	36.099529
2102.000000	36.154913
2101.000000	36.179422
2100.000000	36.306195
2099.000000	36.252973
2098.000000	36.255976
2097.000000	36.250190
2096.000000	36.226485
2095.000000	36.150072
2094.000000	36.344825
2093.000000	36.267907
2092.000000	36.180685
2091.000000	36.259068
2090.000000	36.220179
2089.000000	36.122044
2088.000000	36.181456
2087.000000	36.199151
2086.000000	36.201194
2085.000000	36.235425
2084.000000	36.082277
2083.000000	36.035286
2082.000000	35.942243
2081.000000	35.940616
2080.000000	35.824766
2079.000000	35.719942
2078.000000	35.576043
2077.000000	35.564073
2076.000000	35.539084
2075.000000	35.453476
2074.000000	35.344141
2073.000000	35.309508
2072.000000	35.189803
2071.000000	35.002220
2070.000000	34.929125
2069.000000	34.761664
2068.000000	34.635518
2067.000000	34.498054
2066.000000	34.383250
2065.000000	34.278427
2064.000000	34.094460
2063.000000	33.877579
2062.000000	33.792265
2061.000000	33.635087
2060.000000	33.445294
2059.000000	33.253568
2058.000000	33.157030
2057.000000	33.050884
2056.000000	32.888531
2055.000000	32.812471
2054.000000	32.720429
2053.000000	32.524425
2052.000000	32.364425
2051.000000	32.279459
2050.000000	32.196508
2049.000000	32.067645
2048.000000	31.929163
2047.000000	31.925290
2046.000000	31.877866
2045.000000	31.789727
2044.000000	31.765347
2043.000000	31.711599
2042.000000	31.660950
2041.000000	31.749161
2040.000000	31.850978
2039.000000	31.821361
2038.000000	31.854879
2037.000000	31.897416
2036.000000	31.941283
2035.000000	32.085176
2034.000000	32.142730
2033.000000	32.217620
2032.000000	32.345022
2031.000000	32.424340
2030.000000	32.556964
2029.000000	32.690710
2028.000000	32.769281
2027.000000	32.873701
2026.000000	33.001429
2025.000000	33.118561
2024.000000	33.188340
2023.000000	33.247443
2022.000000	33.297499
2021.000000	33.321345
2020.000000	33.378774
2019.000000	33.406856
2018.000000	33.437476
2017.000000	33.464129
2016.000000	33.444791
2015.000000	33.440918
2014.000000	33.462831
2013.000000	33.442779
2012.000000	33.377642
2011.000000	33.341193
2010.000000	33.263472
2009.000000	33.193520
2008.000000	33.160510
2007.000000	33.079914
2006.000000	32.988085
2005.000000	32.922467
2004.000000	32.826392
2003.000000	32.732606
2002.000000	32.677513
2001.000000	32.569957
2000.000000	32.454499
1999.000000	32.382815
1998.000000	32.328278
1997.000000	32.213565
1996.000000	32.127106
1995.000000	32.055539
1994.000000	31.924362
1993.000000	31.810033
1992.000000	31.738411
1991.000000	31.653324
1990.000000	31.559626
1989.000000	31.422855
1988.000000	31.291334
1987.000000	31.208141
1986.000000	31.154534
1985.000000	31.056037
1984.000000	30.935417
1983.000000	30.822123
1982.000000	30.727124
1981.000000	30.631549
1980.000000	30.536945
1979.000000	30.428164
1978.000000	30.347576
1977.000000	30.244177
1976.000000	30.174467
1975.000000	30.059345
1974.000000	29.914047
1973.000000	29.850716
1972.000000	29.793400
1971.000000	29.671997
1970.000000	29.589098
1969.000000	29.524786
1968.000000	29.443558
1967.000000	29.359229
1966.000000	29.289878
1965.000000	29.166187
1964.000000	29.109258
1963.000000	29.040575
1962.000000	28.930752
1961.000000	28.836310
1960.000000	28.754665
1959.000000	28.699142
1958.000000	28.597209
1957.000000	28.557951
1956.000000	28.449470
1955.000000	28.425615
1954.000000	28.393738
1953.000000	28.298788
1952.000000	28.255168
1951.000000	28.264161
1950.000000	28.200717
1949.000000	28.129027
1948.000000	28.148580
1947.000000	28.073511
1946.000000	28.092322
1945.000000	28.056542
1944.000000	28.089374
1943.000000	28.107707
1942.000000	28.190171
1941.000000	28.198864
1940.000000	28.270608
1939.000000	28.350522
1938.000000	28.357615
1937.000000	28.425674
1936.000000	28.597174
1935.000000	28.657265
1934.000000	28.706167
1933.000000	28.804950
1932.000000	28.979464
1931.000000	29.115042
1930.000000	29.261377
1929.000000	29.447753
1928.000000	29.684153
1927.000000	29.828993
1926.000000	30.065963
1925.000000	30.311889
1924.000000	30.562677
1923.000000	30.740689
1922.000000	30.984702
1921.000000	31.267194
1920.000000	31.474299
1919.000000	31.837573
1918.000000	32.119093
1917.000000	32.474798
1916.000000	32.666472
1915.000000	33.136617
1914.000000	33.524567
1913.000000	33.864177
1912.000000	34.217652
1911.000000	34.693666
1910.000000	35.023092
1909.000000	35.414775
1908.000000	35.904851
1907.000000	36.375528
1906.000000	36.883347
1905.000000	37.290281
1904.000000	37.823482
1903.000000	38.381900
1902.000000	38.887952
1901.000000	39.435918
1900.000000	39.956364
1899.000000	40.515065
1898.000000	41.094851
1897.000000	41.536988
1896.000000	42.060572
1895.000000	42.630312
1894.000000	43.146019
1893.000000	43.667573
1892.000000	44.209432
1891.000000	44.722464
1890.000000	45.193880
1889.000000	45.708836
1888.000000	46.160303
1887.000000	46.618638
1886.000000	47.031611
1885.000000	47.494721
1884.000000	47.958334
1883.000000	48.330398
1882.000000	48.721301
1881.000000	49.143163
1880.000000	49.504011
1879.000000	49.770487
1878.000000	50.114905
1877.000000	50.451992
1876.000000	50.768750
1875.000000	51.055531
1874.000000	51.310429
1873.000000	51.531034
1872.000000	51.742883
1871.000000	51.976175
1870.000000	52.152182
1869.000000	52.343815
1868.000000	52.483628
1867.000000	52.619866
1866.000000	52.778897
1865.000000	52.871402
1864.000000	52.974702
1863.000000	53.045988
1862.000000	53.200478
1861.000000	53.253689
1860.000000	53.319795
1859.000000	53.365336
1858.000000	53.431073
1857.000000	53.484759
1856.000000	53.526943
1855.000000	53.539546
1854.000000	53.563317
1853.000000	53.606549
1852.000000	53.611898
1851.000000	53.624755
1850.000000	53.666912
1849.000000	53.657590
1848.000000	53.635266
1847.000000	53.681814
1846.000000	53.653810
1845.000000	53.622525
1844.000000	53.602620
1843.000000	53.604785
1842.000000	53.594393
1841.000000	53.534290
1840.000000	53.491028
1839.000000	53.504537
1838.000000	53.450185
1837.000000	53.401429
1836.000000	53.344341
1835.000000	53.277501
1834.000000	53.228046
1833.000000	53.214817
1832.000000	53.197873
1831.000000	53.132164
1830.000000	53.078373
1829.000000	53.033316
1828.000000	52.978363
1827.000000	52.951143
1826.000000	52.916331
1825.000000	52.859295
1824.000000	52.837498
1823.000000	52.797849
1822.000000	52.740198
1821.000000	52.710329
1820.000000	52.679638
1819.000000	52.620030
1818.000000	52.574479
1817.000000	52.537789
1816.000000	52.509804
1815.000000	52.476286
1814.000000	52.439710
1813.000000	52.410021
1812.000000	52.344457
1811.000000	52.294421
1810.000000	52.276929
1809.000000	52.272621
1808.000000	52.226119
1807.000000	52.164271
1806.000000	52.134022
1805.000000	52.101932
1804.000000	52.060097
1803.000000	52.038683
1802.000000	51.992751
1801.000000	51.954264
1800.000000	51.929216
1799.000000	51.880962
1798.000000	51.865588
1797.000000	51.840151
1796.000000	51.790574
1795.000000	51.768138
1794.000000	51.755939
1793.000000	51.702894
1792.000000	51.664569
1791.000000	51.638558
1790.000000	51.607142
1789.000000	51.586644
1788.000000	51.567560
1787.000000	51.555204
1786.000000	51.539683
1785.000000	51.502590
1784.000000	51.453321
1783.000000	51.415675
1782.000000	51.397960
1781.000000	51.373875
1780.000000	51.321550
1779.000000	51.257121
1778.000000	51.202977
1777.000000	51.160896
1776.000000	51.124220
1775.000000	51.033205
1774.000000	50.965755
1773.000000	50.916626
1772.000000	50.853339
1771.000000	50.805855
1770.000000	50.749779
1769.000000	50.682715
1768.000000	50.605896
1767.000000	50.558088
1766.000000	50.512638
1765.000000	50.447978
1764.000000	50.419980
1763.000000	50.357204
1762.000000	50.294791
1761.000000	50.228411
1760.000000	50.173540
1759.000000	50.090833
1758.000000	50.046235
1757.000000	49.987220
1756.000000	49.933555
1755.000000	49.880582
1754.000000	49.805986
1753.000000	49.750814
1752.000000	49.716590
1751.000000	49.635584
1750.000000	49.576458
1749.000000	49.541735
1748.000000	49.481307
1747.000000	49.391101
1746.000000	49.340556
1745.000000	49.239990
1744.000000	49.202390
1743.000000	49.144941
1742.000000	49.065830
1741.000000	49.023313
1740.000000	48.950502
1739.000000	48.907262
1738.000000	48.864226
1737.000000	48.834385
1736.000000	48.832959
1735.000000	48.794260
1734.000000	48.777645
1733.000000	48.781806
1732.000000	48.787920
1731.000000	48.826094
1730.000000	48.828467
1729.000000	48.857286
1728.000000	48.935416
1727.000000	48.974794
1726.000000	49.036630
1725.000000	49.138259
1724.000000	49.255686
1723.000000	49.324873
1722.000000	49.471268
1721.000000	49.554917
1720.000000	49.652938
1719.000000	49.798190
1718.000000	49.893398
1717.000000	50.012371
1716.000000	50.109404
1715.000000	50.209275
1714.000000	50.273651
1713.000000	50.397384
1712.000000	50.465358
1711.000000	50.581883
1710.000000	50.605625
1709.000000	50.681124
1708.000000	50.747966
1707.000000	50.789157
1706.000000	50.815066
1705.000000	50.848689
1704.000000	50.898113
1703.000000	50.885177
1702.000000	50.930539
1701.000000	50.942065
1700.000000	50.944040
1699.000000	50.961685
1698.000000	50.993032
1697.000000	51.054647
1696.000000	51.089309
1695.000000	51.106245
1694.000000	51.144583
1693.000000	51.224580
1692.000000	51.289654
1691.000000	51.337235
1690.000000	51.441080
1689.000000	51.539324
1688.000000	51.648381
1687.000000	51.767903
1686.000000	51.897757
1685.000000	52.059595
1684.000000	52.221484
1683.000000	52.415499
1682.000000	52.594457
1681.000000	52.809787
1680.000000	52.957001
1679.000000	53.155101
1678.000000	53.367772
1677.000000	53.543800
1676.000000	53.735487
1675.000000	53.966189
1674.000000	54.138316
1673.000000	54.321389
1672.000000	54.513792
1671.000000	54.706248
1670.000000	54.880935
1669.000000	55.094981
1668.000000	55.233596
1667.000000	55.366586
1666.000000	55.473502
1665.000000	55.616841
1664.000000	55.699078
1663.000000	55.766293
1662.000000	55.884073
1661.000000	55.975391
1660.000000	56.032687
1659.000000	56.097199
1658.000000	56.153565
1657.000000	56.178908
1656.000000	56.231699
1655.000000	56.251926
1654.000000	56.293040
1653.000000	56.332355
1652.000000	56.337799
1651.000000	56.335836
1650.000000	56.337989
1649.000000	56.352677
1648.000000	56.329024
1647.000000	56.326002
1646.000000	56.311393
1645.000000	56.288352
1644.000000	56.268439
1643.000000	56.252689
1642.000000	56.236648
1641.000000	56.188860
1640.000000	56.162836
1639.000000	56.128535
1638.000000	56.119171
1637.000000	56.091301
1636.000000	56.007727
1635.000000	55.972796
1634.000000	55.949448
1633.000000	55.899564
1632.000000	55.831005
1631.000000	55.786953
1630.000000	55.753712
1629.000000	55.718677
1628.000000	55.671322
1627.000000	55.626059
1626.000000	55.558483
1625.000000	55.514569
1624.000000	55.468850
1623.000000	55.424244
1622.000000	55.362727
1621.000000	55.298475
1620.000000	55.235699
1619.000000	55.169415
1618.000000	55.099514
1617.000000	55.038574
1616.000000	54.985601
1615.000000	54.909804
1614.000000	54.834047
1613.000000	54.774871
1612.000000	54.718862
1611.000000	54.639824
1610.000000	54.565049
1609.000000	54.505307
1608.000000	54.442597
1607.000000	54.371845
1606.000000	54.289821
1605.000000	54.227955
1604.000000	54.145398
1603.000000	54.073755
1602.000000	54.009627
1601.000000	53.928358
1600.000000	53.853641
1599.000000	53.793902
1598.000000	53.719082
1597.000000	53.645098
1596.000000	53.589670
1595.000000	53.532312
1594.000000	53.465225
1593.000000	53.393853
1592.000000	53.328845
1591.000000	53.275139
1590.000000	53.225475
1589.000000	53.163140
1588.000000	53.113448
1587.000000	53.059973
1586.000000	52.992539
1585.000000	52.949781
1584.000000	52.907456
1583.000000	52.850662
1582.000000	52.798022
1581.000000	52.738779
1580.000000	52.679722
1579.000000	52.630225
1578.000000	52.591777
1577.000000	52.536436
1576.000000	52.463501
1575.000000	52.426933
1574.000000	52.377354
1573.000000	52.310474
1572.000000	52.263800
1571.000000	52.216448
1570.000000	52.170287
1569.000000	52.134238
1568.000000	52.085683
1567.000000	52.039434
1566.000000	52.000537
1565.000000	51.964579
1564.000000	51.940199
1563.000000	51.929381
1562.000000	51.889261
1561.000000	51.855773
1560.000000	51.843384
1559.000000	51.803632
1558.000000	51.787122
1557.000000	51.775339
1556.000000	51.741701
1555.000000	51.724636
1554.000000	51.686583
1553.000000	51.658739
1552.000000	51.623510
1551.000000	51.589421
1550.000000	51.561633
1549.000000	51.538947
1548.000000	51.494640
1547.000000	51.427836
1546.000000	51.338647
1545.000000	51.289597
1544.000000	51.218753
1543.000000	51.128390
1542.000000	51.032439
1541.000000	50.949426
1540.000000	50.848466
1539.000000	50.764139
1538.000000	50.671384
1537.000000	50.554013
1536.000000	50.458023
1535.000000	50.357196
1534.000000	50.251194
1533.000000	50.161907
1532.000000	50.070616
1531.000000	49.985408
1530.000000	49.894753
1529.000000	49.795245
1528.000000	49.724087
1527.000000	49.642235
1526.000000	49.563669
1525.000000	49.490545
1524.000000	49.441212
1523.000000	49.382250
1522.000000	49.306563
1521.000000	49.258349
1520.000000	49.219269
1519.000000	49.159496
1518.000000	49.102259
1517.000000	49.064200
1516.000000	49.024133
1515.000000	48.984243
1514.000000	48.965329
1513.000000	48.997529
1512.000000	49.011296
1511.000000	49.024351
1510.000000	49.005690
1509.000000	48.968543
1508.000000	48.931198
1507.000000	48.896395
1506.000000	48.847433
1505.000000	48.844813
1504.000000	48.810575
1503.000000	48.804916
1502.000000	48.796783
1501.000000	48.768111
1500.000000	48.765853
1499.000000	48.762198
1498.000000	48.779490
1497.000000	48.766487
1496.000000	48.782597
1495.000000	48.787183
1494.000000	48.821412
1493.000000	48.825884
1492.000000	48.866305
1491.000000	48.894770
1490.000000	48.946801
1489.000000	48.962670
1488.000000	49.012006
1487.000000	49.080721
1486.000000	49.096336
1485.000000	49.150189
1484.000000	49.225478
1483.000000	49.273688
1482.000000	49.312279
1481.000000	49.372506
1480.000000	49.444553
1479.000000	49.500687
1478.000000	49.560431
1477.000000	49.634274
1476.000000	49.688129
1475.000000	49.751519
1474.000000	49.813320
1473.000000	49.856217
1472.000000	49.930756
1471.000000	49.984950
1470.000000	50.034522
