PE UV       SUBTECH     SPECTRUM    ASCII       PEDS        4.00        
   -1
RTmsopph202.Sample.asc
18/03/21
10:40:37.00
18/03/21
10:40:37.00
Administrator

200.000000
1
Lambda 750
750N8071901
PerkinElmer UV WinLab 6.0.4.0738 / 1.61.00 Lambda 900

0
0
3350/servo 860.8/2
0
0
UV/VIS
1
1
1
CommonBeamDepol,150mm sphere / downward view
0
0
0
0
Program
Program
3350/servo 860.8/2
3350/0.2 860.8/0.2
3350/0.2 860.8/0.2
0
1
 
 
 
0
 
860.8
319.2
860.8
Front
100
on
 
 
0
0
0
 
0
 
 
 
0
 
 
0
0
0
0
0
 
 
 
 
0
0


0
0
#HDR
-1
-1
#GR
nm
%R
1.0
0.0
2350.000000
-1.000000
2151
8
62.169956
8.944045
#DATA
2350.000000	29.769449
2349.000000	29.714073
2348.000000	29.922428
2347.000000	29.918102
2346.000000	29.748700
2345.000000	29.989410
2344.000000	29.739900
2343.000000	29.579906
2342.000000	29.774333
2341.000000	29.871743
2340.000000	29.844837
2339.000000	30.041505
2338.000000	30.032008
2337.000000	30.380268
2336.000000	30.219986
2335.000000	30.500728
2334.000000	30.370473
2333.000000	30.534135
2332.000000	30.490332
2331.000000	30.485089
2330.000000	30.557850
2329.000000	30.446055
2328.000000	30.129369
2327.000000	30.328026
2326.000000	30.478268
2325.000000	30.279941
2324.000000	30.243622
2323.000000	30.243876
2322.000000	30.243794
2321.000000	30.151565
2320.000000	30.052700
2319.000000	29.946909
2318.000000	30.272914
2317.000000	30.286261
2316.000000	30.068364
2315.000000	29.821476
2314.000000	29.804586
2313.000000	29.531695
2312.000000	29.437326
2311.000000	29.878031
2310.000000	29.656300
2309.000000	29.611366
2308.000000	29.305207
2307.000000	29.365985
2306.000000	29.359296
2305.000000	29.351198
2304.000000	29.140267
2303.000000	29.114739
2302.000000	29.256086
2301.000000	29.045727
2300.000000	29.042965
2299.000000	28.901746
2298.000000	28.817660
2297.000000	28.689318
2296.000000	28.588263
2295.000000	28.621698
2294.000000	28.409308
2293.000000	28.258169
2292.000000	28.348406
2291.000000	28.339449
2290.000000	28.385984
2289.000000	28.383533
2288.000000	28.280191
2287.000000	28.336003
2286.000000	28.124718
2285.000000	28.105893
2284.000000	28.270097
2283.000000	28.197075
2282.000000	28.092190
2281.000000	28.103155
2280.000000	28.068541
2279.000000	28.124022
2278.000000	28.266573
2277.000000	28.228259
2276.000000	28.214760
2275.000000	28.315089
2274.000000	28.361473
2273.000000	28.270312
2272.000000	28.344994
2271.000000	28.369761
2270.000000	28.303965
2269.000000	28.394661
2268.000000	28.580422
2267.000000	28.600825
2266.000000	28.685601
2265.000000	28.908716
2264.000000	28.951284
2263.000000	28.947844
2262.000000	29.084469
2261.000000	29.249708
2260.000000	29.398960
2259.000000	29.562299
2258.000000	29.664896
2257.000000	29.673501
2256.000000	29.712311
2255.000000	29.933954
2254.000000	30.143889
2253.000000	30.319015
2252.000000	30.585293
2251.000000	30.760026
2250.000000	30.958918
2249.000000	31.242913
2248.000000	31.389489
2247.000000	31.541580
2246.000000	31.661691
2245.000000	31.688015
2244.000000	31.902589
2243.000000	32.187912
2242.000000	32.262448
2241.000000	32.346027
2240.000000	32.525144
2239.000000	32.672966
2238.000000	32.647099
2237.000000	32.744200
2236.000000	32.909251
2235.000000	33.033907
2234.000000	33.209108
2233.000000	33.286325
2232.000000	33.403854
2231.000000	33.449343
2230.000000	33.305102
2229.000000	33.350481
2228.000000	33.444140
2227.000000	33.350407
2226.000000	33.357445
2225.000000	33.405111
2224.000000	33.383529
2223.000000	33.363453
2222.000000	33.289163
2221.000000	33.340339
2220.000000	33.375256
2219.000000	33.337629
2218.000000	33.207571
2217.000000	33.154739
2216.000000	33.144545
2215.000000	33.148024
2214.000000	33.169636
2213.000000	33.153777
2212.000000	33.031901
2211.000000	32.981039
2210.000000	32.878741
2209.000000	32.753979
2208.000000	32.687207
2207.000000	32.763308
2206.000000	32.752145
2205.000000	32.729704
2204.000000	32.695162
2203.000000	32.591755
2202.000000	32.496038
2201.000000	32.404743
2200.000000	32.358513
2199.000000	32.378681
2198.000000	32.412377
2197.000000	32.274661
2196.000000	32.049016
2195.000000	31.959144
2194.000000	31.887955
2193.000000	31.802065
2192.000000	31.877305
2191.000000	31.840009
2190.000000	31.819791
2189.000000	31.733464
2188.000000	31.636815
2187.000000	31.639007
2186.000000	31.616919
2185.000000	31.536157
2184.000000	31.555594
2183.000000	31.526353
2182.000000	31.345785
2181.000000	31.350414
2180.000000	31.321554
2179.000000	31.362592
2178.000000	31.284051
2177.000000	31.280927
2176.000000	31.448142
2175.000000	31.556933
2174.000000	31.324343
2173.000000	31.365399
2172.000000	31.423928
2171.000000	31.468958
2170.000000	31.794582
2169.000000	31.822184
2168.000000	31.897994
2167.000000	31.952862
2166.000000	31.844700
2165.000000	31.854602
2164.000000	31.920561
2163.000000	31.927230
2162.000000	32.223841
2161.000000	32.279346
2160.000000	32.242320
2159.000000	32.497523
2158.000000	32.612445
2157.000000	32.686907
2156.000000	32.869529
2155.000000	32.871127
2154.000000	33.176572
2153.000000	33.339290
2152.000000	33.412411
2151.000000	33.679742
2150.000000	33.706304
2149.000000	33.799701
2148.000000	33.905707
2147.000000	34.109168
2146.000000	34.113613
2145.000000	34.413018
2144.000000	34.560244
2143.000000	34.576684
2142.000000	34.661868
2141.000000	34.804959
2140.000000	34.826774
2139.000000	35.134207
2138.000000	35.042936
2137.000000	35.105327
2136.000000	35.174505
2135.000000	35.208421
2134.000000	35.527459
2133.000000	35.330520
2132.000000	35.628084
2131.000000	35.693621
2130.000000	36.015533
2129.000000	35.834370
2128.000000	35.789131
2127.000000	35.971889
2126.000000	36.048482
2125.000000	36.080191
2124.000000	36.202702
2123.000000	36.177214
2122.000000	36.297720
2121.000000	36.148500
2120.000000	36.194407
2119.000000	36.246961
2118.000000	36.322600
2117.000000	36.380602
2116.000000	36.524758
2115.000000	36.405283
2114.000000	36.396003
2113.000000	36.527449
2112.000000	36.426268
2111.000000	36.565096
2110.000000	36.502396
2109.000000	36.559362
2108.000000	36.561652
2107.000000	36.642866
2106.000000	36.636758
2105.000000	36.628789
2104.000000	36.694498
2103.000000	36.760350
2102.000000	36.601931
2101.000000	36.700859
2100.000000	36.750256
2099.000000	36.696104
2098.000000	36.809551
2097.000000	36.641396
2096.000000	36.653182
2095.000000	36.601722
2094.000000	36.763940
2093.000000	36.773537
2092.000000	36.773944
2091.000000	36.667332
2090.000000	36.658633
2089.000000	36.623326
2088.000000	36.695131
2087.000000	36.703411
2086.000000	36.660321
2085.000000	36.596091
2084.000000	36.536836
2083.000000	36.454876
2082.000000	36.382482
2081.000000	36.412428
2080.000000	36.272289
2079.000000	36.316248
2078.000000	36.220365
2077.000000	36.179763
2076.000000	36.087118
2075.000000	35.930941
2074.000000	35.889292
2073.000000	35.800166
2072.000000	35.676179
2071.000000	35.579201
2070.000000	35.432686
2069.000000	35.324089
2068.000000	35.191525
2067.000000	35.114282
2066.000000	34.919457
2065.000000	34.774476
2064.000000	34.758827
2063.000000	34.583972
2062.000000	34.419279
2061.000000	34.271720
2060.000000	34.199205
2059.000000	34.087148
2058.000000	33.936504
2057.000000	33.814127
2056.000000	33.680917
2055.000000	33.581137
2054.000000	33.494389
2053.000000	33.329714
2052.000000	33.205250
2051.000000	33.146922
2050.000000	33.048493
2049.000000	32.886121
2048.000000	32.770773
2047.000000	32.797704
2046.000000	32.751512
2045.000000	32.673744
2044.000000	32.616767
2043.000000	32.585662
2042.000000	32.595151
2041.000000	32.624355
2040.000000	32.655310
2039.000000	32.659018
2038.000000	32.693694
2037.000000	32.747920
2036.000000	32.800547
2035.000000	32.886722
2034.000000	32.987146
2033.000000	33.088747
2032.000000	33.198847
2031.000000	33.293128
2030.000000	33.417002
2029.000000	33.521175
2028.000000	33.568259
2027.000000	33.669851
2026.000000	33.796497
2025.000000	33.839750
2024.000000	33.895741
2023.000000	33.962462
2022.000000	34.018926
2021.000000	34.070186
2020.000000	34.107518
2019.000000	34.110820
2018.000000	34.167725
2017.000000	34.198670
2016.000000	34.128375
2015.000000	34.162316
2014.000000	34.170429
2013.000000	34.118254
2012.000000	34.088609
2011.000000	34.059166
2010.000000	33.990413
2009.000000	33.910004
2008.000000	33.888139
2007.000000	33.828175
2006.000000	33.738202
2005.000000	33.668190
2004.000000	33.587160
2003.000000	33.504171
2002.000000	33.452718
2001.000000	33.334418
2000.000000	33.225318
1999.000000	33.178777
1998.000000	33.084256
1997.000000	32.982429
1996.000000	32.926148
1995.000000	32.832797
1994.000000	32.727134
1993.000000	32.652181
1992.000000	32.555699
1991.000000	32.427029
1990.000000	32.318172
1989.000000	32.261971
1988.000000	32.162711
1987.000000	32.059229
1986.000000	31.961571
1985.000000	31.840491
1984.000000	31.753920
1983.000000	31.707888
1982.000000	31.620989
1981.000000	31.509126
1980.000000	31.431971
1979.000000	31.346057
1978.000000	31.263925
1977.000000	31.137812
1976.000000	31.069201
1975.000000	31.017484
1974.000000	30.897951
1973.000000	30.815235
1972.000000	30.690263
1971.000000	30.600742
1970.000000	30.558770
1969.000000	30.469434
1968.000000	30.369859
1967.000000	30.311369
1966.000000	30.213324
1965.000000	30.146760
1964.000000	30.021041
1963.000000	29.956437
1962.000000	29.921257
1961.000000	29.820000
1960.000000	29.732841
1959.000000	29.624685
1958.000000	29.581463
1957.000000	29.529277
1956.000000	29.418863
1955.000000	29.365337
1954.000000	29.371306
1953.000000	29.313064
1952.000000	29.220416
1951.000000	29.203420
1950.000000	29.148806
1949.000000	29.102031
1948.000000	29.055207
1947.000000	29.020466
1946.000000	29.055534
1945.000000	29.023080
1944.000000	29.032573
1943.000000	29.015398
1942.000000	29.090996
1941.000000	29.080521
1940.000000	29.127712
1939.000000	29.176908
1938.000000	29.261321
1937.000000	29.269725
1936.000000	29.409534
1935.000000	29.474963
1934.000000	29.580950
1933.000000	29.723695
1932.000000	29.815401
1931.000000	29.931151
1930.000000	30.078943
1929.000000	30.189494
1928.000000	30.460235
1927.000000	30.567989
1926.000000	30.727117
1925.000000	30.917572
1924.000000	31.159704
1923.000000	31.408671
1922.000000	31.683055
1921.000000	31.873875
1920.000000	32.143742
1919.000000	32.446959
1918.000000	32.716307
1917.000000	33.007637
1916.000000	33.216907
1915.000000	33.637818
1914.000000	33.988546
1913.000000	34.249737
1912.000000	34.562651
1911.000000	34.957687
1910.000000	35.305825
1909.000000	35.675539
1908.000000	36.096063
1907.000000	36.532463
1906.000000	36.937300
1905.000000	37.375418
1904.000000	37.832827
1903.000000	38.212312
1902.000000	38.750693
1901.000000	39.215164
1900.000000	39.712069
1899.000000	40.158296
1898.000000	40.692981
1897.000000	41.118242
1896.000000	41.643831
1895.000000	42.179149
1894.000000	42.560512
1893.000000	43.010289
1892.000000	43.534435
1891.000000	43.972076
1890.000000	44.422689
1889.000000	44.850898
1888.000000	45.286419
1887.000000	45.716278
1886.000000	46.077533
1885.000000	46.437622
1884.000000	46.822799
1883.000000	47.208089
1882.000000	47.598325
1881.000000	47.917762
1880.000000	48.221809
1879.000000	48.547126
1878.000000	48.867136
1877.000000	49.209902
1876.000000	49.472528
1875.000000	49.673800
1874.000000	49.953413
1873.000000	50.158603
1872.000000	50.383695
1871.000000	50.586952
1870.000000	50.749152
1869.000000	50.934238
1868.000000	51.052220
1867.000000	51.194372
1866.000000	51.304370
1865.000000	51.384087
1864.000000	51.473519
1863.000000	51.537865
1862.000000	51.681428
1861.000000	51.727051
1860.000000	51.789254
1859.000000	51.822351
1858.000000	51.875440
1857.000000	51.940784
1856.000000	51.974635
1855.000000	52.001478
1854.000000	52.048764
1853.000000	52.067136
1852.000000	52.057967
1851.000000	52.077794
1850.000000	52.107868
1849.000000	52.113923
1848.000000	52.109459
1847.000000	52.117786
1846.000000	52.092288
1845.000000	52.078596
1844.000000	52.057987
1843.000000	52.022333
1842.000000	52.003688
1841.000000	51.979196
1840.000000	51.959424
1839.000000	51.938762
1838.000000	51.919026
1837.000000	51.854406
1836.000000	51.782833
1835.000000	51.736277
1834.000000	51.703785
1833.000000	51.658328
1832.000000	51.630417
1831.000000	51.588082
1830.000000	51.530524
1829.000000	51.480668
1828.000000	51.452994
1827.000000	51.416238
1826.000000	51.391125
1825.000000	51.354585
1824.000000	51.327344
1823.000000	51.273533
1822.000000	51.216928
1821.000000	51.195563
1820.000000	51.146542
1819.000000	51.094645
1818.000000	51.075844
1817.000000	51.024616
1816.000000	50.974308
1815.000000	50.938036
1814.000000	50.879618
1813.000000	50.848675
1812.000000	50.832016
1811.000000	50.789394
1810.000000	50.758027
1809.000000	50.733793
1808.000000	50.682400
1807.000000	50.635323
1806.000000	50.629828
1805.000000	50.592357
1804.000000	50.545763
1803.000000	50.522319
1802.000000	50.474111
1801.000000	50.450436
1800.000000	50.440770
1799.000000	50.397166
1798.000000	50.353673
1797.000000	50.334249
1796.000000	50.310875
1795.000000	50.285765
1794.000000	50.247736
1793.000000	50.216406
1792.000000	50.187464
1791.000000	50.149774
1790.000000	50.126610
1789.000000	50.120060
1788.000000	50.096738
1787.000000	50.052395
1786.000000	50.034070
1785.000000	50.025768
1784.000000	49.975613
1783.000000	49.951991
1782.000000	49.916198
1781.000000	49.878250
1780.000000	49.835373
1779.000000	49.797199
1778.000000	49.751687
1777.000000	49.711265
1776.000000	49.658802
1775.000000	49.593041
1774.000000	49.534049
1773.000000	49.496477
1772.000000	49.431549
1771.000000	49.365385
1770.000000	49.309173
1769.000000	49.262301
1768.000000	49.212758
1767.000000	49.160680
1766.000000	49.106472
1765.000000	49.062244
1764.000000	49.029179
1763.000000	48.952629
1762.000000	48.895603
1761.000000	48.856109
1760.000000	48.770453
1759.000000	48.708679
1758.000000	48.656834
1757.000000	48.583788
1756.000000	48.542427
1755.000000	48.511937
1754.000000	48.461072
1753.000000	48.409840
1752.000000	48.368993
1751.000000	48.306637
1750.000000	48.230998
1749.000000	48.191679
1748.000000	48.148092
1747.000000	48.069352
1746.000000	48.005682
1745.000000	47.955324
1744.000000	47.894302
1743.000000	47.859602
1742.000000	47.779615
1741.000000	47.716210
1740.000000	47.659995
1739.000000	47.619818
1738.000000	47.575652
1737.000000	47.541723
1736.000000	47.523620
1735.000000	47.479954
1734.000000	47.464200
1733.000000	47.483343
1732.000000	47.460487
1731.000000	47.497113
1730.000000	47.492249
1729.000000	47.517936
1728.000000	47.553993
1727.000000	47.625094
1726.000000	47.699631
1725.000000	47.766072
1724.000000	47.835883
1723.000000	47.925960
1722.000000	48.042445
1721.000000	48.139897
1720.000000	48.186601
1719.000000	48.337970
1718.000000	48.408193
1717.000000	48.511331
1716.000000	48.602291
1715.000000	48.682362
1714.000000	48.766002
1713.000000	48.860996
1712.000000	48.943006
1711.000000	49.034779
1710.000000	49.073771
1709.000000	49.112783
1708.000000	49.169385
1707.000000	49.208501
1706.000000	49.259536
1705.000000	49.319756
1704.000000	49.325092
1703.000000	49.301363
1702.000000	49.353917
1701.000000	49.364355
1700.000000	49.398193
1699.000000	49.395041
1698.000000	49.425108
1697.000000	49.423146
1696.000000	49.481660
1695.000000	49.502159
1694.000000	49.535765
1693.000000	49.575823
1692.000000	49.629186
1691.000000	49.710248
1690.000000	49.779415
1689.000000	49.853548
1688.000000	49.955108
1687.000000	50.068147
1686.000000	50.150388
1685.000000	50.312208
1684.000000	50.448428
1683.000000	50.611279
1682.000000	50.779620
1681.000000	50.967474
1680.000000	51.112590
1679.000000	51.262651
1678.000000	51.475700
1677.000000	51.644103
1676.000000	51.812582
1675.000000	51.989354
1674.000000	52.166599
1673.000000	52.347572
1672.000000	52.512819
1671.000000	52.671920
1670.000000	52.824343
1669.000000	53.030331
1668.000000	53.169587
1667.000000	53.309698
1666.000000	53.406164
1665.000000	53.503861
1664.000000	53.584627
1663.000000	53.680056
1662.000000	53.765866
1661.000000	53.848056
1660.000000	53.911642
1659.000000	53.975771
1658.000000	54.031250
1657.000000	54.064758
1656.000000	54.101324
1655.000000	54.141187
1654.000000	54.153068
1653.000000	54.195277
1652.000000	54.213994
1651.000000	54.222212
1650.000000	54.215815
1649.000000	54.205547
1648.000000	54.180303
1647.000000	54.183562
1646.000000	54.179790
1645.000000	54.154798
1644.000000	54.157155
1643.000000	54.112563
1642.000000	54.095979
1641.000000	54.075742
1640.000000	54.032648
1639.000000	54.013206
1638.000000	53.977090
1637.000000	53.961489
1636.000000	53.909689
1635.000000	53.894572
1634.000000	53.844017
1633.000000	53.781166
1632.000000	53.741707
1631.000000	53.701833
1630.000000	53.665947
1629.000000	53.627007
1628.000000	53.559449
1627.000000	53.514525
1626.000000	53.468037
1625.000000	53.422254
1624.000000	53.396770
1623.000000	53.361242
1622.000000	53.303865
1621.000000	53.226346
1620.000000	53.171328
1619.000000	53.118169
1618.000000	53.057654
1617.000000	52.998710
1616.000000	52.934050
1615.000000	52.873079
1614.000000	52.795645
1613.000000	52.734543
1612.000000	52.685245
1611.000000	52.619736
1610.000000	52.560313
1609.000000	52.491545
1608.000000	52.431052
1607.000000	52.359509
1606.000000	52.284670
1605.000000	52.222549
1604.000000	52.148482
1603.000000	52.083950
1602.000000	52.014478
1601.000000	51.942615
1600.000000	51.883567
1599.000000	51.819061
1598.000000	51.749417
1597.000000	51.686890
1596.000000	51.633129
1595.000000	51.576664
1594.000000	51.511570
1593.000000	51.451443
1592.000000	51.397342
1591.000000	51.338403
1590.000000	51.278757
1589.000000	51.225753
1588.000000	51.187785
1587.000000	51.143478
1586.000000	51.078811
1585.000000	51.023373
1584.000000	50.967321
1583.000000	50.919845
1582.000000	50.887349
1581.000000	50.831945
1580.000000	50.778600
1579.000000	50.728872
1578.000000	50.691693
1577.000000	50.642665
1576.000000	50.581400
1575.000000	50.546715
1574.000000	50.500552
1573.000000	50.431971
1572.000000	50.388827
1571.000000	50.357593
1570.000000	50.314676
1569.000000	50.271763
1568.000000	50.220025
1567.000000	50.179801
1566.000000	50.151111
1565.000000	50.119793
1564.000000	50.085475
1563.000000	50.054971
1562.000000	50.012763
1561.000000	49.987237
1560.000000	49.978235
1559.000000	49.945036
1558.000000	49.920933
1557.000000	49.910554
1556.000000	49.882151
1555.000000	49.863894
1554.000000	49.836736
1553.000000	49.806215
1552.000000	49.766458
1551.000000	49.738460
1550.000000	49.709698
1549.000000	49.669819
1548.000000	49.638986
1547.000000	49.583063
1546.000000	49.510978
1545.000000	49.456816
1544.000000	49.390242
1543.000000	49.306799
1542.000000	49.239753
1541.000000	49.160077
1540.000000	49.071517
1539.000000	48.987977
1538.000000	48.896755
1537.000000	48.788837
1536.000000	48.706455
1535.000000	48.633095
1534.000000	48.536303
1533.000000	48.451738
1532.000000	48.354288
1531.000000	48.263176
1530.000000	48.186594
1529.000000	48.105242
1528.000000	48.031385
1527.000000	47.944059
1526.000000	47.893084
1525.000000	47.830632
1524.000000	47.766830
1523.000000	47.711182
1522.000000	47.660132
1521.000000	47.600325
1520.000000	47.559052
1519.000000	47.513164
1518.000000	47.448950
1517.000000	47.415666
1516.000000	47.382533
1515.000000	47.354151
1514.000000	47.328368
1513.000000	47.331373
1512.000000	47.313788
1511.000000	47.344936
1510.000000	47.344675
1509.000000	47.344498
1508.000000	47.285517
1507.000000	47.203345
1506.000000	47.173227
1505.000000	47.171948
1504.000000	47.131219
1503.000000	47.137537
1502.000000	47.122159
1501.000000	47.105515
1500.000000	47.101570
1499.000000	47.102472
1498.000000	47.115219
1497.000000	47.114275
1496.000000	47.105514
1495.000000	47.129579
1494.000000	47.150648
1493.000000	47.172468
1492.000000	47.200780
1491.000000	47.229907
1490.000000	47.256739
1489.000000	47.277840
1488.000000	47.344359
1487.000000	47.368186
1486.000000	47.398947
1485.000000	47.446296
1484.000000	47.488688
1483.000000	47.540852
1482.000000	47.594503
1481.000000	47.643161
1480.000000	47.699806
1479.000000	47.746203
1478.000000	47.800528
1477.000000	47.864269
1476.000000	47.915114
1475.000000	47.981655
1474.000000	48.028677
1473.000000	48.056081
1472.000000	48.122378
1471.000000	48.183453
1470.000000	48.242538
