PE UV       SUBTECH     SPECTRUM    ASCII       PEDS        4.00        
   -1
RTms1556142.Sample.asc
18/03/21
15:15:06.00
18/03/21
15:15:06.00
Administrator

200.000000
1
Lambda 750
750N8071901
PerkinElmer UV WinLab 6.0.4.0738 / 1.61.00 Lambda 900

0
0
3350/servo 860.8/2
0
0
UV/VIS
1
1
1
CommonBeamDepol,150mm sphere / downward view
0
0
0
0
Program
Program
3350/servo 860.8/2
3350/0.2 860.8/0.2
3350/0.2 860.8/0.2
0
1
 
 
 
0
 
860.8
319.2
860.8
Front
100
on
 
 
0
0
0
 
0
 
 
 
0
 
 
0
0
0
0
0
 
 
 
 
0
0


0
0
#HDR
-1
-1
#GR
nm
%R
1.0
0.0
2350.000000
-1.000000
2151
8
56.001767
8.184483
#DATA
2350.000000	36.851259
2349.000000	37.181972
2348.000000	37.058960
2347.000000	37.462007
2346.000000	36.958536
2345.000000	37.118219
2344.000000	37.266915
2343.000000	37.254398
2342.000000	37.582375
2341.000000	37.544186
2340.000000	37.372135
2339.000000	37.666140
2338.000000	37.914143
2337.000000	37.537087
2336.000000	37.850680
2335.000000	37.665261
2334.000000	37.590385
2333.000000	37.991624
2332.000000	38.015477
2331.000000	38.031143
2330.000000	38.009953
2329.000000	37.874588
2328.000000	37.757070
2327.000000	37.713613
2326.000000	37.786307
2325.000000	37.627094
2324.000000	37.808497
2323.000000	37.828633
2322.000000	37.454888
2321.000000	37.644912
2320.000000	37.580012
2319.000000	37.629792
2318.000000	37.621157
2317.000000	37.778391
2316.000000	37.514549
2315.000000	37.475005
2314.000000	37.301525
2313.000000	37.404968
2312.000000	37.286723
2311.000000	37.279476
2310.000000	37.031377
2309.000000	37.168346
2308.000000	37.036771
2307.000000	36.949733
2306.000000	36.952798
2305.000000	36.884303
2304.000000	36.930973
2303.000000	36.753765
2302.000000	36.764651
2301.000000	36.617532
2300.000000	36.364649
2299.000000	36.374360
2298.000000	36.436416
2297.000000	36.555787
2296.000000	36.309268
2295.000000	36.229122
2294.000000	36.223602
2293.000000	36.319117
2292.000000	36.073171
2291.000000	35.937935
2290.000000	35.952701
2289.000000	36.139090
2288.000000	36.249617
2287.000000	36.238468
2286.000000	36.069212
2285.000000	35.899008
2284.000000	35.938429
2283.000000	35.831955
2282.000000	35.883862
2281.000000	35.977993
2280.000000	35.848462
2279.000000	35.872248
2278.000000	35.948563
2277.000000	35.976724
2276.000000	36.032346
2275.000000	35.926482
2274.000000	35.939625
2273.000000	36.183102
2272.000000	36.195064
2271.000000	36.130501
2270.000000	36.229241
2269.000000	36.332727
2268.000000	36.292208
2267.000000	36.378426
2266.000000	36.467134
2265.000000	36.499384
2264.000000	36.596061
2263.000000	36.693983
2262.000000	36.802792
2261.000000	36.934632
2260.000000	37.101655
2259.000000	37.212884
2258.000000	37.277181
2257.000000	37.352277
2256.000000	37.439875
2255.000000	37.695499
2254.000000	37.872178
2253.000000	37.876043
2252.000000	38.019544
2251.000000	38.331601
2250.000000	38.527967
2249.000000	38.605948
2248.000000	38.691209
2247.000000	38.892861
2246.000000	38.998598
2245.000000	39.053929
2244.000000	39.183716
2243.000000	39.288600
2242.000000	39.501322
2241.000000	39.654945
2240.000000	39.657761
2239.000000	39.689041
2238.000000	39.737014
2237.000000	39.786158
2236.000000	40.085305
2235.000000	40.290164
2234.000000	40.184366
2233.000000	40.107738
2232.000000	40.221716
2231.000000	40.450058
2230.000000	40.480247
2229.000000	40.465070
2228.000000	40.534256
2227.000000	40.459487
2226.000000	40.409202
2225.000000	40.446254
2224.000000	40.492154
2223.000000	40.465360
2222.000000	40.386084
2221.000000	40.408673
2220.000000	40.274831
2219.000000	40.186082
2218.000000	40.358501
2217.000000	40.263761
2216.000000	40.218982
2215.000000	40.202574
2214.000000	40.276052
2213.000000	40.318332
2212.000000	40.179430
2211.000000	40.126093
2210.000000	40.199257
2209.000000	40.155175
2208.000000	40.170315
2207.000000	40.070902
2206.000000	39.947611
2205.000000	39.887029
2204.000000	39.839080
2203.000000	39.705259
2202.000000	39.662048
2201.000000	39.677138
2200.000000	39.806444
2199.000000	39.803661
2198.000000	39.746596
2197.000000	39.623931
2196.000000	39.572516
2195.000000	39.453709
2194.000000	39.319319
2193.000000	39.285909
2192.000000	39.362683
2191.000000	39.339071
2190.000000	39.289830
2189.000000	39.306749
2188.000000	39.223148
2187.000000	39.018866
2186.000000	39.055396
2185.000000	39.105691
2184.000000	39.124964
2183.000000	39.142754
2182.000000	39.183112
2181.000000	39.019566
2180.000000	38.994742
2179.000000	39.074867
2178.000000	38.983889
2177.000000	39.059595
2176.000000	38.973228
2175.000000	39.099528
2174.000000	39.055917
2173.000000	39.182881
2172.000000	39.072067
2171.000000	39.269925
2170.000000	39.298739
2169.000000	39.327248
2168.000000	39.433624
2167.000000	39.492066
2166.000000	39.474836
2165.000000	39.664375
2164.000000	39.524094
2163.000000	39.637038
2162.000000	39.788053
2161.000000	40.084784
2160.000000	40.092659
2159.000000	40.102153
2158.000000	40.226153
2157.000000	40.296248
2156.000000	40.424730
2155.000000	40.449043
2154.000000	40.621635
2153.000000	40.871275
2152.000000	40.882285
2151.000000	40.785273
2150.000000	41.075956
2149.000000	41.162090
2148.000000	41.168003
2147.000000	41.263937
2146.000000	41.482479
2145.000000	41.531756
2144.000000	41.416444
2143.000000	41.622654
2142.000000	41.810338
2141.000000	41.928266
2140.000000	41.929416
2139.000000	42.113488
2138.000000	42.169918
2137.000000	42.266241
2136.000000	42.291232
2135.000000	42.285833
2134.000000	42.583123
2133.000000	42.413451
2132.000000	42.511532
2131.000000	42.473408
2130.000000	42.719430
2129.000000	42.693386
2128.000000	42.612161
2127.000000	42.755235
2126.000000	42.757414
2125.000000	42.786888
2124.000000	42.885202
2123.000000	42.829832
2122.000000	42.976636
2121.000000	43.010272
2120.000000	42.873489
2119.000000	43.020314
2118.000000	42.992099
2117.000000	42.978897
2116.000000	42.999335
2115.000000	43.146870
2114.000000	43.045707
2113.000000	42.994674
2112.000000	43.134529
2111.000000	43.146604
2110.000000	43.186154
2109.000000	43.115290
2108.000000	43.104104
2107.000000	43.197707
2106.000000	43.195706
2105.000000	43.148303
2104.000000	43.004569
2103.000000	43.109143
2102.000000	43.189832
2101.000000	43.275952
2100.000000	43.139709
2099.000000	43.190160
2098.000000	43.177399
2097.000000	43.126564
2096.000000	43.179627
2095.000000	43.151990
2094.000000	43.166699
2093.000000	43.035271
2092.000000	43.124882
2091.000000	43.117858
2090.000000	43.122174
2089.000000	43.064607
2088.000000	43.031884
2087.000000	43.056331
2086.000000	43.078938
2085.000000	43.104006
2084.000000	43.042031
2083.000000	43.043978
2082.000000	42.997141
2081.000000	42.833905
2080.000000	42.777746
2079.000000	42.816225
2078.000000	42.701677
2077.000000	42.659103
2076.000000	42.578318
2075.000000	42.504226
2074.000000	42.470130
2073.000000	42.383311
2072.000000	42.300769
2071.000000	42.299741
2070.000000	42.299132
2069.000000	42.102038
2068.000000	42.000566
2067.000000	41.869635
2066.000000	41.746751
2065.000000	41.660734
2064.000000	41.580291
2063.000000	41.529429
2062.000000	41.463207
2061.000000	41.326837
2060.000000	41.229982
2059.000000	41.143608
2058.000000	41.052384
2057.000000	40.978665
2056.000000	40.885596
2055.000000	40.759374
2054.000000	40.658793
2053.000000	40.584390
2052.000000	40.519815
2051.000000	40.402417
2050.000000	40.369595
2049.000000	40.313018
2048.000000	40.226704
2047.000000	40.202348
2046.000000	40.140277
2045.000000	40.068218
2044.000000	40.030659
2043.000000	40.009902
2042.000000	40.039473
2041.000000	40.043663
2040.000000	40.063854
2039.000000	40.029861
2038.000000	40.031257
2037.000000	40.103060
2036.000000	40.131414
2035.000000	40.191112
2034.000000	40.256101
2033.000000	40.296835
2032.000000	40.391451
2031.000000	40.431134
2030.000000	40.458379
2029.000000	40.539378
2028.000000	40.616775
2027.000000	40.683934
2026.000000	40.747098
2025.000000	40.817597
2024.000000	40.862464
2023.000000	40.894329
2022.000000	40.941459
2021.000000	41.015216
2020.000000	41.045977
2019.000000	41.074565
2018.000000	41.061434
2017.000000	41.051327
2016.000000	41.042951
2015.000000	41.008562
2014.000000	41.023146
2013.000000	41.023194
2012.000000	40.985607
2011.000000	40.973116
2010.000000	40.942297
2009.000000	40.854696
2008.000000	40.805172
2007.000000	40.769864
2006.000000	40.709926
2005.000000	40.652508
2004.000000	40.619821
2003.000000	40.545293
2002.000000	40.467393
2001.000000	40.381964
2000.000000	40.305839
1999.000000	40.243930
1998.000000	40.186142
1997.000000	40.126148
1996.000000	40.077710
1995.000000	39.956540
1994.000000	39.860947
1993.000000	39.803199
1992.000000	39.717167
1991.000000	39.609637
1990.000000	39.540342
1989.000000	39.475430
1988.000000	39.351667
1987.000000	39.318451
1986.000000	39.238487
1985.000000	39.136726
1984.000000	39.080951
1983.000000	39.027998
1982.000000	38.951625
1981.000000	38.879323
1980.000000	38.801547
1979.000000	38.723468
1978.000000	38.633454
1977.000000	38.556172
1976.000000	38.453287
1975.000000	38.381411
1974.000000	38.303745
1973.000000	38.245550
1972.000000	38.179557
1971.000000	38.113267
1970.000000	38.017510
1969.000000	37.975396
1968.000000	37.904345
1967.000000	37.799931
1966.000000	37.771564
1965.000000	37.664075
1964.000000	37.588472
1963.000000	37.525538
1962.000000	37.444077
1961.000000	37.376275
1960.000000	37.349608
1959.000000	37.275415
1958.000000	37.176520
1957.000000	37.133631
1956.000000	37.088548
1955.000000	36.967578
1954.000000	36.968702
1953.000000	36.923634
1952.000000	36.936383
1951.000000	36.872494
1950.000000	36.811602
1949.000000	36.771037
1948.000000	36.756302
1947.000000	36.672982
1946.000000	36.692485
1945.000000	36.708442
1944.000000	36.679791
1943.000000	36.717209
1942.000000	36.787754
1941.000000	36.733573
1940.000000	36.740140
1939.000000	36.866542
1938.000000	36.840079
1937.000000	36.928061
1936.000000	36.973735
1935.000000	37.057890
1934.000000	37.049646
1933.000000	37.105494
1932.000000	37.139198
1931.000000	37.360794
1930.000000	37.484254
1929.000000	37.585653
1928.000000	37.682045
1927.000000	37.887669
1926.000000	37.992537
1925.000000	38.147473
1924.000000	38.354579
1923.000000	38.520724
1922.000000	38.656803
1921.000000	38.900589
1920.000000	39.090980
1919.000000	39.313048
1918.000000	39.470257
1917.000000	39.723360
1916.000000	39.944247
1915.000000	40.210825
1914.000000	40.494036
1913.000000	40.708322
1912.000000	40.962814
1911.000000	41.222461
1910.000000	41.468215
1909.000000	41.722903
1908.000000	42.065114
1907.000000	42.388797
1906.000000	42.606133
1905.000000	42.998537
1904.000000	43.305877
1903.000000	43.546385
1902.000000	43.893202
1901.000000	44.211674
1900.000000	44.527675
1899.000000	44.895405
1898.000000	45.260917
1897.000000	45.475054
1896.000000	45.811014
1895.000000	46.117488
1894.000000	46.425114
1893.000000	46.715226
1892.000000	47.056297
1891.000000	47.308432
1890.000000	47.609733
1889.000000	47.862977
1888.000000	48.121748
1887.000000	48.389515
1886.000000	48.625085
1885.000000	48.854525
1884.000000	49.061351
1883.000000	49.289208
1882.000000	49.479189
1881.000000	49.655887
1880.000000	49.890929
1879.000000	50.033377
1878.000000	50.190241
1877.000000	50.397559
1876.000000	50.542052
1875.000000	50.642891
1874.000000	50.810863
1873.000000	50.888059
1872.000000	51.014696
1871.000000	51.135770
1870.000000	51.245640
1869.000000	51.307674
1868.000000	51.374758
1867.000000	51.431065
1866.000000	51.490804
1865.000000	51.546713
1864.000000	51.603870
1863.000000	51.612348
1862.000000	51.653333
1861.000000	51.687490
1860.000000	51.715885
1859.000000	51.764732
1858.000000	51.788981
1857.000000	51.774713
1856.000000	51.779753
1855.000000	51.834231
1854.000000	51.849555
1853.000000	51.871606
1852.000000	51.888709
1851.000000	51.875847
1850.000000	51.878856
1849.000000	51.876400
1848.000000	51.868856
1847.000000	51.906728
1846.000000	51.901762
1845.000000	51.882834
1844.000000	51.863024
1843.000000	51.857564
1842.000000	51.827283
1841.000000	51.820023
1840.000000	51.834355
1839.000000	51.833968
1838.000000	51.811239
1837.000000	51.762700
1836.000000	51.747711
1835.000000	51.716225
1834.000000	51.702347
1833.000000	51.684835
1832.000000	51.637941
1831.000000	51.592182
1830.000000	51.577869
1829.000000	51.562677
1828.000000	51.529894
1827.000000	51.504954
1826.000000	51.505585
1825.000000	51.498330
1824.000000	51.495324
1823.000000	51.471342
1822.000000	51.422810
1821.000000	51.411128
1820.000000	51.394278
1819.000000	51.377838
1818.000000	51.361188
1817.000000	51.323007
1816.000000	51.297199
1815.000000	51.299852
1814.000000	51.284300
1813.000000	51.256406
1812.000000	51.253651
1811.000000	51.240709
1810.000000	51.233198
1809.000000	51.228072
1808.000000	51.186936
1807.000000	51.162729
1806.000000	51.168854
1805.000000	51.156180
1804.000000	51.140462
1803.000000	51.138585
1802.000000	51.123839
1801.000000	51.090701
1800.000000	51.087782
1799.000000	51.090904
1798.000000	51.070072
1797.000000	51.073775
1796.000000	51.083948
1795.000000	51.064589
1794.000000	51.050753
1793.000000	51.031582
1792.000000	51.024282
1791.000000	51.032811
1790.000000	51.025163
1789.000000	51.011803
1788.000000	51.009963
1787.000000	51.006269
1786.000000	51.002582
1785.000000	50.984436
1784.000000	50.964388
1783.000000	50.940340
1782.000000	50.948328
1781.000000	50.916447
1780.000000	50.902361
1779.000000	50.892413
1778.000000	50.874126
1777.000000	50.852740
1776.000000	50.840443
1775.000000	50.784478
1774.000000	50.749357
1773.000000	50.748730
1772.000000	50.707670
1771.000000	50.692761
1770.000000	50.677963
1769.000000	50.637736
1768.000000	50.609872
1767.000000	50.595075
1766.000000	50.563723
1765.000000	50.554577
1764.000000	50.514355
1763.000000	50.488161
1762.000000	50.448377
1761.000000	50.418437
1760.000000	50.386339
1759.000000	50.359084
1758.000000	50.335173
1757.000000	50.325961
1756.000000	50.300208
1755.000000	50.275309
1754.000000	50.245928
1753.000000	50.212101
1752.000000	50.199228
1751.000000	50.150795
1750.000000	50.134920
1749.000000	50.143595
1748.000000	50.096383
1747.000000	50.082176
1746.000000	50.059665
1745.000000	50.005132
1744.000000	49.985570
1743.000000	49.960161
1742.000000	49.924035
1741.000000	49.896623
1740.000000	49.882133
1739.000000	49.856392
1738.000000	49.839628
1737.000000	49.848817
1736.000000	49.826042
1735.000000	49.812244
1734.000000	49.791658
1733.000000	49.804878
1732.000000	49.788074
1731.000000	49.794930
1730.000000	49.833683
1729.000000	49.826895
1728.000000	49.846195
1727.000000	49.851302
1726.000000	49.867921
1725.000000	49.938632
1724.000000	49.984198
1723.000000	50.029511
1722.000000	50.075038
1721.000000	50.125472
1720.000000	50.189599
1719.000000	50.240605
1718.000000	50.276365
1717.000000	50.332908
1716.000000	50.341610
1715.000000	50.417040
1714.000000	50.438763
1713.000000	50.523031
1712.000000	50.524305
1711.000000	50.562259
1710.000000	50.605586
1709.000000	50.640345
1708.000000	50.656559
1707.000000	50.701114
1706.000000	50.698272
1705.000000	50.732500
1704.000000	50.744625
1703.000000	50.769615
1702.000000	50.749488
1701.000000	50.763324
1700.000000	50.758257
1699.000000	50.747869
1698.000000	50.804476
1697.000000	50.805307
1696.000000	50.858527
1695.000000	50.867920
1694.000000	50.879189
1693.000000	50.903463
1692.000000	50.910911
1691.000000	50.977623
1690.000000	51.005884
1689.000000	51.036776
1688.000000	51.088488
1687.000000	51.132902
1686.000000	51.177541
1685.000000	51.253768
1684.000000	51.318634
1683.000000	51.391827
1682.000000	51.466089
1681.000000	51.540830
1680.000000	51.601271
1679.000000	51.705842
1678.000000	51.770701
1677.000000	51.835054
1676.000000	51.934784
1675.000000	52.016383
1674.000000	52.082426
1673.000000	52.169211
1672.000000	52.246811
1671.000000	52.311710
1670.000000	52.395391
1669.000000	52.479631
1668.000000	52.516872
1667.000000	52.594748
1666.000000	52.615389
1665.000000	52.657378
1664.000000	52.732082
1663.000000	52.752673
1662.000000	52.787412
1661.000000	52.824271
1660.000000	52.871423
1659.000000	52.916308
1658.000000	52.925513
1657.000000	52.939838
1656.000000	52.953893
1655.000000	52.991335
1654.000000	53.008088
1653.000000	52.997196
1652.000000	52.998983
1651.000000	52.997757
1650.000000	52.984464
1649.000000	52.981983
1648.000000	52.986172
1647.000000	52.965179
1646.000000	52.971803
1645.000000	52.957607
1644.000000	52.955019
1643.000000	52.935773
1642.000000	52.947243
1641.000000	52.929641
1640.000000	52.915958
1639.000000	52.896782
1638.000000	52.901875
1637.000000	52.901683
1636.000000	52.847149
1635.000000	52.856438
1634.000000	52.839315
1633.000000	52.809248
1632.000000	52.785808
1631.000000	52.764157
1630.000000	52.755092
1629.000000	52.743540
1628.000000	52.719706
1627.000000	52.686968
1626.000000	52.659389
1625.000000	52.655566
1624.000000	52.628737
1623.000000	52.620295
1622.000000	52.603072
1621.000000	52.570409
1620.000000	52.539584
1619.000000	52.515407
1618.000000	52.486477
1617.000000	52.453915
1616.000000	52.437020
1615.000000	52.419936
1614.000000	52.387533
1613.000000	52.367154
1612.000000	52.329247
1611.000000	52.299243
1610.000000	52.288083
1609.000000	52.267534
1608.000000	52.242420
1607.000000	52.211601
1606.000000	52.182503
1605.000000	52.155971
1604.000000	52.120866
1603.000000	52.084219
1602.000000	52.071031
1601.000000	52.040477
1600.000000	52.006826
1599.000000	51.984663
1598.000000	51.964233
1597.000000	51.929029
1596.000000	51.887823
1595.000000	51.871157
1594.000000	51.852826
1593.000000	51.821366
1592.000000	51.800737
1591.000000	51.776717
1590.000000	51.760840
1589.000000	51.725597
1588.000000	51.693262
1587.000000	51.685554
1586.000000	51.672864
1585.000000	51.651480
1584.000000	51.622990
1583.000000	51.602502
1582.000000	51.591641
1581.000000	51.574832
1580.000000	51.554672
1579.000000	51.525861
1578.000000	51.516182
1577.000000	51.483031
1576.000000	51.453768
1575.000000	51.427005
1574.000000	51.393166
1573.000000	51.377766
1572.000000	51.370558
1571.000000	51.347686
1570.000000	51.322717
1569.000000	51.307324
1568.000000	51.297188
1567.000000	51.276243
1566.000000	51.259645
1565.000000	51.240596
1564.000000	51.221921
1563.000000	51.222626
1562.000000	51.205519
1561.000000	51.197635
1560.000000	51.181872
1559.000000	51.162182
1558.000000	51.151525
1557.000000	51.147076
1556.000000	51.119272
1555.000000	51.104363
1554.000000	51.090075
1553.000000	51.089325
1552.000000	51.077769
1551.000000	51.057323
1550.000000	51.038388
1549.000000	51.010288
1548.000000	50.972307
1547.000000	50.938549
1546.000000	50.919278
1545.000000	50.902897
1544.000000	50.870674
1543.000000	50.837564
1542.000000	50.802875
1541.000000	50.763317
1540.000000	50.720493
1539.000000	50.678634
1538.000000	50.628447
1537.000000	50.584516
1536.000000	50.550138
1535.000000	50.503866
1534.000000	50.463684
1533.000000	50.423444
1532.000000	50.376147
1531.000000	50.341155
1530.000000	50.296710
1529.000000	50.269195
1528.000000	50.236454
1527.000000	50.187587
1526.000000	50.156397
1525.000000	50.109839
1524.000000	50.085631
1523.000000	50.056569
1522.000000	50.041405
1521.000000	50.010656
1520.000000	49.985897
1519.000000	49.963982
1518.000000	49.924108
1517.000000	49.893197
1516.000000	49.889791
1515.000000	49.868187
1514.000000	49.844608
1513.000000	49.868510
1512.000000	49.883005
1511.000000	49.932322
1510.000000	49.953269
1509.000000	49.946465
1508.000000	49.924125
1507.000000	49.883235
1506.000000	49.859191
1505.000000	49.839503
1504.000000	49.823120
1503.000000	49.822143
1502.000000	49.815577
1501.000000	49.791264
1500.000000	49.782927
1499.000000	49.769416
1498.000000	49.790442
1497.000000	49.792606
1496.000000	49.786987
1495.000000	49.792373
1494.000000	49.788933
1493.000000	49.810078
1492.000000	49.808717
1491.000000	49.838496
1490.000000	49.868946
1489.000000	49.858507
1488.000000	49.893608
1487.000000	49.905122
1486.000000	49.903606
1485.000000	49.939681
1484.000000	49.967383
1483.000000	49.932074
1482.000000	49.964594
1481.000000	49.989298
1480.000000	50.038343
1479.000000	50.051479
1478.000000	50.087588
1477.000000	50.114167
1476.000000	50.121970
1475.000000	50.165391
1474.000000	50.187595
1473.000000	50.217680
1472.000000	50.247909
1471.000000	50.253909
1470.000000	50.296670
