PE UV       SUBTECH     SPECTRUM    ASCII       PEDS        4.00        
   -1
RTms1556132.Sample.asc
18/03/21
11:28:57.00
18/03/21
11:28:57.00
Administrator

200.000000
1
Lambda 750
750N8071901
PerkinElmer UV WinLab 6.0.4.0738 / 1.61.00 Lambda 900

0
0
3350/servo 860.8/2
0
0
UV/VIS
1
1
1
CommonBeamDepol,150mm sphere / downward view
0
0
0
0
Program
Program
3350/servo 860.8/2
3350/0.2 860.8/0.2
3350/0.2 860.8/0.2
0
1
 
 
 
0
 
860.8
319.2
860.8
Front
100
on
 
 
0
0
0
 
0
 
 
 
0
 
 
0
0
0
0
0
 
 
 
 
0
0


0
0
#HDR
-1
-1
#GR
nm
%R
1.0
0.0
2350.000000
-1.000000
2151
8
63.310450
11.051944
#DATA
2350.000000	39.936590
2349.000000	40.105314
2348.000000	40.094794
2347.000000	40.626109
2346.000000	40.141312
2345.000000	40.031121
2344.000000	40.293717
2343.000000	39.809561
2342.000000	40.124414
2341.000000	40.329007
2340.000000	40.346787
2339.000000	40.437882
2338.000000	40.554855
2337.000000	40.556758
2336.000000	40.924138
2335.000000	40.796380
2334.000000	40.742121
2333.000000	40.727843
2332.000000	40.952294
2331.000000	40.892324
2330.000000	40.944575
2329.000000	40.514772
2328.000000	40.474643
2327.000000	40.584642
2326.000000	40.666275
2325.000000	40.517260
2324.000000	40.517566
2323.000000	40.443754
2322.000000	40.159041
2321.000000	40.277762
2320.000000	40.274362
2319.000000	40.234902
2318.000000	40.157539
2317.000000	40.069891
2316.000000	40.144037
2315.000000	39.920863
2314.000000	39.950166
2313.000000	39.979623
2312.000000	39.750389
2311.000000	39.998396
2310.000000	40.012415
2309.000000	39.677276
2308.000000	39.765732
2307.000000	39.473331
2306.000000	39.469248
2305.000000	39.609475
2304.000000	39.350426
2303.000000	39.275654
2302.000000	39.344002
2301.000000	39.234861
2300.000000	39.139684
2299.000000	39.037018
2298.000000	38.820371
2297.000000	38.839674
2296.000000	38.765696
2295.000000	38.760091
2294.000000	38.657305
2293.000000	38.502249
2292.000000	38.405814
2291.000000	38.475775
2290.000000	38.451777
2289.000000	38.390862
2288.000000	38.468835
2287.000000	38.441381
2286.000000	38.239068
2285.000000	38.303290
2284.000000	38.273650
2283.000000	38.201278
2282.000000	38.022067
2281.000000	38.028581
2280.000000	38.091176
2279.000000	38.336157
2278.000000	38.387122
2277.000000	38.258573
2276.000000	38.280448
2275.000000	38.324149
2274.000000	38.363126
2273.000000	38.423912
2272.000000	38.360966
2271.000000	38.458845
2270.000000	38.613695
2269.000000	38.595779
2268.000000	38.683028
2267.000000	38.761565
2266.000000	38.766841
2265.000000	38.840403
2264.000000	38.995516
2263.000000	39.093235
2262.000000	39.164544
2261.000000	39.291598
2260.000000	39.559797
2259.000000	39.699725
2258.000000	39.820828
2257.000000	39.893825
2256.000000	39.895866
2255.000000	40.070056
2254.000000	40.355894
2253.000000	40.512916
2252.000000	40.598087
2251.000000	40.605476
2250.000000	40.696703
2249.000000	40.877391
2248.000000	41.078270
2247.000000	41.214693
2246.000000	41.308379
2245.000000	41.446942
2244.000000	41.582765
2243.000000	41.757762
2242.000000	41.852153
2241.000000	42.005448
2240.000000	42.114804
2239.000000	42.206270
2238.000000	42.426009
2237.000000	42.514213
2236.000000	42.550241
2235.000000	42.716208
2234.000000	42.773435
2233.000000	42.775336
2232.000000	42.845132
2231.000000	42.846051
2230.000000	42.904496
2229.000000	42.947836
2228.000000	42.937827
2227.000000	42.915477
2226.000000	42.988694
2225.000000	43.088903
2224.000000	43.103180
2223.000000	43.015527
2222.000000	42.919199
2221.000000	42.940560
2220.000000	43.035943
2219.000000	43.024600
2218.000000	42.919012
2217.000000	42.819619
2216.000000	42.746974
2215.000000	42.769250
2214.000000	42.823905
2213.000000	42.749598
2212.000000	42.652590
2211.000000	42.606026
2210.000000	42.688112
2209.000000	42.636274
2208.000000	42.512232
2207.000000	42.611758
2206.000000	42.587894
2205.000000	42.437825
2204.000000	42.397279
2203.000000	42.393189
2202.000000	42.318098
2201.000000	42.197652
2200.000000	42.148848
2199.000000	42.159937
2198.000000	42.122031
2197.000000	42.115648
2196.000000	42.009206
2195.000000	41.977465
2194.000000	41.941528
2193.000000	41.907037
2192.000000	41.755290
2191.000000	41.699177
2190.000000	41.715387
2189.000000	41.715881
2188.000000	41.659290
2187.000000	41.577815
2186.000000	41.474449
2185.000000	41.475190
2184.000000	41.499420
2183.000000	41.567924
2182.000000	41.376753
2181.000000	41.445011
2180.000000	41.414511
2179.000000	41.335299
2178.000000	41.344947
2177.000000	41.279906
2176.000000	41.448071
2175.000000	41.509289
2174.000000	41.488704
2173.000000	41.487561
2172.000000	41.575999
2171.000000	41.608794
2170.000000	41.661786
2169.000000	41.706862
2168.000000	41.760972
2167.000000	41.859386
2166.000000	41.958674
2165.000000	41.964807
2164.000000	42.132497
2163.000000	42.152407
2162.000000	42.407557
2161.000000	42.364859
2160.000000	42.470140
2159.000000	42.609773
2158.000000	42.676584
2157.000000	42.911861
2156.000000	42.990188
2155.000000	43.137671
2154.000000	43.211583
2153.000000	43.401374
2152.000000	43.574241
2151.000000	43.657452
2150.000000	43.650868
2149.000000	43.875184
2148.000000	43.906787
2147.000000	43.956613
2146.000000	44.013171
2145.000000	44.138065
2144.000000	44.280452
2143.000000	44.339917
2142.000000	44.494797
2141.000000	44.603228
2140.000000	44.634155
2139.000000	45.014451
2138.000000	45.066420
2137.000000	45.138536
2136.000000	45.204620
2135.000000	45.122099
2134.000000	45.339808
2133.000000	45.249612
2132.000000	45.369357
2131.000000	45.462756
2130.000000	45.452131
2129.000000	45.551385
2128.000000	45.619466
2127.000000	45.589178
2126.000000	45.603546
2125.000000	45.721741
2124.000000	45.810969
2123.000000	45.939892
2122.000000	45.970875
2121.000000	45.822461
2120.000000	45.884255
2119.000000	46.026224
2118.000000	45.790205
2117.000000	45.950359
2116.000000	46.044730
2115.000000	46.076413
2114.000000	45.889931
2113.000000	46.029010
2112.000000	45.960441
2111.000000	46.087059
2110.000000	46.088531
2109.000000	46.153799
2108.000000	46.101402
2107.000000	46.249654
2106.000000	46.196933
2105.000000	46.058214
2104.000000	46.129091
2103.000000	46.115237
2102.000000	46.116621
2101.000000	46.197521
2100.000000	46.274258
2099.000000	46.126903
2098.000000	46.169459
2097.000000	46.066075
2096.000000	46.175609
2095.000000	46.120863
2094.000000	46.190576
2093.000000	46.242747
2092.000000	46.130402
2091.000000	46.185103
2090.000000	46.052493
2089.000000	46.050116
2088.000000	46.087661
2087.000000	46.088410
2086.000000	46.101314
2085.000000	46.106617
2084.000000	45.989642
2083.000000	45.893977
2082.000000	45.882018
2081.000000	45.897937
2080.000000	45.775188
2079.000000	45.844871
2078.000000	45.748460
2077.000000	45.649226
2076.000000	45.556538
2075.000000	45.446795
2074.000000	45.363431
2073.000000	45.334345
2072.000000	45.234783
2071.000000	45.219350
2070.000000	45.144330
2069.000000	45.019834
2068.000000	44.840174
2067.000000	44.794369
2066.000000	44.676791
2065.000000	44.539955
2064.000000	44.495231
2063.000000	44.346115
2062.000000	44.229290
2061.000000	44.102725
2060.000000	43.936056
2059.000000	43.869572
2058.000000	43.768309
2057.000000	43.712652
2056.000000	43.609328
2055.000000	43.495397
2054.000000	43.401246
2053.000000	43.239768
2052.000000	43.152837
2051.000000	43.090379
2050.000000	42.993656
2049.000000	42.871157
2048.000000	42.805400
2047.000000	42.812757
2046.000000	42.776965
2045.000000	42.711142
2044.000000	42.637061
2043.000000	42.605904
2042.000000	42.584941
2041.000000	42.585747
2040.000000	42.614475
2039.000000	42.577953
2038.000000	42.662802
2037.000000	42.734670
2036.000000	42.767348
2035.000000	42.831674
2034.000000	42.847395
2033.000000	42.918177
2032.000000	43.025341
2031.000000	43.057315
2030.000000	43.162341
2029.000000	43.279113
2028.000000	43.291515
2027.000000	43.374305
2026.000000	43.479881
2025.000000	43.529503
2024.000000	43.537187
2023.000000	43.582811
2022.000000	43.638896
2021.000000	43.654763
2020.000000	43.703489
2019.000000	43.727566
2018.000000	43.787294
2017.000000	43.842574
2016.000000	43.778533
2015.000000	43.720202
2014.000000	43.707305
2013.000000	43.709758
2012.000000	43.657191
2011.000000	43.607872
2010.000000	43.572076
2009.000000	43.513823
2008.000000	43.450829
2007.000000	43.397468
2006.000000	43.322663
2005.000000	43.291901
2004.000000	43.212572
2003.000000	43.118388
2002.000000	43.062064
2001.000000	42.972672
2000.000000	42.885918
1999.000000	42.780969
1998.000000	42.697421
1997.000000	42.650282
1996.000000	42.577831
1995.000000	42.492926
1994.000000	42.389085
1993.000000	42.259199
1992.000000	42.184363
1991.000000	42.109801
1990.000000	42.019385
1989.000000	41.926823
1988.000000	41.825812
1987.000000	41.769648
1986.000000	41.649677
1985.000000	41.573449
1984.000000	41.476439
1983.000000	41.410893
1982.000000	41.326793
1981.000000	41.233027
1980.000000	41.153499
1979.000000	41.023726
1978.000000	40.925831
1977.000000	40.857185
1976.000000	40.777091
1975.000000	40.671461
1974.000000	40.597243
1973.000000	40.499819
1972.000000	40.421346
1971.000000	40.351750
1970.000000	40.302718
1969.000000	40.221232
1968.000000	40.129287
1967.000000	40.025523
1966.000000	39.940187
1965.000000	39.859459
1964.000000	39.810925
1963.000000	39.742430
1962.000000	39.675983
1961.000000	39.548675
1960.000000	39.519799
1959.000000	39.417219
1958.000000	39.362423
1957.000000	39.283352
1956.000000	39.163766
1955.000000	39.130386
1954.000000	39.119212
1953.000000	39.096228
1952.000000	39.019594
1951.000000	38.945185
1950.000000	38.934432
1949.000000	38.863093
1948.000000	38.890177
1947.000000	38.861782
1946.000000	38.846526
1945.000000	38.844853
1944.000000	38.859313
1943.000000	38.838038
1942.000000	38.834350
1941.000000	38.870068
1940.000000	38.969868
1939.000000	38.992399
1938.000000	39.028604
1937.000000	39.141415
1936.000000	39.295385
1935.000000	39.256460
1934.000000	39.376302
1933.000000	39.504736
1932.000000	39.594250
1931.000000	39.682498
1930.000000	39.858972
1929.000000	39.956172
1928.000000	40.121756
1927.000000	40.331045
1926.000000	40.505883
1925.000000	40.677147
1924.000000	40.883191
1923.000000	41.133601
1922.000000	41.343782
1921.000000	41.621078
1920.000000	41.905933
1919.000000	42.037713
1918.000000	42.314910
1917.000000	42.566016
1916.000000	42.773938
1915.000000	43.118898
1914.000000	43.459232
1913.000000	43.756566
1912.000000	43.975248
1911.000000	44.324808
1910.000000	44.628689
1909.000000	44.922157
1908.000000	45.252977
1907.000000	45.606906
1906.000000	45.970063
1905.000000	46.303645
1904.000000	46.596658
1903.000000	46.956269
1902.000000	47.381115
1901.000000	47.758919
1900.000000	48.090048
1899.000000	48.485837
1898.000000	48.891146
1897.000000	49.181976
1896.000000	49.489441
1895.000000	49.899058
1894.000000	50.171891
1893.000000	50.475631
1892.000000	50.900301
1891.000000	51.199015
1890.000000	51.506649
1889.000000	51.785676
1888.000000	52.037862
1887.000000	52.349512
1886.000000	52.652767
1885.000000	52.895597
1884.000000	53.125895
1883.000000	53.385412
1882.000000	53.628669
1881.000000	53.802206
1880.000000	54.050647
1879.000000	54.245183
1878.000000	54.429438
1877.000000	54.673293
1876.000000	54.808252
1875.000000	54.961910
1874.000000	55.144786
1873.000000	55.252071
1872.000000	55.383548
1871.000000	55.516659
1870.000000	55.607302
1869.000000	55.737252
1868.000000	55.793475
1867.000000	55.874542
1866.000000	55.961391
1865.000000	56.006508
1864.000000	56.062244
1863.000000	56.094513
1862.000000	56.178442
1861.000000	56.206225
1860.000000	56.242689
1859.000000	56.267635
1858.000000	56.289582
1857.000000	56.338330
1856.000000	56.377766
1855.000000	56.387531
1854.000000	56.412001
1853.000000	56.430954
1852.000000	56.423735
1851.000000	56.436130
1850.000000	56.462917
1849.000000	56.469926
1848.000000	56.465341
1847.000000	56.505697
1846.000000	56.497355
1845.000000	56.486135
1844.000000	56.458312
1843.000000	56.418394
1842.000000	56.426228
1841.000000	56.430066
1840.000000	56.415470
1839.000000	56.404557
1838.000000	56.383517
1837.000000	56.332565
1836.000000	56.299194
1835.000000	56.310081
1834.000000	56.270168
1833.000000	56.234032
1832.000000	56.247211
1831.000000	56.206711
1830.000000	56.179153
1829.000000	56.181820
1828.000000	56.129328
1827.000000	56.105115
1826.000000	56.074699
1825.000000	56.067425
1824.000000	56.071669
1823.000000	56.047656
1822.000000	56.009708
1821.000000	55.990527
1820.000000	55.967400
1819.000000	55.949621
1818.000000	55.931686
1817.000000	55.893500
1816.000000	55.889746
1815.000000	55.883080
1814.000000	55.840201
1813.000000	55.815808
1812.000000	55.808850
1811.000000	55.797197
1810.000000	55.800006
1809.000000	55.787805
1808.000000	55.758924
1807.000000	55.724421
1806.000000	55.720369
1805.000000	55.688751
1804.000000	55.659160
1803.000000	55.661628
1802.000000	55.644025
1801.000000	55.641749
1800.000000	55.638264
1799.000000	55.607355
1798.000000	55.596968
1797.000000	55.585409
1796.000000	55.573203
1795.000000	55.553633
1794.000000	55.554187
1793.000000	55.533451
1792.000000	55.514349
1791.000000	55.514364
1790.000000	55.501264
1789.000000	55.493529
1788.000000	55.489615
1787.000000	55.476236
1786.000000	55.469534
1785.000000	55.451001
1784.000000	55.418248
1783.000000	55.398321
1782.000000	55.381977
1781.000000	55.382201
1780.000000	55.372512
1779.000000	55.333603
1778.000000	55.291225
1777.000000	55.281693
1776.000000	55.277867
1775.000000	55.226615
1774.000000	55.177283
1773.000000	55.167909
1772.000000	55.113721
1771.000000	55.101303
1770.000000	55.072514
1769.000000	55.034477
1768.000000	55.016246
1767.000000	54.974728
1766.000000	54.953603
1765.000000	54.924604
1764.000000	54.924477
1763.000000	54.884334
1762.000000	54.857331
1761.000000	54.823122
1760.000000	54.779480
1759.000000	54.753375
1758.000000	54.735043
1757.000000	54.703616
1756.000000	54.666607
1755.000000	54.650572
1754.000000	54.609248
1753.000000	54.620713
1752.000000	54.603196
1751.000000	54.558897
1750.000000	54.500342
1749.000000	54.520343
1748.000000	54.471088
1747.000000	54.422547
1746.000000	54.389129
1745.000000	54.336513
1744.000000	54.323347
1743.000000	54.297697
1742.000000	54.248459
1741.000000	54.225660
1740.000000	54.185419
1739.000000	54.181849
1738.000000	54.163180
1737.000000	54.154883
1736.000000	54.136396
1735.000000	54.096991
1734.000000	54.095142
1733.000000	54.102401
1732.000000	54.104680
1731.000000	54.131937
1730.000000	54.120396
1729.000000	54.149025
1728.000000	54.195905
1727.000000	54.225755
1726.000000	54.259590
1725.000000	54.322450
1724.000000	54.366261
1723.000000	54.392905
1722.000000	54.448525
1721.000000	54.532126
1720.000000	54.599672
1719.000000	54.668103
1718.000000	54.712601
1717.000000	54.773403
1716.000000	54.817272
1715.000000	54.862282
1714.000000	54.920164
1713.000000	55.000947
1712.000000	55.034147
1711.000000	55.080716
1710.000000	55.162801
1709.000000	55.167943
1708.000000	55.192908
1707.000000	55.228492
1706.000000	55.276172
1705.000000	55.275187
1704.000000	55.300029
1703.000000	55.295799
1702.000000	55.352943
1701.000000	55.368570
1700.000000	55.360789
1699.000000	55.359546
1698.000000	55.391340
1697.000000	55.432366
1696.000000	55.465784
1695.000000	55.449777
1694.000000	55.449147
1693.000000	55.525602
1692.000000	55.522305
1691.000000	55.557184
1690.000000	55.624458
1689.000000	55.687205
1688.000000	55.739557
1687.000000	55.797686
1686.000000	55.856478
1685.000000	55.896337
1684.000000	55.984714
1683.000000	56.093758
1682.000000	56.197056
1681.000000	56.281455
1680.000000	56.358793
1679.000000	56.483223
1678.000000	56.585557
1677.000000	56.664258
1676.000000	56.769858
1675.000000	56.862386
1674.000000	56.939020
1673.000000	57.064395
1672.000000	57.152308
1671.000000	57.237074
1670.000000	57.335496
1669.000000	57.428548
1668.000000	57.537659
1667.000000	57.589090
1666.000000	57.635642
1665.000000	57.699500
1664.000000	57.742728
1663.000000	57.807061
1662.000000	57.843176
1661.000000	57.899139
1660.000000	57.930822
1659.000000	57.969191
1658.000000	58.005581
1657.000000	58.019674
1656.000000	58.046780
1655.000000	58.067944
1654.000000	58.087216
1653.000000	58.112626
1652.000000	58.101229
1651.000000	58.112143
1650.000000	58.130154
1649.000000	58.135898
1648.000000	58.102671
1647.000000	58.123491
1646.000000	58.117772
1645.000000	58.113973
1644.000000	58.103618
1643.000000	58.089277
1642.000000	58.079340
1641.000000	58.063853
1640.000000	58.049837
1639.000000	58.026005
1638.000000	58.026498
1637.000000	58.039821
1636.000000	57.998960
1635.000000	57.984293
1634.000000	57.977359
1633.000000	57.932114
1632.000000	57.917557
1631.000000	57.920902
1630.000000	57.891118
1629.000000	57.863347
1628.000000	57.849935
1627.000000	57.831698
1626.000000	57.818623
1625.000000	57.794478
1624.000000	57.766255
1623.000000	57.746151
1622.000000	57.724142
1621.000000	57.693681
1620.000000	57.657341
1619.000000	57.616669
1618.000000	57.585695
1617.000000	57.556741
1616.000000	57.527051
1615.000000	57.487520
1614.000000	57.469090
1613.000000	57.442891
1612.000000	57.429131
1611.000000	57.405735
1610.000000	57.367956
1609.000000	57.324919
1608.000000	57.285732
1607.000000	57.255927
1606.000000	57.215614
1605.000000	57.190743
1604.000000	57.161879
1603.000000	57.134603
1602.000000	57.098432
1601.000000	57.056498
1600.000000	57.024231
1599.000000	56.989148
1598.000000	56.945036
1597.000000	56.916270
1596.000000	56.895896
1595.000000	56.871369
1594.000000	56.852285
1593.000000	56.823963
1592.000000	56.791230
1591.000000	56.761691
1590.000000	56.728936
1589.000000	56.688655
1588.000000	56.669481
1587.000000	56.657787
1586.000000	56.639972
1585.000000	56.616955
1584.000000	56.582372
1583.000000	56.554655
1582.000000	56.532413
1581.000000	56.515735
1580.000000	56.492540
1579.000000	56.468016
1578.000000	56.454600
1577.000000	56.432706
1576.000000	56.391943
1575.000000	56.365454
1574.000000	56.349629
1573.000000	56.324476
1572.000000	56.301883
1571.000000	56.278426
1570.000000	56.265446
1569.000000	56.234286
1568.000000	56.206912
1567.000000	56.203321
1566.000000	56.173263
1565.000000	56.160982
1564.000000	56.148972
1563.000000	56.140242
1562.000000	56.124399
1561.000000	56.094909
1560.000000	56.088202
1559.000000	56.066087
1558.000000	56.069359
1557.000000	56.056127
1556.000000	56.039164
1555.000000	56.032133
1554.000000	56.023466
1553.000000	56.002144
1552.000000	55.969815
1551.000000	55.952997
1550.000000	55.964668
1549.000000	55.953325
1548.000000	55.920043
1547.000000	55.869712
1546.000000	55.840052
1545.000000	55.816992
1544.000000	55.777321
1543.000000	55.738647
1542.000000	55.693160
1541.000000	55.652123
1540.000000	55.611566
1539.000000	55.560764
1538.000000	55.515921
1537.000000	55.456513
1536.000000	55.413207
1535.000000	55.368011
1534.000000	55.312999
1533.000000	55.279807
1532.000000	55.219701
1531.000000	55.158613
1530.000000	55.117562
1529.000000	55.079619
1528.000000	55.036409
1527.000000	54.985882
1526.000000	54.945965
1525.000000	54.920091
1524.000000	54.892082
1523.000000	54.858283
1522.000000	54.829753
1521.000000	54.777230
1520.000000	54.773327
1519.000000	54.726147
1518.000000	54.692714
1517.000000	54.695784
1516.000000	54.663492
1515.000000	54.635970
1514.000000	54.642821
1513.000000	54.675910
1512.000000	54.708372
1511.000000	54.708892
1510.000000	54.700090
1509.000000	54.668161
1508.000000	54.648806
1507.000000	54.623281
1506.000000	54.597402
1505.000000	54.588503
1504.000000	54.566550
1503.000000	54.564027
1502.000000	54.556535
1501.000000	54.542532
1500.000000	54.539720
1499.000000	54.547692
1498.000000	54.536947
1497.000000	54.547498
1496.000000	54.550818
1495.000000	54.544909
1494.000000	54.557957
1493.000000	54.585120
1492.000000	54.596877
1491.000000	54.615295
1490.000000	54.640118
1489.000000	54.641112
1488.000000	54.663571
1487.000000	54.698819
1486.000000	54.717754
1485.000000	54.752329
1484.000000	54.762009
1483.000000	54.827266
1482.000000	54.855845
1481.000000	54.865390
1480.000000	54.928754
1479.000000	54.922630
1478.000000	54.973734
1477.000000	55.009269
1476.000000	55.040520
1475.000000	55.074432
1474.000000	55.092313
1473.000000	55.136940
1472.000000	55.154157
1471.000000	55.195322
1470.000000	55.219715
