PE UV       SUBTECH     SPECTRUM    ASCII       PEDS        4.00        
   -1
TDmsopph192.Sample.asc
18/03/21
09:17:52.00
18/03/21
09:17:52.00
Administrator

200.000000
1
Lambda 750
750N8071901
PerkinElmer UV WinLab 6.0.4.0738 / 1.61.00 Lambda 900

0
0
3350/servo 860.8/2
0
0
UV/VIS
1
1
1
CommonBeamDepol,150mm sphere / downward view
0
0
0
0
Program
Program
3350/servo 860.8/2
3350/0.2 860.8/0.2
3350/0.2 860.8/0.2
0
1
 
 
 
0
 
860.8
319.2
860.8
Front
100
on
 
 
0
0
0
 
0
 
 
 
0
 
 
0
0
0
0
0
 
 
 
 
0
0


0
0
#HDR
-1
-1
#GR
nm
%T
1.0
0.0
2350.000000
-1.000000
2151
8
12.194788
-0.013090
#DATA
2350.000000	2.738805
2349.000000	2.967666
2348.000000	2.679106
2347.000000	3.182859
2346.000000	2.542399
2345.000000	2.484739
2344.000000	2.690987
2343.000000	2.715109
2342.000000	2.844839
2341.000000	3.126128
2340.000000	3.278270
2339.000000	3.560461
2338.000000	3.609916
2337.000000	3.823737
2336.000000	3.778876
2335.000000	3.849309
2334.000000	3.817365
2333.000000	4.231100
2332.000000	4.048896
2331.000000	3.839570
2330.000000	3.873646
2329.000000	3.673510
2328.000000	3.739983
2327.000000	3.232648
2326.000000	3.784963
2325.000000	3.495937
2324.000000	3.548062
2323.000000	3.406081
2322.000000	3.709090
2321.000000	3.546337
2320.000000	3.632341
2319.000000	3.563596
2318.000000	3.633164
2317.000000	3.597388
2316.000000	3.485203
2315.000000	3.363425
2314.000000	3.587442
2313.000000	3.390239
2312.000000	3.588378
2311.000000	3.435061
2310.000000	3.141671
2309.000000	3.187718
2308.000000	3.264256
2307.000000	3.348886
2306.000000	3.460325
2305.000000	3.414246
2304.000000	3.324750
2303.000000	3.231682
2302.000000	3.305810
2301.000000	3.207995
2300.000000	3.021162
2299.000000	2.938658
2298.000000	3.077765
2297.000000	2.850661
2296.000000	2.868601
2295.000000	3.055686
2294.000000	2.895164
2293.000000	2.674896
2292.000000	2.808564
2291.000000	2.920332
2290.000000	3.093892
2289.000000	2.951183
2288.000000	2.811273
2287.000000	2.925556
2286.000000	2.925130
2285.000000	2.705301
2284.000000	2.788774
2283.000000	2.763088
2282.000000	2.947394
2281.000000	3.011701
2280.000000	3.055628
2279.000000	2.917637
2278.000000	2.969215
2277.000000	2.933974
2276.000000	2.869981
2275.000000	2.927118
2274.000000	2.928827
2273.000000	3.046638
2272.000000	3.136369
2271.000000	3.098024
2270.000000	3.054757
2269.000000	2.989200
2268.000000	2.973899
2267.000000	3.073906
2266.000000	3.155621
2265.000000	3.076728
2264.000000	3.028383
2263.000000	3.082148
2262.000000	3.174469
2261.000000	3.176198
2260.000000	3.268728
2259.000000	3.334335
2258.000000	3.427154
2257.000000	3.530632
2256.000000	3.541890
2255.000000	3.459756
2254.000000	3.432374
2253.000000	3.531699
2252.000000	3.659289
2251.000000	3.791606
2250.000000	3.816550
2249.000000	3.716893
2248.000000	3.809500
2247.000000	3.933268
2246.000000	3.989265
2245.000000	3.918379
2244.000000	3.920982
2243.000000	4.003278
2242.000000	4.041400
2241.000000	4.115471
2240.000000	4.201858
2239.000000	4.173559
2238.000000	4.042876
2237.000000	4.145162
2236.000000	4.285550
2235.000000	4.225285
2234.000000	4.249886
2233.000000	4.347782
2232.000000	4.368477
2231.000000	4.414266
2230.000000	4.475883
2229.000000	4.422048
2228.000000	4.348973
2227.000000	4.349096
2226.000000	4.406093
2225.000000	4.431614
2224.000000	4.337795
2223.000000	4.428148
2222.000000	4.412459
2221.000000	4.396412
2220.000000	4.409945
2219.000000	4.305027
2218.000000	4.340464
2217.000000	4.419921
2216.000000	4.474208
2215.000000	4.410502
2214.000000	4.385132
2213.000000	4.475674
2212.000000	4.320788
2211.000000	4.172641
2210.000000	4.140182
2209.000000	4.173892
2208.000000	4.084975
2207.000000	4.128930
2206.000000	4.159185
2205.000000	4.142245
2204.000000	4.103559
2203.000000	4.073284
2202.000000	4.033413
2201.000000	3.935060
2200.000000	3.861541
2199.000000	4.006802
2198.000000	4.087656
2197.000000	4.056260
2196.000000	3.976293
2195.000000	3.884303
2194.000000	3.702971
2193.000000	3.781213
2192.000000	3.799053
2191.000000	3.696389
2190.000000	3.799711
2189.000000	3.793284
2188.000000	3.678626
2187.000000	3.745007
2186.000000	3.701559
2185.000000	3.648156
2184.000000	3.668063
2183.000000	3.738004
2182.000000	3.674745
2181.000000	3.737440
2180.000000	3.604331
2179.000000	3.621850
2178.000000	3.558476
2177.000000	3.672093
2176.000000	3.611468
2175.000000	3.712020
2174.000000	3.638979
2173.000000	3.655366
2172.000000	3.737839
2171.000000	3.665543
2170.000000	3.673461
2169.000000	3.763078
2168.000000	3.758597
2167.000000	3.743172
2166.000000	3.679095
2165.000000	3.908805
2164.000000	3.778172
2163.000000	3.938013
2162.000000	3.952271
2161.000000	3.800344
2160.000000	3.778084
2159.000000	3.995083
2158.000000	4.006500
2157.000000	4.005696
2156.000000	4.133614
2155.000000	4.114228
2154.000000	4.256084
2153.000000	4.307172
2152.000000	4.136023
2151.000000	4.159731
2150.000000	4.258710
2149.000000	4.241878
2148.000000	4.286293
2147.000000	4.251752
2146.000000	4.367146
2145.000000	4.402870
2144.000000	4.489502
2143.000000	4.372908
2142.000000	4.459459
2141.000000	4.494239
2140.000000	4.517645
2139.000000	4.455008
2138.000000	4.539989
2137.000000	4.824660
2136.000000	4.647329
2135.000000	4.797094
2134.000000	4.555066
2133.000000	4.364114
2132.000000	4.827712
2131.000000	4.961509
2130.000000	4.593469
2129.000000	4.805377
2128.000000	4.752811
2127.000000	4.492537
2126.000000	4.678237
2125.000000	4.801161
2124.000000	4.642547
2123.000000	4.703173
2122.000000	4.841786
2121.000000	4.875313
2120.000000	4.677495
2119.000000	4.770188
2118.000000	4.769373
2117.000000	4.761929
2116.000000	4.925975
2115.000000	4.824946
2114.000000	4.867645
2113.000000	4.914524
2112.000000	4.876011
2111.000000	5.008666
2110.000000	4.900317
2109.000000	4.859702
2108.000000	4.871944
2107.000000	4.896635
2106.000000	4.840699
2105.000000	4.789235
2104.000000	4.975127
2103.000000	4.939493
2102.000000	4.843190
2101.000000	4.923914
2100.000000	4.944427
2099.000000	4.930996
2098.000000	5.026964
2097.000000	4.959968
2096.000000	4.892299
2095.000000	4.965413
2094.000000	4.934123
2093.000000	4.775102
2092.000000	4.763486
2091.000000	4.841227
2090.000000	4.838491
2089.000000	4.983265
2088.000000	4.932146
2087.000000	4.899644
2086.000000	4.856908
2085.000000	4.874269
2084.000000	4.909037
2083.000000	4.787034
2082.000000	4.804127
2081.000000	4.821846
2080.000000	4.722358
2079.000000	4.724818
2078.000000	4.645157
2077.000000	4.690797
2076.000000	4.694826
2075.000000	4.626345
2074.000000	4.567982
2073.000000	4.588894
2072.000000	4.558963
2071.000000	4.583728
2070.000000	4.567841
2069.000000	4.484395
2068.000000	4.416218
2067.000000	4.344443
2066.000000	4.314995
2065.000000	4.267670
2064.000000	4.214083
2063.000000	4.162205
2062.000000	4.104535
2061.000000	4.038332
2060.000000	4.002300
2059.000000	3.955475
2058.000000	3.940368
2057.000000	3.972964
2056.000000	3.950872
2055.000000	3.923959
2054.000000	3.900749
2053.000000	3.757037
2052.000000	3.663560
2051.000000	3.668810
2050.000000	3.614338
2049.000000	3.587070
2048.000000	3.578972
2047.000000	3.559390
2046.000000	3.545042
2045.000000	3.488384
2044.000000	3.518563
2043.000000	3.551117
2042.000000	3.522874
2041.000000	3.571157
2040.000000	3.573726
2039.000000	3.499123
2038.000000	3.503933
2037.000000	3.560402
2036.000000	3.590825
2035.000000	3.597970
2034.000000	3.618315
2033.000000	3.622796
2032.000000	3.668805
2031.000000	3.716485
2030.000000	3.704967
2029.000000	3.744352
2028.000000	3.814003
2027.000000	3.875264
2026.000000	3.902638
2025.000000	3.916987
2024.000000	3.920505
2023.000000	3.883342
2022.000000	3.902918
2021.000000	3.899439
2020.000000	3.917073
2019.000000	3.939213
2018.000000	3.912346
2017.000000	3.915723
2016.000000	3.899456
2015.000000	3.887990
2014.000000	3.930547
2013.000000	3.957531
2012.000000	3.974952
2011.000000	3.951795
2010.000000	3.899180
2009.000000	3.888412
2008.000000	3.865606
2007.000000	3.823651
2006.000000	3.853897
2005.000000	3.835611
2004.000000	3.769573
2003.000000	3.745177
2002.000000	3.747959
2001.000000	3.706559
2000.000000	3.687341
1999.000000	3.643045
1998.000000	3.579174
1997.000000	3.585285
1996.000000	3.579004
1995.000000	3.562224
1994.000000	3.558852
1993.000000	3.530265
1992.000000	3.485105
1991.000000	3.436531
1990.000000	3.425113
1989.000000	3.381401
1988.000000	3.332258
1987.000000	3.332808
1986.000000	3.342653
1985.000000	3.301590
1984.000000	3.281439
1983.000000	3.252994
1982.000000	3.262478
1981.000000	3.269158
1980.000000	3.217779
1979.000000	3.195836
1978.000000	3.149894
1977.000000	3.183078
1976.000000	3.166128
1975.000000	3.107053
1974.000000	3.050335
1973.000000	3.031287
1972.000000	3.047073
1971.000000	3.031145
1970.000000	3.012223
1969.000000	3.006855
1968.000000	2.993836
1967.000000	2.983632
1966.000000	2.982197
1965.000000	2.892150
1964.000000	2.875318
1963.000000	2.863977
1962.000000	2.855618
1961.000000	2.841726
1960.000000	2.838331
1959.000000	2.825169
1958.000000	2.831333
1957.000000	2.823095
1956.000000	2.791889
1955.000000	2.793124
1954.000000	2.784462
1953.000000	2.789055
1952.000000	2.791365
1951.000000	2.775455
1950.000000	2.767346
1949.000000	2.777018
1948.000000	2.750195
1947.000000	2.785737
1946.000000	2.757105
1945.000000	2.714237
1944.000000	2.737442
1943.000000	2.797798
1942.000000	2.795660
1941.000000	2.827524
1940.000000	2.837047
1939.000000	2.861043
1938.000000	2.827930
1937.000000	2.805746
1936.000000	2.870705
1935.000000	2.951520
1934.000000	2.948086
1933.000000	2.928374
1932.000000	2.989509
1931.000000	2.991825
1930.000000	2.980209
1929.000000	2.983015
1928.000000	3.175235
1927.000000	3.150585
1926.000000	3.218279
1925.000000	3.275869
1924.000000	3.354649
1923.000000	3.338490
1922.000000	3.391606
1921.000000	3.463989
1920.000000	3.606664
1919.000000	3.646875
1918.000000	3.669949
1917.000000	3.685169
1916.000000	3.755517
1915.000000	3.958023
1914.000000	4.048111
1913.000000	4.207128
1912.000000	4.205505
1911.000000	4.337089
1910.000000	4.417152
1909.000000	4.482972
1908.000000	4.666548
1907.000000	4.725106
1906.000000	4.972343
1905.000000	5.007142
1904.000000	5.084799
1903.000000	5.334531
1902.000000	5.422880
1901.000000	5.612766
1900.000000	5.782293
1899.000000	5.943352
1898.000000	6.132176
1897.000000	6.222126
1896.000000	6.322879
1895.000000	6.573085
1894.000000	6.665115
1893.000000	6.804907
1892.000000	7.023485
1891.000000	7.104993
1890.000000	7.315134
1889.000000	7.480369
1888.000000	7.604495
1887.000000	7.805449
1886.000000	7.926912
1885.000000	8.029405
1884.000000	8.210758
1883.000000	8.369742
1882.000000	8.467064
1881.000000	8.620756
1880.000000	8.715037
1879.000000	8.775178
1878.000000	8.868617
1877.000000	9.010916
1876.000000	9.142575
1875.000000	9.171246
1874.000000	9.260188
1873.000000	9.357794
1872.000000	9.430732
1871.000000	9.507922
1870.000000	9.522505
1869.000000	9.614046
1868.000000	9.726069
1867.000000	9.696543
1866.000000	9.715356
1865.000000	9.735302
1864.000000	9.768300
1863.000000	9.778588
1862.000000	9.795201
1861.000000	9.811691
1860.000000	9.862927
1859.000000	9.895737
1858.000000	9.850385
1857.000000	9.862998
1856.000000	9.872109
1855.000000	9.903622
1854.000000	9.909626
1853.000000	9.885521
1852.000000	9.931577
1851.000000	9.956516
1850.000000	9.964623
1849.000000	9.939953
1848.000000	9.918562
1847.000000	9.936758
1846.000000	9.942252
1845.000000	9.932655
1844.000000	9.895704
1843.000000	9.893931
1842.000000	9.880913
1841.000000	9.869536
1840.000000	9.852798
1839.000000	9.853141
1838.000000	9.834514
1837.000000	9.789752
1836.000000	9.797990
1835.000000	9.776693
1834.000000	9.737208
1833.000000	9.730647
1832.000000	9.696011
1831.000000	9.670657
1830.000000	9.655870
1829.000000	9.644168
1828.000000	9.642170
1827.000000	9.605230
1826.000000	9.577265
1825.000000	9.563508
1824.000000	9.559497
1823.000000	9.525881
1822.000000	9.495782
1821.000000	9.477357
1820.000000	9.458175
1819.000000	9.449332
1818.000000	9.446537
1817.000000	9.420405
1816.000000	9.403920
1815.000000	9.409347
1814.000000	9.380591
1813.000000	9.364109
1812.000000	9.359415
1811.000000	9.356744
1810.000000	9.343077
1809.000000	9.312148
1808.000000	9.268117
1807.000000	9.237907
1806.000000	9.249348
1805.000000	9.241720
1804.000000	9.208043
1803.000000	9.210566
1802.000000	9.228717
1801.000000	9.199621
1800.000000	9.160811
1799.000000	9.176042
1798.000000	9.175639
1797.000000	9.158808
1796.000000	9.158983
1795.000000	9.172167
1794.000000	9.175553
1793.000000	9.153405
1792.000000	9.152737
1791.000000	9.144178
1790.000000	9.125620
1789.000000	9.133308
1788.000000	9.134594
1787.000000	9.115942
1786.000000	9.103039
1785.000000	9.080826
1784.000000	9.093122
1783.000000	9.097750
1782.000000	9.089845
1781.000000	9.085669
1780.000000	9.069624
1779.000000	9.057831
1778.000000	9.026094
1777.000000	8.995533
1776.000000	8.985105
1775.000000	8.947590
1774.000000	8.936097
1773.000000	8.935423
1772.000000	8.925084
1771.000000	8.866896
1770.000000	8.854194
1769.000000	8.844343
1768.000000	8.817441
1767.000000	8.788377
1766.000000	8.764537
1765.000000	8.743085
1764.000000	8.678428
1763.000000	8.662527
1762.000000	8.627174
1761.000000	8.624734
1760.000000	8.592269
1759.000000	8.586910
1758.000000	8.570026
1757.000000	8.562342
1756.000000	8.547783
1755.000000	8.530657
1754.000000	8.513712
1753.000000	8.485161
1752.000000	8.451480
1751.000000	8.431324
1750.000000	8.439083
1749.000000	8.417279
1748.000000	8.368543
1747.000000	8.329914
1746.000000	8.298745
1745.000000	8.255052
1744.000000	8.250104
1743.000000	8.239441
1742.000000	8.228660
1741.000000	8.227649
1740.000000	8.171006
1739.000000	8.179631
1738.000000	8.161954
1737.000000	8.118585
1736.000000	8.112319
1735.000000	8.141555
1734.000000	8.161176
1733.000000	8.118170
1732.000000	8.102151
1731.000000	8.129672
1730.000000	8.112404
1729.000000	8.123657
1728.000000	8.122735
1727.000000	8.146361
1726.000000	8.135624
1725.000000	8.207054
1724.000000	8.197284
1723.000000	8.245668
1722.000000	8.288640
1721.000000	8.330372
1720.000000	8.344363
1719.000000	8.360554
1718.000000	8.397461
1717.000000	8.454780
1716.000000	8.436450
1715.000000	8.472680
1714.000000	8.504800
1713.000000	8.511526
1712.000000	8.524056
1711.000000	8.607403
1710.000000	8.602650
1709.000000	8.607454
1708.000000	8.625244
1707.000000	8.641082
1706.000000	8.657394
1705.000000	8.675593
1704.000000	8.687700
1703.000000	8.660246
1702.000000	8.671324
1701.000000	8.687074
1700.000000	8.650880
1699.000000	8.661783
1698.000000	8.707451
1697.000000	8.697303
1696.000000	8.693298
1695.000000	8.739292
1694.000000	8.704692
1693.000000	8.740297
1692.000000	8.735752
1691.000000	8.787092
1690.000000	8.801410
1689.000000	8.836790
1688.000000	8.860924
1687.000000	8.885677
1686.000000	8.932205
1685.000000	8.963218
1684.000000	9.035802
1683.000000	9.102928
1682.000000	9.165494
1681.000000	9.246482
1680.000000	9.281697
1679.000000	9.363932
1678.000000	9.419034
1677.000000	9.486574
1676.000000	9.542570
1675.000000	9.577723
1674.000000	9.626559
1673.000000	9.701953
1672.000000	9.769959
1671.000000	9.834402
1670.000000	9.874413
1669.000000	9.944243
1668.000000	9.968668
1667.000000	10.030723
1666.000000	10.044858
1665.000000	10.046804
1664.000000	10.069834
1663.000000	10.113212
1662.000000	10.138647
1661.000000	10.177205
1660.000000	10.186568
1659.000000	10.211217
1658.000000	10.249211
1657.000000	10.258820
1656.000000	10.267929
1655.000000	10.280228
1654.000000	10.293449
1653.000000	10.316783
1652.000000	10.322019
1651.000000	10.312893
1650.000000	10.301719
1649.000000	10.293405
1648.000000	10.285930
1647.000000	10.279358
1646.000000	10.284573
1645.000000	10.271229
1644.000000	10.259157
1643.000000	10.235456
1642.000000	10.223976
1641.000000	10.227272
1640.000000	10.200773
1639.000000	10.188526
1638.000000	10.177429
1637.000000	10.169479
1636.000000	10.131939
1635.000000	10.132855
1634.000000	10.108934
1633.000000	10.083822
1632.000000	10.051658
1631.000000	10.034862
1630.000000	10.025115
1629.000000	10.004862
1628.000000	9.990650
1627.000000	9.966580
1626.000000	9.933791
1625.000000	9.937354
1624.000000	9.908425
1623.000000	9.899541
1622.000000	9.889519
1621.000000	9.858430
1620.000000	9.828679
1619.000000	9.806106
1618.000000	9.790616
1617.000000	9.765771
1616.000000	9.742020
1615.000000	9.720239
1614.000000	9.708779
1613.000000	9.678108
1612.000000	9.647372
1611.000000	9.624688
1610.000000	9.603793
1609.000000	9.570427
1608.000000	9.552419
1607.000000	9.538331
1606.000000	9.496317
1605.000000	9.470159
1604.000000	9.446466
1603.000000	9.420880
1602.000000	9.397539
1601.000000	9.372826
1600.000000	9.346994
1599.000000	9.328696
1598.000000	9.311716
1597.000000	9.291116
1596.000000	9.267685
1595.000000	9.240992
1594.000000	9.209679
1593.000000	9.195912
1592.000000	9.179088
1591.000000	9.157717
1590.000000	9.136422
1589.000000	9.112092
1588.000000	9.087673
1587.000000	9.059940
1586.000000	9.037420
1585.000000	9.028526
1584.000000	9.020738
1583.000000	9.004915
1582.000000	8.990344
1581.000000	8.971199
1580.000000	8.948134
1579.000000	8.925760
1578.000000	8.918119
1577.000000	8.903741
1576.000000	8.879140
1575.000000	8.859410
1574.000000	8.846387
1573.000000	8.818723
1572.000000	8.807442
1571.000000	8.784936
1570.000000	8.762105
1569.000000	8.740877
1568.000000	8.728067
1567.000000	8.714121
1566.000000	8.690179
1565.000000	8.688118
1564.000000	8.686429
1563.000000	8.673339
1562.000000	8.646922
1561.000000	8.637629
1560.000000	8.631919
1559.000000	8.615617
1558.000000	8.602713
1557.000000	8.596560
1556.000000	8.581199
1555.000000	8.570354
1554.000000	8.551535
1553.000000	8.537110
1552.000000	8.523631
1551.000000	8.509176
1550.000000	8.503058
1549.000000	8.493899
1548.000000	8.474083
1547.000000	8.437479
1546.000000	8.398941
1545.000000	8.385764
1544.000000	8.354492
1543.000000	8.313735
1542.000000	8.276292
1541.000000	8.248555
1540.000000	8.225593
1539.000000	8.190844
1538.000000	8.157272
1537.000000	8.106311
1536.000000	8.082751
1535.000000	8.055398
1534.000000	8.019599
1533.000000	7.972859
1532.000000	7.947778
1531.000000	7.904758
1530.000000	7.865381
1529.000000	7.846276
1528.000000	7.809678
1527.000000	7.787247
1526.000000	7.756643
1525.000000	7.740223
1524.000000	7.728339
1523.000000	7.699444
1522.000000	7.679172
1521.000000	7.667610
1520.000000	7.635533
1519.000000	7.630337
1518.000000	7.624929
1517.000000	7.605918
1516.000000	7.589871
1515.000000	7.574215
1514.000000	7.560496
1513.000000	7.556253
1512.000000	7.553758
1511.000000	7.533108
1510.000000	7.529643
1509.000000	7.533841
1508.000000	7.524143
1507.000000	7.523195
1506.000000	7.494256
1505.000000	7.501190
1504.000000	7.479990
1503.000000	7.475429
1502.000000	7.477717
1501.000000	7.480866
1500.000000	7.472842
1499.000000	7.461800
1498.000000	7.476047
1497.000000	7.514806
1496.000000	7.536142
1495.000000	7.543385
1494.000000	7.551753
1493.000000	7.537678
1492.000000	7.538198
1491.000000	7.537655
1490.000000	7.553352
1489.000000	7.556509
1488.000000	7.571500
1487.000000	7.571692
1486.000000	7.572653
1485.000000	7.578624
1484.000000	7.602230
1483.000000	7.614632
1482.000000	7.653512
1481.000000	7.656014
1480.000000	7.688091
1479.000000	7.677011
1478.000000	7.696500
1477.000000	7.707139
1476.000000	7.726070
1475.000000	7.739803
1474.000000	7.749857
1473.000000	7.768149
1472.000000	7.768247
1471.000000	7.777272
1470.000000	7.799804
1469.000000	7.812349
1468.000000	7.829506
1467.000000	7.877048
1466.000000	7.896671
1465.000000	7.898339
1464.000000	7.895293
1463.000000	7.907884
1462.000000	7.949965
1461.000000	7.973118
1460.000000	7.969383
1459.000000	7.972076
1458.000000	8.009287
1457.000000	8.050090
1456.000000	8.040552
1455.000000	8.041678
1454.000000	8.057439
1453.000000	8.098139
1452.000000	8.118205
1451.000000	8.121207
1450.000000	8.142973
1449.000000	8.152025
1448.000000	8.196500
1447.000000	8.236881
1446.000000	8.244768
1445.000000	8.266457
1444.000000	8.274808
1443.000000	8.303739
1442.000000	8.357572
1441.000000	8.373536
1440.000000	8.394896
1439.000000	8.426268
1438.000000	8.449381
1437.000000	8.494077
1436.000000	8.514901
1435.000000	8.528054
1434.000000	8.575724
1433.000000	8.619123
1432.000000	8.663856
1431.000000	8.697447
1430.000000	8.739388
1429.000000	8.790747
