PE UV       SUBTECH     SPECTRUM    ASCII       PEDS        4.00        
   -1
TDms1556132.Sample.asc
18/03/21
11:07:32.00
18/03/21
11:07:32.00
Administrator

200.000000
1
Lambda 750
750N8071901
PerkinElmer UV WinLab 6.0.4.0738 / 1.61.00 Lambda 900

0
0
3350/servo 860.8/2
0
0
UV/VIS
1
1
1
CommonBeamDepol,150mm sphere / downward view
0
0
0
0
Program
Program
3350/servo 860.8/2
3350/0.2 860.8/0.2
3350/0.2 860.8/0.2
0
1
 
 
 
0
 
860.8
319.2
860.8
Front
100
on
 
 
0
0
0
 
0
 
 
 
0
 
 
0
0
0
0
0
 
 
 
 
0
0


0
0
#HDR
-1
-1
#GR
nm
%T
1.0
0.0
2350.000000
-1.000000
2151
8
12.730688
-0.016319
#DATA
2350.000000	5.556217
2349.000000	5.927118
2348.000000	5.947505
2347.000000	6.809984
2346.000000	5.973927
2345.000000	6.017034
2344.000000	5.762121
2343.000000	5.832491
2342.000000	6.189039
2341.000000	5.859373
2340.000000	5.879779
2339.000000	6.605803
2338.000000	6.835065
2337.000000	6.918580
2336.000000	6.792757
2335.000000	6.414942
2334.000000	6.660940
2333.000000	6.704870
2332.000000	6.975790
2331.000000	6.779042
2330.000000	6.772276
2329.000000	6.711667
2328.000000	6.872086
2327.000000	6.754124
2326.000000	6.833135
2325.000000	6.799688
2324.000000	6.437996
2323.000000	6.469393
2322.000000	6.650562
2321.000000	6.359924
2320.000000	6.212803
2319.000000	6.496676
2318.000000	6.714242
2317.000000	6.594838
2316.000000	6.454756
2315.000000	6.245001
2314.000000	6.149813
2313.000000	6.247892
2312.000000	6.257615
2311.000000	6.268247
2310.000000	6.391437
2309.000000	5.981783
2308.000000	5.989800
2307.000000	5.961493
2306.000000	6.103522
2305.000000	6.000475
2304.000000	6.132241
2303.000000	6.045847
2302.000000	6.247878
2301.000000	6.076656
2300.000000	6.123805
2299.000000	6.041771
2298.000000	6.054606
2297.000000	5.934385
2296.000000	5.801248
2295.000000	5.931579
2294.000000	5.991889
2293.000000	5.961894
2292.000000	5.825756
2291.000000	5.580681
2290.000000	5.461950
2289.000000	5.471590
2288.000000	5.806356
2287.000000	5.879518
2286.000000	5.689537
2285.000000	5.582292
2284.000000	5.662404
2283.000000	5.779940
2282.000000	5.699832
2281.000000	5.861055
2280.000000	5.832750
2279.000000	5.707501
2278.000000	5.603526
2277.000000	5.742612
2276.000000	5.815575
2275.000000	5.708636
2274.000000	5.744187
2273.000000	5.829533
2272.000000	5.979813
2271.000000	5.799355
2270.000000	5.673686
2269.000000	5.801400
2268.000000	6.014409
2267.000000	6.005283
2266.000000	5.933867
2265.000000	5.938670
2264.000000	5.952356
2263.000000	5.875849
2262.000000	6.004993
2261.000000	6.137212
2260.000000	6.238749
2259.000000	6.400742
2258.000000	6.467977
2257.000000	6.433896
2256.000000	6.330480
2255.000000	6.420997
2254.000000	6.571506
2253.000000	6.550623
2252.000000	6.501462
2251.000000	6.548815
2250.000000	6.683936
2249.000000	6.801722
2248.000000	6.839910
2247.000000	6.927003
2246.000000	6.973272
2245.000000	7.111177
2244.000000	7.203248
2243.000000	7.177033
2242.000000	7.235399
2241.000000	7.250904
2240.000000	7.236956
2239.000000	7.370563
2238.000000	7.393602
2237.000000	7.359958
2236.000000	7.333190
2235.000000	7.349456
2234.000000	7.456564
2233.000000	7.518824
2232.000000	7.547289
2231.000000	7.575665
2230.000000	7.512684
2229.000000	7.455985
2228.000000	7.448323
2227.000000	7.560510
2226.000000	7.579935
2225.000000	7.514701
2224.000000	7.558826
2223.000000	7.528918
2222.000000	7.620339
2221.000000	7.543147
2220.000000	7.520071
2219.000000	7.443031
2218.000000	7.353174
2217.000000	7.432439
2216.000000	7.511151
2215.000000	7.408977
2214.000000	7.327824
2213.000000	7.574061
2212.000000	7.604396
2211.000000	7.382255
2210.000000	7.356419
2209.000000	7.318143
2208.000000	7.228208
2207.000000	7.164005
2206.000000	7.188968
2205.000000	7.185215
2204.000000	7.192040
2203.000000	7.061469
2202.000000	7.015960
2201.000000	7.030778
2200.000000	7.132555
2199.000000	7.049014
2198.000000	7.005411
2197.000000	6.948522
2196.000000	6.975083
2195.000000	7.012348
2194.000000	6.927800
2193.000000	6.730664
2192.000000	6.868046
2191.000000	6.796747
2190.000000	6.814188
2189.000000	6.730219
2188.000000	6.723304
2187.000000	6.808053
2186.000000	6.727107
2185.000000	6.718058
2184.000000	6.683517
2183.000000	6.722629
2182.000000	6.866029
2181.000000	6.633850
2180.000000	6.605999
2179.000000	6.658891
2178.000000	6.546034
2177.000000	6.659645
2176.000000	6.603486
2175.000000	6.701577
2174.000000	6.778230
2173.000000	6.665245
2172.000000	6.785218
2171.000000	6.807524
2170.000000	6.753997
2169.000000	6.818469
2168.000000	6.913018
2167.000000	6.844204
2166.000000	6.790442
2165.000000	6.847278
2164.000000	6.705770
2163.000000	6.714430
2162.000000	6.771128
2161.000000	6.828638
2160.000000	7.028098
2159.000000	6.971294
2158.000000	6.852440
2157.000000	7.192183
2156.000000	7.072163
2155.000000	7.143246
2154.000000	7.294701
2153.000000	7.386508
2152.000000	7.309776
2151.000000	7.350422
2150.000000	7.225607
2149.000000	7.554389
2148.000000	7.402128
2147.000000	7.408917
2146.000000	7.385037
2145.000000	7.474235
2144.000000	7.530177
2143.000000	7.487482
2142.000000	7.800573
2141.000000	7.669993
2140.000000	7.805333
2139.000000	7.845604
2138.000000	7.833117
2137.000000	7.884159
2136.000000	7.778987
2135.000000	7.887650
2134.000000	7.940682
2133.000000	7.745664
2132.000000	7.787026
2131.000000	8.056335
2130.000000	7.958834
2129.000000	7.963710
2128.000000	7.969911
2127.000000	7.858229
2126.000000	7.945643
2125.000000	8.020269
2124.000000	8.016664
2123.000000	7.882157
2122.000000	8.092026
2121.000000	7.913597
2120.000000	7.964635
2119.000000	8.096945
2118.000000	8.124719
2117.000000	8.151348
2116.000000	8.216228
2115.000000	8.093524
2114.000000	8.137494
2113.000000	8.016598
2112.000000	8.028549
2111.000000	8.071188
2110.000000	7.990130
2109.000000	8.088161
2108.000000	8.013787
2107.000000	8.159302
2106.000000	8.151786
2105.000000	8.112093
2104.000000	8.092574
2103.000000	8.059578
2102.000000	8.119640
2101.000000	8.055373
2100.000000	8.062270
2099.000000	8.034431
2098.000000	8.074009
2097.000000	8.188204
2096.000000	8.146917
2095.000000	8.110468
2094.000000	8.138790
2093.000000	8.048114
2092.000000	8.105035
2091.000000	8.066720
2090.000000	8.021892
2089.000000	7.993183
2088.000000	7.982304
2087.000000	7.995015
2086.000000	8.016400
2085.000000	8.060561
2084.000000	8.064297
2083.000000	7.939075
2082.000000	7.943248
2081.000000	7.872245
2080.000000	7.887052
2079.000000	7.864422
2078.000000	7.798046
2077.000000	7.730227
2076.000000	7.663554
2075.000000	7.640865
2074.000000	7.759562
2073.000000	7.678557
2072.000000	7.614316
2071.000000	7.566642
2070.000000	7.562638
2069.000000	7.433273
2068.000000	7.373309
2067.000000	7.359134
2066.000000	7.312426
2065.000000	7.238291
2064.000000	7.267959
2063.000000	7.144146
2062.000000	7.128701
2061.000000	7.122728
2060.000000	7.014699
2059.000000	6.991690
2058.000000	6.895213
2057.000000	6.844943
2056.000000	6.838196
2055.000000	6.805721
2054.000000	6.765255
2053.000000	6.768654
2052.000000	6.722242
2051.000000	6.627112
2050.000000	6.597197
2049.000000	6.536848
2048.000000	6.506964
2047.000000	6.512606
2046.000000	6.516859
2045.000000	6.467441
2044.000000	6.453658
2043.000000	6.481699
2042.000000	6.506864
2041.000000	6.509294
2040.000000	6.517768
2039.000000	6.540086
2038.000000	6.503054
2037.000000	6.486657
2036.000000	6.550041
2035.000000	6.609122
2034.000000	6.631242
2033.000000	6.625039
2032.000000	6.638612
2031.000000	6.668352
2030.000000	6.700479
2029.000000	6.738250
2028.000000	6.755128
2027.000000	6.778438
2026.000000	6.842259
2025.000000	6.892731
2024.000000	6.888502
2023.000000	6.857981
2022.000000	6.881801
2021.000000	6.904963
2020.000000	6.923572
2019.000000	6.934794
2018.000000	6.932029
2017.000000	6.905033
2016.000000	6.909522
2015.000000	6.933587
2014.000000	6.915665
2013.000000	6.909013
2012.000000	6.894936
2011.000000	6.855497
2010.000000	6.815280
2009.000000	6.791557
2008.000000	6.753143
2007.000000	6.738510
2006.000000	6.713536
2005.000000	6.722694
2004.000000	6.684427
2003.000000	6.621898
2002.000000	6.594378
2001.000000	6.566779
2000.000000	6.552313
1999.000000	6.538731
1998.000000	6.536790
1997.000000	6.488560
1996.000000	6.445748
1995.000000	6.397962
1994.000000	6.372521
1993.000000	6.332948
1992.000000	6.246852
1991.000000	6.245324
1990.000000	6.243429
1989.000000	6.209564
1988.000000	6.181051
1987.000000	6.103651
1986.000000	6.059240
1985.000000	6.072577
1984.000000	6.035186
1983.000000	5.979598
1982.000000	5.956086
1981.000000	5.920724
1980.000000	5.919549
1979.000000	5.875840
1978.000000	5.854279
1977.000000	5.808321
1976.000000	5.788941
1975.000000	5.748933
1974.000000	5.742406
1973.000000	5.703743
1972.000000	5.692655
1971.000000	5.629371
1970.000000	5.599305
1969.000000	5.612016
1968.000000	5.583446
1967.000000	5.547674
1966.000000	5.541999
1965.000000	5.549386
1964.000000	5.463572
1963.000000	5.451078
1962.000000	5.436775
1961.000000	5.415182
1960.000000	5.435196
1959.000000	5.373540
1958.000000	5.335125
1957.000000	5.306979
1956.000000	5.321284
1955.000000	5.289724
1954.000000	5.254022
1953.000000	5.244666
1952.000000	5.256165
1951.000000	5.253728
1950.000000	5.256207
1949.000000	5.218783
1948.000000	5.228188
1947.000000	5.213441
1946.000000	5.269186
1945.000000	5.262216
1944.000000	5.208901
1943.000000	5.284594
1942.000000	5.273004
1941.000000	5.317397
1940.000000	5.353139
1939.000000	5.335423
1938.000000	5.296897
1937.000000	5.332412
1936.000000	5.410246
1935.000000	5.450446
1934.000000	5.430990
1933.000000	5.485529
1932.000000	5.521916
1931.000000	5.556086
1930.000000	5.588095
1929.000000	5.601307
1928.000000	5.683486
1927.000000	5.740626
1926.000000	5.805245
1925.000000	5.856192
1924.000000	5.979012
1923.000000	6.021282
1922.000000	6.131179
1921.000000	6.185723
1920.000000	6.294088
1919.000000	6.281321
1918.000000	6.381796
1917.000000	6.531207
1916.000000	6.462382
1915.000000	6.632075
1914.000000	6.843569
1913.000000	6.976862
1912.000000	7.057213
1911.000000	7.128174
1910.000000	7.285421
1909.000000	7.305260
1908.000000	7.457135
1907.000000	7.565373
1906.000000	7.729855
1905.000000	7.866349
1904.000000	8.019247
1903.000000	8.132569
1902.000000	8.265483
1901.000000	8.529932
1900.000000	8.604896
1899.000000	8.704228
1898.000000	8.916284
1897.000000	9.093774
1896.000000	9.190567
1895.000000	9.348611
1894.000000	9.451860
1893.000000	9.515363
1892.000000	9.721233
1891.000000	9.909339
1890.000000	10.019793
1889.000000	10.154842
1888.000000	10.314767
1887.000000	10.427153
1886.000000	10.564543
1885.000000	10.686170
1884.000000	10.787529
1883.000000	10.914970
1882.000000	10.992973
1881.000000	11.082829
1880.000000	11.168793
1879.000000	11.252643
1878.000000	11.356951
1877.000000	11.452262
1876.000000	11.525004
1875.000000	11.591964
1874.000000	11.661406
1873.000000	11.708531
1872.000000	11.811619
1871.000000	11.854918
1870.000000	11.902928
1869.000000	11.940913
1868.000000	11.992576
1867.000000	11.928095
1866.000000	11.995149
1865.000000	12.055039
1864.000000	12.042866
1863.000000	12.020623
1862.000000	12.039950
1861.000000	12.071741
1860.000000	12.111425
1859.000000	12.127212
1858.000000	12.110597
1857.000000	12.078832
1856.000000	12.130445
1855.000000	12.111117
1854.000000	12.138051
1853.000000	12.189412
1852.000000	12.157352
1851.000000	12.118323
1850.000000	12.127932
1849.000000	12.119833
1848.000000	12.122495
1847.000000	12.117257
1846.000000	12.130313
1845.000000	12.129722
1844.000000	12.106530
1843.000000	12.107293
1842.000000	12.081624
1841.000000	12.050505
1840.000000	12.046257
1839.000000	12.073801
1838.000000	12.072751
1837.000000	12.020605
1836.000000	11.962797
1835.000000	11.938570
1834.000000	11.946456
1833.000000	11.945713
1832.000000	11.920614
1831.000000	11.898829
1830.000000	11.874603
1829.000000	11.838534
1828.000000	11.806616
1827.000000	11.799593
1826.000000	11.778465
1825.000000	11.770362
1824.000000	11.757184
1823.000000	11.744602
1822.000000	11.746728
1821.000000	11.716966
1820.000000	11.668997
1819.000000	11.672992
1818.000000	11.665758
1817.000000	11.646933
1816.000000	11.635139
1815.000000	11.627715
1814.000000	11.613580
1813.000000	11.596624
1812.000000	11.578531
1811.000000	11.567739
1810.000000	11.556664
1809.000000	11.544772
1808.000000	11.521410
1807.000000	11.488432
1806.000000	11.475251
1805.000000	11.488166
1804.000000	11.480461
1803.000000	11.456507
1802.000000	11.449616
1801.000000	11.448644
1800.000000	11.446685
1799.000000	11.444498
1798.000000	11.435419
1797.000000	11.414862
1796.000000	11.400420
1795.000000	11.415427
1794.000000	11.425081
1793.000000	11.427018
1792.000000	11.415235
1791.000000	11.400365
1790.000000	11.393916
1789.000000	11.396931
1788.000000	11.398971
1787.000000	11.382122
1786.000000	11.373986
1785.000000	11.357271
1784.000000	11.332595
1783.000000	11.328149
1782.000000	11.338046
1781.000000	11.333587
1780.000000	11.327457
1779.000000	11.330688
1778.000000	11.295114
1777.000000	11.255210
1776.000000	11.271536
1775.000000	11.237209
1774.000000	11.214792
1773.000000	11.195727
1772.000000	11.177813
1771.000000	11.179548
1770.000000	11.157393
1769.000000	11.133093
1768.000000	11.108758
1767.000000	11.084162
1766.000000	11.029614
1765.000000	10.990766
1764.000000	10.999723
1763.000000	11.010581
1762.000000	10.981123
1761.000000	10.954276
1760.000000	10.920394
1759.000000	10.914973
1758.000000	10.893502
1757.000000	10.853230
1756.000000	10.851326
1755.000000	10.823886
1754.000000	10.796267
1753.000000	10.793252
1752.000000	10.755217
1751.000000	10.743385
1750.000000	10.737005
1749.000000	10.707181
1748.000000	10.681200
1747.000000	10.661659
1746.000000	10.658120
1745.000000	10.629242
1744.000000	10.625066
1743.000000	10.590396
1742.000000	10.579458
1741.000000	10.548751
1740.000000	10.522871
1739.000000	10.500918
1738.000000	10.484198
1737.000000	10.461522
1736.000000	10.461674
1735.000000	10.459890
1734.000000	10.450266
1733.000000	10.431888
1732.000000	10.433457
1731.000000	10.425962
1730.000000	10.424008
1729.000000	10.456017
1728.000000	10.454167
1727.000000	10.446330
1726.000000	10.486751
1725.000000	10.455135
1724.000000	10.505926
1723.000000	10.523101
1722.000000	10.566591
1721.000000	10.563880
1720.000000	10.590342
1719.000000	10.648480
1718.000000	10.660345
1717.000000	10.671823
1716.000000	10.710762
1715.000000	10.698261
1714.000000	10.757519
1713.000000	10.762655
1712.000000	10.785444
1711.000000	10.823720
1710.000000	10.828551
1709.000000	10.872337
1708.000000	10.860540
1707.000000	10.873829
1706.000000	10.872935
1705.000000	10.870368
1704.000000	10.876902
1703.000000	10.866778
1702.000000	10.881508
1701.000000	10.886176
1700.000000	10.910509
1699.000000	10.851299
1698.000000	10.915714
1697.000000	10.934573
1696.000000	10.928921
1695.000000	10.920018
1694.000000	10.924246
1693.000000	10.942474
1692.000000	10.953000
1691.000000	10.974757
1690.000000	10.995859
1689.000000	11.018610
1688.000000	11.062159
1687.000000	11.096001
1686.000000	11.137962
1685.000000	11.179858
1684.000000	11.201582
1683.000000	11.238639
1682.000000	11.275934
1681.000000	11.353771
1680.000000	11.406519
1679.000000	11.431744
1678.000000	11.480077
1677.000000	11.547505
1676.000000	11.571013
1675.000000	11.610231
1674.000000	11.667681
1673.000000	11.705796
1672.000000	11.743554
1671.000000	11.778264
1670.000000	11.842172
1669.000000	11.840298
1668.000000	11.852358
1667.000000	11.914465
1666.000000	11.911199
1665.000000	11.940010
1664.000000	11.934754
1663.000000	11.930506
1662.000000	11.994698
1661.000000	12.019152
1660.000000	12.061304
1659.000000	12.066322
1658.000000	12.052192
1657.000000	12.071515
1656.000000	12.097758
1655.000000	12.120451
1654.000000	12.126985
1653.000000	12.124109
1652.000000	12.124304
1651.000000	12.100186
1650.000000	12.097343
1649.000000	12.111116
1648.000000	12.098742
1647.000000	12.089156
1646.000000	12.069386
1645.000000	12.072435
1644.000000	12.065545
1643.000000	12.040815
1642.000000	12.036656
1641.000000	12.020279
1640.000000	12.002339
1639.000000	11.999646
1638.000000	12.004402
1637.000000	11.987474
1636.000000	11.962051
1635.000000	11.952306
1634.000000	11.925244
1633.000000	11.913860
1632.000000	11.908755
1631.000000	11.900250
1630.000000	11.890920
1629.000000	11.866533
1628.000000	11.841057
1627.000000	11.831606
1626.000000	11.811713
1625.000000	11.786937
1624.000000	11.771659
1623.000000	11.769152
1622.000000	11.754174
1621.000000	11.727822
1620.000000	11.712789
1619.000000	11.688288
1618.000000	11.666670
1617.000000	11.647048
1616.000000	11.638444
1615.000000	11.604502
1614.000000	11.588613
1613.000000	11.590173
1612.000000	11.579166
1611.000000	11.557296
1610.000000	11.527969
1609.000000	11.512482
1608.000000	11.503954
1607.000000	11.483227
1606.000000	11.447151
1605.000000	11.432737
1604.000000	11.423953
1603.000000	11.408956
1602.000000	11.380990
1601.000000	11.348906
1600.000000	11.329070
1599.000000	11.311980
1598.000000	11.290432
1597.000000	11.280849
1596.000000	11.261246
1595.000000	11.236513
1594.000000	11.220698
1593.000000	11.205446
1592.000000	11.186769
1591.000000	11.164839
1590.000000	11.154543
1589.000000	11.149861
1588.000000	11.128381
1587.000000	11.097989
1586.000000	11.084588
1585.000000	11.070490
1584.000000	11.057091
1583.000000	11.047400
1582.000000	11.035773
1581.000000	11.018368
1580.000000	10.997318
1579.000000	10.984949
1578.000000	10.985011
1577.000000	10.964420
1576.000000	10.930769
1575.000000	10.917002
1574.000000	10.900973
1573.000000	10.895948
1572.000000	10.877795
1571.000000	10.871303
1570.000000	10.864759
1569.000000	10.824566
1568.000000	10.800479
1567.000000	10.801861
1566.000000	10.808167
1565.000000	10.789370
1564.000000	10.767527
1563.000000	10.763870
1562.000000	10.756406
1561.000000	10.745451
1560.000000	10.728241
1559.000000	10.707186
1558.000000	10.702188
1557.000000	10.684578
1556.000000	10.679293
1555.000000	10.661515
1554.000000	10.670047
1553.000000	10.666557
1552.000000	10.644524
1551.000000	10.615628
1550.000000	10.590081
1549.000000	10.582266
1548.000000	10.566854
1547.000000	10.539807
1546.000000	10.531646
1545.000000	10.504297
1544.000000	10.469350
1543.000000	10.450939
1542.000000	10.414786
1541.000000	10.395184
1540.000000	10.376802
1539.000000	10.329275
1538.000000	10.299090
1537.000000	10.275395
1536.000000	10.247302
1535.000000	10.231626
1534.000000	10.203731
1533.000000	10.172664
1532.000000	10.143112
1531.000000	10.119347
1530.000000	10.100895
1529.000000	10.056632
1528.000000	10.024612
1527.000000	10.010402
1526.000000	9.990767
1525.000000	9.963135
1524.000000	9.935521
1523.000000	9.926008
1522.000000	9.910925
1521.000000	9.885902
1520.000000	9.866717
1519.000000	9.869038
1518.000000	9.859646
1517.000000	9.846447
1516.000000	9.815629
1515.000000	9.809846
1514.000000	9.790645
1513.000000	9.781356
1512.000000	9.765807
1511.000000	9.762089
1510.000000	9.761858
1509.000000	9.745182
1508.000000	9.756775
1507.000000	9.750651
1506.000000	9.727275
1505.000000	9.717673
1504.000000	9.717740
1503.000000	9.720306
1502.000000	9.704886
1501.000000	9.678296
1500.000000	9.688019
1499.000000	9.680363
1498.000000	9.688497
1497.000000	9.701377
1496.000000	9.701183
1495.000000	9.704668
1494.000000	9.730104
1493.000000	9.741657
1492.000000	9.745065
1491.000000	9.757981
1490.000000	9.757807
1489.000000	9.753419
1488.000000	9.766715
1487.000000	9.764617
1486.000000	9.772037
1485.000000	9.777757
1484.000000	9.796278
1483.000000	9.788077
1482.000000	9.817157
1481.000000	9.827889
1480.000000	9.837881
1479.000000	9.823403
1478.000000	9.837156
1477.000000	9.848513
1476.000000	9.858181
1475.000000	9.886659
1474.000000	9.898099
1473.000000	9.888187
1472.000000	9.906475
1471.000000	9.898678
1470.000000	9.926330
1469.000000	9.923778
1468.000000	9.957780
1467.000000	9.987988
1466.000000	9.978494
1465.000000	9.974478
1464.000000	10.011306
1463.000000	10.031672
1462.000000	10.025156
1461.000000	10.026266
1460.000000	10.019245
1459.000000	10.052637
1458.000000	10.069245
1457.000000	10.079641
1456.000000	10.076185
1455.000000	10.092556
1454.000000	10.128021
1453.000000	10.122419
1452.000000	10.129402
1451.000000	10.128374
1450.000000	10.165269
1449.000000	10.174196
1448.000000	10.180063
1447.000000	10.187069
1446.000000	10.197308
