PE UV       SUBTECH     SPECTRUM    ASCII       PEDS        4.00        
   -1
TDmsopph202.Sample.asc
18/03/21
10:13:10.00
18/03/21
10:13:10.00
Administrator

200.000000
1
Lambda 750
750N8071901
PerkinElmer UV WinLab 6.0.4.0738 / 1.61.00 Lambda 900

0
0
3350/servo 860.8/2
0
0
UV/VIS
1
1
1
CommonBeamDepol,150mm sphere / downward view
0
0
0
0
Program
Program
3350/servo 860.8/2
3350/0.2 860.8/0.2
3350/0.2 860.8/0.2
0
1
 
 
 
0
 
860.8
319.2
860.8
Front
100
on
 
 
0
0
0
 
0
 
 
 
0
 
 
0
0
0
0
0
 
 
 
 
0
0


0
0
#HDR
-1
-1
#GR
nm
%T
1.0
0.0
2350.000000
-1.000000
2151
8
8.832552
-0.038173
#DATA
2350.000000	1.879183
2349.000000	1.396071
2348.000000	1.428505
2347.000000	2.048571
2346.000000	1.792959
2345.000000	1.528173
2344.000000	1.386829
2343.000000	1.100556
2342.000000	1.556750
2341.000000	1.631451
2340.000000	1.781131
2339.000000	1.974894
2338.000000	1.730387
2337.000000	1.906504
2336.000000	2.478346
2335.000000	2.604123
2334.000000	2.599876
2333.000000	2.166941
2332.000000	2.389094
2331.000000	2.335484
2330.000000	2.363266
2329.000000	2.266932
2328.000000	2.235872
2327.000000	2.181596
2326.000000	2.379334
2325.000000	1.959659
2324.000000	1.962604
2323.000000	2.145810
2322.000000	2.175071
2321.000000	2.105758
2320.000000	2.230715
2319.000000	2.145441
2318.000000	2.051884
2317.000000	1.971745
2316.000000	2.337578
2315.000000	2.185279
2314.000000	1.989317
2313.000000	1.962224
2312.000000	2.019109
2311.000000	1.738195
2310.000000	1.644389
2309.000000	2.109873
2308.000000	1.870264
2307.000000	1.807711
2306.000000	1.859784
2305.000000	2.000666
2304.000000	2.143069
2303.000000	1.986731
2302.000000	2.148604
2301.000000	1.887993
2300.000000	1.721139
2299.000000	1.577916
2298.000000	1.539136
2297.000000	1.765107
2296.000000	1.716471
2295.000000	1.778987
2294.000000	1.800669
2293.000000	1.590758
2292.000000	1.740185
2291.000000	1.862964
2290.000000	1.723109
2289.000000	1.702906
2288.000000	1.858001
2287.000000	1.898969
2286.000000	1.664153
2285.000000	1.498602
2284.000000	1.474827
2283.000000	1.646525
2282.000000	1.570312
2281.000000	1.462954
2280.000000	1.446418
2279.000000	1.636460
2278.000000	1.484607
2277.000000	1.472670
2276.000000	1.685734
2275.000000	1.711383
2274.000000	1.845980
2273.000000	1.806538
2272.000000	1.831867
2271.000000	1.771315
2270.000000	1.616818
2269.000000	1.712423
2268.000000	1.608188
2267.000000	1.683847
2266.000000	1.854397
2265.000000	1.804562
2264.000000	1.797001
2263.000000	1.697380
2262.000000	1.777679
2261.000000	1.826832
2260.000000	1.727368
2259.000000	1.862200
2258.000000	2.025118
2257.000000	1.970786
2256.000000	1.851685
2255.000000	1.894764
2254.000000	2.088861
2253.000000	2.142758
2252.000000	2.246281
2251.000000	2.222452
2250.000000	2.245573
2249.000000	2.192767
2248.000000	2.134291
2247.000000	2.288831
2246.000000	2.266907
2245.000000	2.194085
2244.000000	2.253245
2243.000000	2.478732
2242.000000	2.414538
2241.000000	2.330836
2240.000000	2.472272
2239.000000	2.576020
2238.000000	2.517228
2237.000000	2.527151
2236.000000	2.481407
2235.000000	2.473112
2234.000000	2.621437
2233.000000	2.587607
2232.000000	2.571474
2231.000000	2.679800
2230.000000	2.674900
2229.000000	2.621897
2228.000000	2.712540
2227.000000	2.722242
2226.000000	2.635386
2225.000000	2.619480
2224.000000	2.605683
2223.000000	2.632522
2222.000000	2.548676
2221.000000	2.388074
2220.000000	2.525740
2219.000000	2.632778
2218.000000	2.590380
2217.000000	2.527583
2216.000000	2.454550
2215.000000	2.591621
2214.000000	2.646739
2213.000000	2.673544
2212.000000	2.658782
2211.000000	2.537698
2210.000000	2.572381
2209.000000	2.505980
2208.000000	2.439945
2207.000000	2.434299
2206.000000	2.323500
2205.000000	2.287325
2204.000000	2.360018
2203.000000	2.407347
2202.000000	2.321834
2201.000000	2.427226
2200.000000	2.462053
2199.000000	2.370559
2198.000000	2.324588
2197.000000	2.423764
2196.000000	2.452625
2195.000000	2.352016
2194.000000	2.277668
2193.000000	2.171444
2192.000000	2.149289
2191.000000	2.162085
2190.000000	2.193849
2189.000000	2.162014
2188.000000	2.178163
2187.000000	2.156975
2186.000000	2.293254
2185.000000	2.143501
2184.000000	2.057511
2183.000000	2.186036
2182.000000	2.307153
2181.000000	2.127265
2180.000000	2.201223
2179.000000	2.232208
2178.000000	2.207376
2177.000000	2.122013
2176.000000	2.079453
2175.000000	2.060590
2174.000000	2.150719
2173.000000	2.176963
2172.000000	2.113803
2171.000000	2.377015
2170.000000	2.329216
2169.000000	2.387940
2168.000000	2.301776
2167.000000	2.343968
2166.000000	2.416288
2165.000000	2.396941
2164.000000	2.201812
2163.000000	2.273294
2162.000000	2.331807
2161.000000	2.292470
2160.000000	2.217911
2159.000000	2.370868
2158.000000	2.418110
2157.000000	2.525238
2156.000000	2.442172
2155.000000	2.519673
2154.000000	2.550762
2153.000000	2.463852
2152.000000	2.650082
2151.000000	2.546586
2150.000000	2.487984
2149.000000	2.587391
2148.000000	2.573714
2147.000000	2.418811
2146.000000	2.598585
2145.000000	2.742457
2144.000000	2.648529
2143.000000	2.542934
2142.000000	2.505810
2141.000000	2.647067
2140.000000	2.651677
2139.000000	2.751887
2138.000000	2.884481
2137.000000	2.776479
2136.000000	2.788882
2135.000000	2.883085
2134.000000	2.837025
2133.000000	2.559753
2132.000000	2.923603
2131.000000	2.945382
2130.000000	2.927450
2129.000000	2.945205
2128.000000	3.044634
2127.000000	3.091225
2126.000000	2.905157
2125.000000	2.800644
2124.000000	2.847392
2123.000000	2.769278
2122.000000	2.840471
2121.000000	2.830236
2120.000000	2.810923
2119.000000	2.861203
2118.000000	2.963161
2117.000000	2.993013
2116.000000	3.064856
2115.000000	3.072995
2114.000000	3.080215
2113.000000	2.983374
2112.000000	2.924171
2111.000000	2.968571
2110.000000	2.942131
2109.000000	2.905917
2108.000000	2.940745
2107.000000	2.863875
2106.000000	2.825994
2105.000000	2.938214
2104.000000	2.988658
2103.000000	3.111780
2102.000000	3.041667
2101.000000	2.967258
2100.000000	3.056663
2099.000000	2.873270
2098.000000	2.943179
2097.000000	2.878934
2096.000000	2.906137
2095.000000	2.917106
2094.000000	2.922454
2093.000000	3.022731
2092.000000	3.007910
2091.000000	3.094739
2090.000000	3.067257
2089.000000	3.017002
2088.000000	2.943454
2087.000000	2.963961
2086.000000	2.987167
2085.000000	2.964500
2084.000000	2.900463
2083.000000	2.971074
2082.000000	2.934960
2081.000000	3.015112
2080.000000	2.856749
2079.000000	2.758662
2078.000000	2.725875
2077.000000	2.767108
2076.000000	2.809395
2075.000000	2.902604
2074.000000	2.815212
2073.000000	2.783939
2072.000000	2.761399
2071.000000	2.696096
2070.000000	2.650437
2069.000000	2.634618
2068.000000	2.618396
2067.000000	2.554803
2066.000000	2.530846
2065.000000	2.500626
2064.000000	2.469663
2063.000000	2.509492
2062.000000	2.497716
2061.000000	2.424439
2060.000000	2.374100
2059.000000	2.403197
2058.000000	2.380506
2057.000000	2.372416
2056.000000	2.316291
2055.000000	2.238046
2054.000000	2.248321
2053.000000	2.195977
2052.000000	2.208625
2051.000000	2.126248
2050.000000	2.127424
2049.000000	2.117100
2048.000000	2.050182
2047.000000	2.031370
2046.000000	2.009639
2045.000000	2.055369
2044.000000	2.078501
2043.000000	2.090086
2042.000000	2.045733
2041.000000	2.073997
2040.000000	2.116674
2039.000000	2.069836
2038.000000	2.028288
2037.000000	2.003361
2036.000000	2.040779
2035.000000	2.082800
2034.000000	2.103221
2033.000000	2.127765
2032.000000	2.122784
2031.000000	2.118006
2030.000000	2.162889
2029.000000	2.160285
2028.000000	2.174529
2027.000000	2.220731
2026.000000	2.260918
2025.000000	2.269990
2024.000000	2.237141
2023.000000	2.246722
2022.000000	2.273205
2021.000000	2.272023
2020.000000	2.289234
2019.000000	2.270485
2018.000000	2.281812
2017.000000	2.328488
2016.000000	2.324551
2015.000000	2.320136
2014.000000	2.296925
2013.000000	2.320415
2012.000000	2.332085
2011.000000	2.298853
2010.000000	2.310926
2009.000000	2.298890
2008.000000	2.244201
2007.000000	2.239291
2006.000000	2.234896
2005.000000	2.179195
2004.000000	2.211636
2003.000000	2.223397
2002.000000	2.189310
2001.000000	2.189842
2000.000000	2.154042
1999.000000	2.123313
1998.000000	2.148359
1997.000000	2.137970
1996.000000	2.136273
1995.000000	2.124311
1994.000000	2.057598
1993.000000	2.042847
1992.000000	2.047242
1991.000000	1.996916
1990.000000	1.977635
1989.000000	1.972662
1988.000000	1.978738
1987.000000	1.960972
1986.000000	1.981612
1985.000000	1.950805
1984.000000	1.948370
1983.000000	1.956661
1982.000000	1.924936
1981.000000	1.898280
1980.000000	1.859668
1979.000000	1.846166
1978.000000	1.871766
1977.000000	1.809249
1976.000000	1.812881
1975.000000	1.817317
1974.000000	1.823382
1973.000000	1.814924
1972.000000	1.774786
1971.000000	1.790409
1970.000000	1.734560
1969.000000	1.766254
1968.000000	1.777393
1967.000000	1.717334
1966.000000	1.769353
1965.000000	1.715443
1964.000000	1.692046
1963.000000	1.689161
1962.000000	1.717852
1961.000000	1.723545
1960.000000	1.703894
1959.000000	1.721946
1958.000000	1.739290
1957.000000	1.671325
1956.000000	1.692979
1955.000000	1.645378
1954.000000	1.687750
1953.000000	1.647791
1952.000000	1.655103
1951.000000	1.683688
1950.000000	1.676199
1949.000000	1.671073
1948.000000	1.592727
1947.000000	1.625590
1946.000000	1.686180
1945.000000	1.613167
1944.000000	1.685918
1943.000000	1.716357
1942.000000	1.648342
1941.000000	1.682663
1940.000000	1.718886
1939.000000	1.741102
1938.000000	1.756626
1937.000000	1.712189
1936.000000	1.784814
1935.000000	1.738538
1934.000000	1.783809
1933.000000	1.831492
1932.000000	1.772604
1931.000000	1.850572
1930.000000	1.863341
1929.000000	1.777902
1928.000000	1.925783
1927.000000	1.933212
1926.000000	1.994830
1925.000000	1.956362
1924.000000	1.952274
1923.000000	2.029834
1922.000000	2.019991
1921.000000	2.132826
1920.000000	2.235473
1919.000000	2.182458
1918.000000	2.203534
1917.000000	2.237109
1916.000000	2.225920
1915.000000	2.361309
1914.000000	2.430126
1913.000000	2.478456
1912.000000	2.552918
1911.000000	2.616527
1910.000000	2.662035
1909.000000	2.691754
1908.000000	2.823995
1907.000000	2.919649
1906.000000	2.920694
1905.000000	3.148145
1904.000000	3.129584
1903.000000	3.310153
1902.000000	3.388894
1901.000000	3.506149
1900.000000	3.652536
1899.000000	3.776313
1898.000000	3.844202
1897.000000	3.959331
1896.000000	4.040357
1895.000000	4.148644
1894.000000	4.273586
1893.000000	4.389141
1892.000000	4.445661
1891.000000	4.590307
1890.000000	4.744565
1889.000000	4.838026
1888.000000	4.918206
1887.000000	5.009432
1886.000000	5.211976
1885.000000	5.335874
1884.000000	5.434962
1883.000000	5.588189
1882.000000	5.720929
1881.000000	5.755801
1880.000000	5.852693
1879.000000	5.941674
1878.000000	6.026690
1877.000000	6.158889
1876.000000	6.159032
1875.000000	6.276249
1874.000000	6.305709
1873.000000	6.354987
1872.000000	6.397892
1871.000000	6.437649
1870.000000	6.505097
1869.000000	6.564529
1868.000000	6.640295
1867.000000	6.628185
1866.000000	6.627862
1865.000000	6.680383
1864.000000	6.666849
1863.000000	6.678293
1862.000000	6.736887
1861.000000	6.680017
1860.000000	6.751279
1859.000000	6.708234
1858.000000	6.781650
1857.000000	6.769869
1856.000000	6.789531
1855.000000	6.779663
1854.000000	6.809346
1853.000000	6.840706
1852.000000	6.799959
1851.000000	6.803910
1850.000000	6.820642
1849.000000	6.839925
1848.000000	6.861972
1847.000000	6.855521
1846.000000	6.862879
1845.000000	6.855157
1844.000000	6.828069
1843.000000	6.810556
1842.000000	6.787835
1841.000000	6.778739
1840.000000	6.781368
1839.000000	6.782317
1838.000000	6.764174
1837.000000	6.747505
1836.000000	6.709398
1835.000000	6.664283
1834.000000	6.645012
1833.000000	6.653427
1832.000000	6.630208
1831.000000	6.624461
1830.000000	6.619922
1829.000000	6.584215
1828.000000	6.558395
1827.000000	6.537757
1826.000000	6.531122
1825.000000	6.505096
1824.000000	6.498022
1823.000000	6.493413
1822.000000	6.464289
1821.000000	6.423724
1820.000000	6.405914
1819.000000	6.398563
1818.000000	6.386820
1817.000000	6.371071
1816.000000	6.365074
1815.000000	6.368958
1814.000000	6.367402
1813.000000	6.354838
1812.000000	6.335753
1811.000000	6.321764
1810.000000	6.316872
1809.000000	6.315097
1808.000000	6.296905
1807.000000	6.289520
1806.000000	6.267632
1805.000000	6.254028
1804.000000	6.262125
1803.000000	6.255510
1802.000000	6.235314
1801.000000	6.237273
1800.000000	6.239009
1799.000000	6.247035
1798.000000	6.247404
1797.000000	6.235072
1796.000000	6.253850
1795.000000	6.252418
1794.000000	6.251686
1793.000000	6.251801
1792.000000	6.245672
1791.000000	6.244705
1790.000000	6.242446
1789.000000	6.235069
1788.000000	6.243457
1787.000000	6.264709
1786.000000	6.260281
1785.000000	6.244105
1784.000000	6.249103
1783.000000	6.247766
1782.000000	6.242503
1781.000000	6.236894
1780.000000	6.213369
1779.000000	6.216276
1778.000000	6.189487
1777.000000	6.168162
1776.000000	6.140537
1775.000000	6.139560
1774.000000	6.133671
1773.000000	6.099809
1772.000000	6.089649
1771.000000	6.087458
1770.000000	6.032239
1769.000000	6.011966
1768.000000	6.004486
1767.000000	6.000281
1766.000000	5.970022
1765.000000	5.950234
1764.000000	5.955383
1763.000000	5.926001
1762.000000	5.890424
1761.000000	5.855175
1760.000000	5.852190
1759.000000	5.846227
1758.000000	5.812712
1757.000000	5.789693
1756.000000	5.802289
1755.000000	5.772284
1754.000000	5.734489
1753.000000	5.732048
1752.000000	5.737955
1751.000000	5.727504
1750.000000	5.706420
1749.000000	5.677359
1748.000000	5.676043
1747.000000	5.658314
1746.000000	5.610362
1745.000000	5.600719
1744.000000	5.568866
1743.000000	5.565522
1742.000000	5.556257
1741.000000	5.520087
1740.000000	5.516188
1739.000000	5.489704
1738.000000	5.466719
1737.000000	5.486433
1736.000000	5.476841
1735.000000	5.459906
1734.000000	5.463243
1733.000000	5.457313
1732.000000	5.449523
1731.000000	5.439637
1730.000000	5.443735
1729.000000	5.452998
1728.000000	5.471816
1727.000000	5.470786
1726.000000	5.493598
1725.000000	5.504836
1724.000000	5.545221
1723.000000	5.553814
1722.000000	5.573652
1721.000000	5.590642
1720.000000	5.631595
1719.000000	5.657603
1718.000000	5.653798
1717.000000	5.664079
1716.000000	5.721977
1715.000000	5.738264
1714.000000	5.749972
1713.000000	5.781460
1712.000000	5.776695
1711.000000	5.800495
1710.000000	5.805282
1709.000000	5.838075
1708.000000	5.830437
1707.000000	5.805103
1706.000000	5.825910
1705.000000	5.863931
1704.000000	5.900027
1703.000000	5.896840
1702.000000	5.868201
1701.000000	5.864951
1700.000000	5.911394
1699.000000	5.882167
1698.000000	5.884089
1697.000000	5.913621
1696.000000	5.936891
1695.000000	5.882359
1694.000000	5.907479
1693.000000	5.912518
1692.000000	5.939330
1691.000000	5.940246
1690.000000	6.007708
1689.000000	6.006265
1688.000000	6.046370
1687.000000	6.082336
1686.000000	6.119199
1685.000000	6.147599
1684.000000	6.208292
1683.000000	6.267391
1682.000000	6.271872
1681.000000	6.346707
1680.000000	6.363781
1679.000000	6.421444
1678.000000	6.459999
1677.000000	6.530913
1676.000000	6.565701
1675.000000	6.628500
1674.000000	6.675853
1673.000000	6.717614
1672.000000	6.762902
1671.000000	6.817153
1670.000000	6.878815
1669.000000	6.898752
1668.000000	6.915546
1667.000000	6.971281
1666.000000	6.983318
1665.000000	7.012505
1664.000000	7.030604
1663.000000	7.048143
1662.000000	7.069983
1661.000000	7.095627
1660.000000	7.126376
1659.000000	7.158676
1658.000000	7.189239
1657.000000	7.205827
1656.000000	7.206417
1655.000000	7.211801
1654.000000	7.201621
1653.000000	7.240799
1652.000000	7.241382
1651.000000	7.232280
1650.000000	7.221559
1649.000000	7.220990
1648.000000	7.194281
1647.000000	7.210606
1646.000000	7.191032
1645.000000	7.169931
1644.000000	7.161256
1643.000000	7.144434
1642.000000	7.163640
1641.000000	7.148023
1640.000000	7.124491
1639.000000	7.125480
1638.000000	7.103247
1637.000000	7.092419
1636.000000	7.065341
1635.000000	7.071414
1634.000000	7.048857
1633.000000	7.031589
1632.000000	7.027149
1631.000000	7.018625
1630.000000	6.997023
1629.000000	6.984747
1628.000000	6.980738
1627.000000	6.963227
1626.000000	6.940449
1625.000000	6.936066
1624.000000	6.900049
1623.000000	6.890339
1622.000000	6.869080
1621.000000	6.853080
1620.000000	6.830951
1619.000000	6.807309
1618.000000	6.795826
1617.000000	6.783337
1616.000000	6.761941
1615.000000	6.739551
1614.000000	6.714491
1613.000000	6.700057
1612.000000	6.697041
1611.000000	6.676188
1610.000000	6.639766
1609.000000	6.618185
1608.000000	6.604318
1607.000000	6.595456
1606.000000	6.570320
1605.000000	6.548978
1604.000000	6.524384
1603.000000	6.513838
1602.000000	6.505370
1601.000000	6.465414
1600.000000	6.447774
1599.000000	6.443282
1598.000000	6.425464
1597.000000	6.414820
1596.000000	6.398675
1595.000000	6.383245
1594.000000	6.371245
1593.000000	6.357099
1592.000000	6.344434
1591.000000	6.328949
1590.000000	6.312923
1589.000000	6.289157
1588.000000	6.265856
1587.000000	6.265811
1586.000000	6.250636
1585.000000	6.233718
1584.000000	6.226231
1583.000000	6.222343
1582.000000	6.208900
1581.000000	6.193065
1580.000000	6.173585
1579.000000	6.148886
1578.000000	6.148905
1577.000000	6.143590
1576.000000	6.115735
1575.000000	6.106869
1574.000000	6.086970
1573.000000	6.065497
1572.000000	6.054430
1571.000000	6.047049
1570.000000	6.029389
1569.000000	6.002087
1568.000000	5.984650
1567.000000	5.984367
1566.000000	5.978222
1565.000000	5.961361
1564.000000	5.945835
1563.000000	5.949394
1562.000000	5.944142
1561.000000	5.915266
1560.000000	5.902490
1559.000000	5.900382
1558.000000	5.882802
1557.000000	5.881049
1556.000000	5.858171
1555.000000	5.837761
1554.000000	5.827865
1553.000000	5.829715
1552.000000	5.817001
1551.000000	5.789363
1550.000000	5.776759
1549.000000	5.761440
1548.000000	5.745307
1547.000000	5.730258
1546.000000	5.713106
1545.000000	5.691963
1544.000000	5.663585
1543.000000	5.631527
1542.000000	5.615986
1541.000000	5.582781
1540.000000	5.547614
1539.000000	5.511604
1538.000000	5.480890
1537.000000	5.448228
1536.000000	5.436896
1535.000000	5.399994
1534.000000	5.365718
1533.000000	5.363633
1532.000000	5.330378
1531.000000	5.293802
1530.000000	5.274670
1529.000000	5.258748
1528.000000	5.224046
1527.000000	5.212275
1526.000000	5.175875
1525.000000	5.162793
1524.000000	5.146835
1523.000000	5.135777
1522.000000	5.139755
1521.000000	5.116656
1520.000000	5.100763
1519.000000	5.078518
1518.000000	5.075252
1517.000000	5.065628
1516.000000	5.061915
1515.000000	5.053918
1514.000000	5.036601
1513.000000	5.030211
1512.000000	5.032109
1511.000000	5.039364
1510.000000	5.034103
1509.000000	5.026053
1508.000000	5.018843
1507.000000	5.006307
1506.000000	5.013360
1505.000000	4.998149
1504.000000	5.011516
1503.000000	4.985349
1502.000000	5.003830
1501.000000	4.991958
1500.000000	4.994374
1499.000000	5.006947
1498.000000	5.009903
1497.000000	5.010142
1496.000000	5.026265
1495.000000	5.045333
1494.000000	5.080141
1493.000000	5.068795
1492.000000	5.077138
1491.000000	5.072197
1490.000000	5.078527
1489.000000	5.085813
1488.000000	5.089410
1487.000000	5.093871
1486.000000	5.103048
1485.000000	5.131006
1484.000000	5.111411
1483.000000	5.122937
1482.000000	5.155363
1481.000000	5.152343
1480.000000	5.170580
1479.000000	5.170228
1478.000000	5.201220
1477.000000	5.204970
1476.000000	5.223170
1475.000000	5.235375
1474.000000	5.236898
1473.000000	5.243201
1472.000000	5.227875
1471.000000	5.238539
1470.000000	5.265828
1469.000000	5.263115
1468.000000	5.303140
1467.000000	5.317170
1466.000000	5.299528
1465.000000	5.303113
1464.000000	5.351137
1463.000000	5.370954
1462.000000	5.359460
1461.000000	5.359680
1460.000000	5.385985
1459.000000	5.400734
1458.000000	5.398847
1457.000000	5.396141
1456.000000	5.401479
1455.000000	5.445933
1454.000000	5.478412
1453.000000	5.484494
1452.000000	5.475553
1451.000000	5.485898
1450.000000	5.523617
1449.000000	5.542389
1448.000000	5.548731
1447.000000	5.555132
1446.000000	5.563813
1445.000000	5.581965
1444.000000	5.632099
1443.000000	5.655660
1442.000000	5.680022
1441.000000	5.702329
1440.000000	5.708082
1439.000000	5.731395
1438.000000	5.749019
1437.000000	5.779234
1436.000000	5.827291
1435.000000	5.860744
1434.000000	5.878676
1433.000000	5.895491
1432.000000	5.939399
1431.000000	5.984056
1430.000000	5.997079
1429.000000	6.032388
1428.000000	6.065352
