PE UV       SUBTECH     SPECTRUM    ASCII       PEDS        4.00        
   -1
TTms1556132.Sample.asc
18/03/21
11:17:09.00
18/03/21
11:17:09.00
Administrator

200.000000
1
Lambda 750
750N8071901
PerkinElmer UV WinLab 6.0.4.0738 / 1.61.00 Lambda 900

0
0
3350/servo 860.8/2
0
0
UV/VIS
1
1
1
CommonBeamDepol,150mm sphere / downward view
0
0
0
0
Program
Program
3350/servo 860.8/2
3350/0.2 860.8/0.2
3350/0.2 860.8/0.2
0
1
 
 
 
0
 
860.8
319.2
860.8
Front
100
on
 
 
0
0
0
 
0
 
 
 
0
 
 
0
0
0
0
0
 
 
 
 
0
0


0
0
#HDR
-1
-1
#GR
nm
%T
1.0
0.0
2350.000000
-1.000000
2151
8
12.591686
-0.033622
#DATA
2350.000000	5.746527
2349.000000	5.837379
2348.000000	5.888880
2347.000000	6.170350
2346.000000	6.128316
2345.000000	5.965198
2344.000000	5.771059
2343.000000	5.875703
2342.000000	5.894700
2341.000000	5.946061
2340.000000	5.877855
2339.000000	6.492773
2338.000000	6.516302
2337.000000	6.591533
2336.000000	6.519025
2335.000000	6.611044
2334.000000	6.625895
2333.000000	6.741629
2332.000000	7.072144
2331.000000	6.691873
2330.000000	6.630434
2329.000000	6.617266
2328.000000	6.509849
2327.000000	6.436869
2326.000000	6.573840
2325.000000	6.482457
2324.000000	6.367522
2323.000000	6.532610
2322.000000	6.571254
2321.000000	6.374512
2320.000000	6.449990
2319.000000	6.267231
2318.000000	6.182170
2317.000000	6.215813
2316.000000	6.415068
2315.000000	6.243887
2314.000000	6.190869
2313.000000	6.182678
2312.000000	5.886026
2311.000000	5.817984
2310.000000	5.962104
2309.000000	6.178355
2308.000000	5.986044
2307.000000	6.004391
2306.000000	6.009188
2305.000000	5.961573
2304.000000	5.777261
2303.000000	5.859337
2302.000000	6.066820
2301.000000	6.101611
2300.000000	5.951904
2299.000000	5.718955
2298.000000	5.594053
2297.000000	5.697965
2296.000000	5.771103
2295.000000	5.777426
2294.000000	5.808273
2293.000000	5.778010
2292.000000	5.652610
2291.000000	5.576120
2290.000000	5.751737
2289.000000	5.931904
2288.000000	5.912681
2287.000000	5.749965
2286.000000	5.688524
2285.000000	5.641079
2284.000000	5.679354
2283.000000	5.702795
2282.000000	5.667644
2281.000000	5.747544
2280.000000	5.645046
2279.000000	5.563275
2278.000000	5.755838
2277.000000	5.774580
2276.000000	5.658968
2275.000000	5.762208
2274.000000	5.697138
2273.000000	5.822331
2272.000000	5.857871
2271.000000	5.767380
2270.000000	5.625261
2269.000000	5.614956
2268.000000	5.720857
2267.000000	5.840116
2266.000000	5.859265
2265.000000	5.859902
2264.000000	5.957535
2263.000000	5.982456
2262.000000	5.989567
2261.000000	5.994095
2260.000000	6.039543
2259.000000	6.036058
2258.000000	6.169933
2257.000000	6.210263
2256.000000	6.205843
2255.000000	6.359266
2254.000000	6.530368
2253.000000	6.582431
2252.000000	6.645964
2251.000000	6.633053
2250.000000	6.710936
2249.000000	6.819909
2248.000000	6.671577
2247.000000	6.718669
2246.000000	6.820717
2245.000000	6.866139
2244.000000	7.053755
2243.000000	7.162731
2242.000000	7.169692
2241.000000	7.154056
2240.000000	7.134541
2239.000000	7.124015
2238.000000	7.176203
2237.000000	7.275462
2236.000000	7.375246
2235.000000	7.332088
2234.000000	7.311601
2233.000000	7.325092
2232.000000	7.268934
2231.000000	7.369527
2230.000000	7.484283
2229.000000	7.370655
2228.000000	7.432189
2227.000000	7.576738
2226.000000	7.468282
2225.000000	7.470679
2224.000000	7.370566
2223.000000	7.384951
2222.000000	7.359988
2221.000000	7.390745
2220.000000	7.515909
2219.000000	7.436436
2218.000000	7.410289
2217.000000	7.432439
2216.000000	7.367303
2215.000000	7.260210
2214.000000	7.263725
2213.000000	7.240908
2212.000000	7.183615
2211.000000	7.334971
2210.000000	7.359771
2209.000000	7.360478
2208.000000	7.179604
2207.000000	7.186561
2206.000000	7.178608
2205.000000	7.173243
2204.000000	7.020356
2203.000000	7.093157
2202.000000	7.112610
2201.000000	7.029763
2200.000000	7.116235
2199.000000	7.000242
2198.000000	6.922441
2197.000000	6.943962
2196.000000	6.870694
2195.000000	6.837351
2194.000000	6.842128
2193.000000	6.768190
2192.000000	6.794482
2191.000000	6.752420
2190.000000	6.721193
2189.000000	6.748269
2188.000000	6.746957
2187.000000	6.678512
2186.000000	6.564027
2185.000000	6.599307
2184.000000	6.568637
2183.000000	6.621361
2182.000000	6.764392
2181.000000	6.617628
2180.000000	6.622506
2179.000000	6.569263
2178.000000	6.566879
2177.000000	6.590948
2176.000000	6.508988
2175.000000	6.642706
2174.000000	6.699948
2173.000000	6.668985
2172.000000	6.705829
2171.000000	6.731978
2170.000000	6.719607
2169.000000	6.576137
2168.000000	6.713818
2167.000000	6.753438
2166.000000	6.889259
2165.000000	6.848187
2164.000000	6.739619
2163.000000	6.767460
2162.000000	6.859388
2161.000000	6.865470
2160.000000	7.017595
2159.000000	6.903821
2158.000000	6.859505
2157.000000	7.009665
2156.000000	7.145427
2155.000000	7.050179
2154.000000	7.098287
2153.000000	7.359348
2152.000000	7.354232
2151.000000	7.207321
2150.000000	7.205206
2149.000000	7.363180
2148.000000	7.276743
2147.000000	7.491226
2146.000000	7.356443
2145.000000	7.512645
2144.000000	7.508835
2143.000000	7.425560
2142.000000	7.664349
2141.000000	7.701294
2140.000000	7.685596
2139.000000	7.622707
2138.000000	7.689929
2137.000000	7.648595
2136.000000	7.791312
2135.000000	7.773612
2134.000000	7.965714
2133.000000	7.603769
2132.000000	7.690585
2131.000000	7.889030
2130.000000	7.844811
2129.000000	7.998558
2128.000000	7.868514
2127.000000	7.877106
2126.000000	7.791374
2125.000000	7.872356
2124.000000	7.943353
2123.000000	7.937451
2122.000000	8.070486
2121.000000	7.993903
2120.000000	8.045065
2119.000000	8.037955
2118.000000	7.897957
2117.000000	8.114852
2116.000000	8.144129
2115.000000	7.994317
2114.000000	7.898759
2113.000000	7.898403
2112.000000	8.049585
2111.000000	7.986450
2110.000000	7.911487
2109.000000	8.025678
2108.000000	8.066442
2107.000000	7.961982
2106.000000	8.061047
2105.000000	7.991563
2104.000000	7.983513
2103.000000	8.094417
2102.000000	7.990216
2101.000000	7.982934
2100.000000	8.077767
2099.000000	8.084814
2098.000000	7.972880
2097.000000	8.103181
2096.000000	8.001716
2095.000000	8.026998
2094.000000	8.053366
2093.000000	7.888356
2092.000000	7.940291
2091.000000	7.974149
2090.000000	8.010349
2089.000000	7.887623
2088.000000	8.004778
2087.000000	7.994306
2086.000000	7.942141
2085.000000	7.942265
2084.000000	7.894940
2083.000000	7.861763
2082.000000	7.826425
2081.000000	7.805625
2080.000000	7.778998
2079.000000	7.732101
2078.000000	7.676824
2077.000000	7.718775
2076.000000	7.648452
2075.000000	7.529051
2074.000000	7.572949
2073.000000	7.603165
2072.000000	7.534165
2071.000000	7.517995
2070.000000	7.487601
2069.000000	7.358763
2068.000000	7.289041
2067.000000	7.257985
2066.000000	7.191929
2065.000000	7.143806
2064.000000	7.089590
2063.000000	7.017896
2062.000000	7.009583
2061.000000	6.973558
2060.000000	6.939754
2059.000000	6.919901
2058.000000	6.878380
2057.000000	6.801317
2056.000000	6.765359
2055.000000	6.726410
2054.000000	6.629396
2053.000000	6.593714
2052.000000	6.558519
2051.000000	6.536104
2050.000000	6.475630
2049.000000	6.414097
2048.000000	6.443894
2047.000000	6.495858
2046.000000	6.460613
2045.000000	6.427364
2044.000000	6.421609
2043.000000	6.406148
2042.000000	6.408110
2041.000000	6.483231
2040.000000	6.495645
2039.000000	6.448535
2038.000000	6.433491
2037.000000	6.483915
2036.000000	6.515329
2035.000000	6.548816
2034.000000	6.565139
2033.000000	6.585240
2032.000000	6.631607
2031.000000	6.617181
2030.000000	6.600057
2029.000000	6.667479
2028.000000	6.716961
2027.000000	6.713361
2026.000000	6.763361
2025.000000	6.835865
2024.000000	6.841187
2023.000000	6.792574
2022.000000	6.750013
2021.000000	6.786201
2020.000000	6.839768
2019.000000	6.847421
2018.000000	6.856921
2017.000000	6.834975
2016.000000	6.846002
2015.000000	6.853025
2014.000000	6.831546
2013.000000	6.811558
2012.000000	6.771665
2011.000000	6.777032
2010.000000	6.841301
2009.000000	6.795826
2008.000000	6.733925
2007.000000	6.662871
2006.000000	6.643476
2005.000000	6.678858
2004.000000	6.625351
2003.000000	6.561609
2002.000000	6.568846
2001.000000	6.526909
2000.000000	6.461007
1999.000000	6.476197
1998.000000	6.452702
1997.000000	6.414216
1996.000000	6.374532
1995.000000	6.330197
1994.000000	6.265993
1993.000000	6.235069
1992.000000	6.224056
1991.000000	6.194124
1990.000000	6.168826
1989.000000	6.122549
1988.000000	6.141364
1987.000000	6.116067
1986.000000	6.070130
1985.000000	6.011200
1984.000000	5.967215
1983.000000	5.948861
1982.000000	5.919037
1981.000000	5.884586
1980.000000	5.840978
1979.000000	5.788732
1978.000000	5.754068
1977.000000	5.717859
1976.000000	5.710452
1975.000000	5.680618
1974.000000	5.680728
1973.000000	5.660581
1972.000000	5.622295
1971.000000	5.591708
1970.000000	5.596048
1969.000000	5.588304
1968.000000	5.559836
1967.000000	5.526303
1966.000000	5.521037
1965.000000	5.475798
1964.000000	5.443416
1963.000000	5.388859
1962.000000	5.393289
1961.000000	5.351958
1960.000000	5.329021
1959.000000	5.257427
1958.000000	5.312020
1957.000000	5.283063
1956.000000	5.287405
1955.000000	5.305389
1954.000000	5.278848
1953.000000	5.268476
1952.000000	5.206824
1951.000000	5.157483
1950.000000	5.191088
1949.000000	5.142599
1948.000000	5.127892
1947.000000	5.158719
1946.000000	5.170830
1945.000000	5.210864
1944.000000	5.200154
1943.000000	5.158322
1942.000000	5.222648
1941.000000	5.296345
1940.000000	5.241272
1939.000000	5.305742
1938.000000	5.333565
1937.000000	5.310358
1936.000000	5.342753
1935.000000	5.407971
1934.000000	5.447146
1933.000000	5.456551
1932.000000	5.495082
1931.000000	5.446554
1930.000000	5.485518
1929.000000	5.585763
1928.000000	5.646612
1927.000000	5.634083
1926.000000	5.723438
1925.000000	5.832939
1924.000000	5.934219
1923.000000	5.922607
1922.000000	6.087398
1921.000000	6.141852
1920.000000	6.205912
1919.000000	6.281626
1918.000000	6.323782
1917.000000	6.457554
1916.000000	6.519986
1915.000000	6.655328
1914.000000	6.735371
1913.000000	6.888981
1912.000000	6.936966
1911.000000	7.045826
1910.000000	7.240517
1909.000000	7.256297
1908.000000	7.404737
1907.000000	7.524107
1906.000000	7.692566
1905.000000	7.830486
1904.000000	7.929857
1903.000000	8.113974
1902.000000	8.216919
1901.000000	8.418132
1900.000000	8.482749
1899.000000	8.636552
1898.000000	8.851712
1897.000000	8.945449
1896.000000	9.044809
1895.000000	9.223615
1894.000000	9.362001
1893.000000	9.468298
1892.000000	9.694990
1891.000000	9.828991
1890.000000	9.991938
1889.000000	10.135320
1888.000000	10.229096
1887.000000	10.340657
1886.000000	10.431671
1885.000000	10.557486
1884.000000	10.705440
1883.000000	10.835248
1882.000000	10.934462
1881.000000	10.994292
1880.000000	11.107885
1879.000000	11.185676
1878.000000	11.299626
1877.000000	11.366391
1876.000000	11.440450
1875.000000	11.526805
1874.000000	11.600406
1873.000000	11.686207
1872.000000	11.728540
1871.000000	11.719761
1870.000000	11.774070
1869.000000	11.861555
1868.000000	11.888556
1867.000000	11.849955
1866.000000	11.885736
1865.000000	11.914458
1864.000000	11.927742
1863.000000	11.950378
1862.000000	11.973414
1861.000000	11.963181
1860.000000	12.008671
1859.000000	12.021111
1858.000000	12.025836
1857.000000	12.037297
1856.000000	12.046457
1855.000000	12.021765
1854.000000	12.042002
1853.000000	12.041999
1852.000000	12.037460
1851.000000	12.041163
1850.000000	12.024260
1849.000000	12.017166
1848.000000	12.021066
1847.000000	12.009197
1846.000000	12.015344
1845.000000	12.022981
1844.000000	12.007312
1843.000000	12.005458
1842.000000	11.984457
1841.000000	11.962994
1840.000000	11.944847
1839.000000	11.935594
1838.000000	11.910556
1837.000000	11.885322
1836.000000	11.884808
1835.000000	11.853562
1834.000000	11.830870
1833.000000	11.800344
1832.000000	11.781583
1831.000000	11.763373
1830.000000	11.755710
1829.000000	11.732496
1828.000000	11.716452
1827.000000	11.687888
1826.000000	11.656176
1825.000000	11.656929
1824.000000	11.664788
1823.000000	11.645794
1822.000000	11.613841
1821.000000	11.600735
1820.000000	11.576261
1819.000000	11.553308
1818.000000	11.556526
1817.000000	11.524667
1816.000000	11.514489
1815.000000	11.527620
1814.000000	11.509330
1813.000000	11.499987
1812.000000	11.484626
1811.000000	11.469866
1810.000000	11.457758
1809.000000	11.449613
1808.000000	11.454951
1807.000000	11.433474
1806.000000	11.403885
1805.000000	11.383000
1804.000000	11.381018
1803.000000	11.375375
1802.000000	11.364812
1801.000000	11.378900
1800.000000	11.358195
1799.000000	11.338003
1798.000000	11.331373
1797.000000	11.329441
1796.000000	11.321823
1795.000000	11.301915
1794.000000	11.313913
1793.000000	11.312273
1792.000000	11.296606
1791.000000	11.303740
1790.000000	11.287923
1789.000000	11.279620
1788.000000	11.285533
1787.000000	11.292404
1786.000000	11.281095
1785.000000	11.261532
1784.000000	11.262844
1783.000000	11.256671
1782.000000	11.241617
1781.000000	11.239690
1780.000000	11.234883
1779.000000	11.242828
1778.000000	11.216314
1777.000000	11.178431
1776.000000	11.169279
1775.000000	11.160837
1774.000000	11.157470
1773.000000	11.140437
1772.000000	11.090962
1771.000000	11.058092
1770.000000	11.037249
1769.000000	11.018951
1768.000000	11.002353
1767.000000	10.975314
1766.000000	10.960991
1765.000000	10.939649
1764.000000	10.911633
1763.000000	10.877151
1762.000000	10.856952
1761.000000	10.856393
1760.000000	10.834846
1759.000000	10.810087
1758.000000	10.789727
1757.000000	10.779912
1756.000000	10.760288
1755.000000	10.720000
1754.000000	10.714100
1753.000000	10.708239
1752.000000	10.685153
1751.000000	10.669249
1750.000000	10.627861
1749.000000	10.626544
1748.000000	10.611342
1747.000000	10.582040
1746.000000	10.561586
1745.000000	10.494464
1744.000000	10.487913
1743.000000	10.496521
1742.000000	10.478569
1741.000000	10.480947
1740.000000	10.450288
1739.000000	10.442481
1738.000000	10.407339
1737.000000	10.388226
1736.000000	10.373089
1735.000000	10.353919
1734.000000	10.365689
1733.000000	10.326830
1732.000000	10.348342
1731.000000	10.346745
1730.000000	10.328913
1729.000000	10.357469
1728.000000	10.344785
1727.000000	10.387173
1726.000000	10.370879
1725.000000	10.396077
1724.000000	10.435572
1723.000000	10.458561
1722.000000	10.462932
1721.000000	10.467360
1720.000000	10.517855
1719.000000	10.552666
1718.000000	10.591822
1717.000000	10.607472
1716.000000	10.621773
1715.000000	10.618867
1714.000000	10.638532
1713.000000	10.675909
1712.000000	10.676320
1711.000000	10.707822
1710.000000	10.731219
1709.000000	10.747460
1708.000000	10.734937
1707.000000	10.742821
1706.000000	10.747039
1705.000000	10.782024
1704.000000	10.794663
1703.000000	10.785669
1702.000000	10.792017
1701.000000	10.794759
1700.000000	10.825307
1699.000000	10.771709
1698.000000	10.837949
1697.000000	10.850173
1696.000000	10.864891
1695.000000	10.864125
1694.000000	10.863386
1693.000000	10.867443
1692.000000	10.876761
1691.000000	10.884601
1690.000000	10.908012
1689.000000	10.945028
1688.000000	10.971255
1687.000000	10.994722
1686.000000	11.026036
1685.000000	11.067937
1684.000000	11.121003
1683.000000	11.162102
1682.000000	11.203153
1681.000000	11.275592
1680.000000	11.304838
1679.000000	11.348286
1678.000000	11.404549
1677.000000	11.425052
1676.000000	11.486440
1675.000000	11.515272
1674.000000	11.561132
1673.000000	11.622536
1672.000000	11.649510
1671.000000	11.718733
1670.000000	11.744283
1669.000000	11.775180
1668.000000	11.811552
1667.000000	11.843559
1666.000000	11.823517
1665.000000	11.841824
1664.000000	11.855815
1663.000000	11.888192
1662.000000	11.887984
1661.000000	11.922700
1660.000000	11.957937
1659.000000	11.959610
1658.000000	11.980675
1657.000000	12.012831
1656.000000	12.000525
1655.000000	12.009499
1654.000000	12.003108
1653.000000	12.004394
1652.000000	12.030116
1651.000000	12.025521
1650.000000	12.002022
1649.000000	12.001953
1648.000000	11.987044
1647.000000	12.000350
1646.000000	11.976204
1645.000000	11.974979
1644.000000	11.967372
1643.000000	11.946417
1642.000000	11.935432
1641.000000	11.923951
1640.000000	11.924430
1639.000000	11.922246
1638.000000	11.908690
1637.000000	11.883298
1636.000000	11.860435
1635.000000	11.853333
1634.000000	11.845995
1633.000000	11.817537
1632.000000	11.813556
1631.000000	11.804727
1630.000000	11.781059
1629.000000	11.770809
1628.000000	11.760277
1627.000000	11.747471
1626.000000	11.730834
1625.000000	11.722338
1624.000000	11.700145
1623.000000	11.689293
1622.000000	11.679400
1621.000000	11.642170
1620.000000	11.627235
1619.000000	11.604468
1618.000000	11.585598
1617.000000	11.560481
1616.000000	11.545367
1615.000000	11.526898
1614.000000	11.511312
1613.000000	11.486727
1612.000000	11.479580
1611.000000	11.463305
1610.000000	11.432559
1609.000000	11.413722
1608.000000	11.401124
1607.000000	11.384660
1606.000000	11.354690
1605.000000	11.330600
1604.000000	11.318060
1603.000000	11.305199
1602.000000	11.291471
1601.000000	11.264988
1600.000000	11.238851
1599.000000	11.219011
1598.000000	11.209372
1597.000000	11.198884
1596.000000	11.179274
1595.000000	11.156362
1594.000000	11.136889
1593.000000	11.134966
1592.000000	11.128898
1591.000000	11.092215
1590.000000	11.063102
1589.000000	11.052224
1588.000000	11.040902
1587.000000	11.021395
1586.000000	11.001798
1585.000000	10.994504
1584.000000	10.977452
1583.000000	10.956275
1582.000000	10.949428
1581.000000	10.939658
1580.000000	10.921355
1579.000000	10.903793
1578.000000	10.895301
1577.000000	10.890984
1576.000000	10.870971
1575.000000	10.845401
1574.000000	10.819607
1573.000000	10.801265
1572.000000	10.790733
1571.000000	10.783430
1570.000000	10.764376
1569.000000	10.748183
1568.000000	10.733765
1567.000000	10.727724
1566.000000	10.716951
1565.000000	10.712695
1564.000000	10.702849
1563.000000	10.698881
1562.000000	10.689897
1561.000000	10.660333
1560.000000	10.642301
1559.000000	10.631325
1558.000000	10.622765
1557.000000	10.613693
1556.000000	10.602625
1555.000000	10.602232
1554.000000	10.589101
1553.000000	10.580724
1552.000000	10.564304
1551.000000	10.537852
1550.000000	10.526123
1549.000000	10.511999
1548.000000	10.494966
1547.000000	10.486222
1546.000000	10.462200
1545.000000	10.441045
1544.000000	10.398984
1543.000000	10.375493
1542.000000	10.350118
1541.000000	10.304390
1540.000000	10.296887
1539.000000	10.270303
1538.000000	10.224147
1537.000000	10.192845
1536.000000	10.177251
1535.000000	10.151695
1534.000000	10.127270
1533.000000	10.091837
1532.000000	10.054957
1531.000000	10.022849
1530.000000	9.993309
1529.000000	9.989516
1528.000000	10.020849
1527.000000	10.069377
1526.000000	10.118280
1525.000000	10.098494
1524.000000	10.037544
1523.000000	9.975038
1522.000000	9.938691
1521.000000	9.893428
1520.000000	9.864378
1519.000000	9.865479
1518.000000	9.843273
1517.000000	9.814305
1516.000000	9.793556
1515.000000	9.786963
1514.000000	9.800816
1513.000000	9.786036
1512.000000	9.748110
1511.000000	9.736558
1510.000000	9.735210
1509.000000	9.726260
1508.000000	9.705599
1507.000000	9.696020
1506.000000	9.671638
1505.000000	9.668336
1504.000000	9.642867
1503.000000	9.630466
1502.000000	9.618814
1501.000000	9.609012
1500.000000	9.625452
1499.000000	9.606821
1498.000000	9.603153
1497.000000	9.598127
1496.000000	9.602106
1495.000000	9.591158
1494.000000	9.599698
1493.000000	9.606763
1492.000000	9.608255
1491.000000	9.629617
1490.000000	9.618859
1489.000000	9.639307
1488.000000	9.650845
1487.000000	9.660971
1486.000000	9.647759
1485.000000	9.670247
1484.000000	9.686947
1483.000000	9.694503
1482.000000	9.711690
1481.000000	9.718579
1480.000000	9.718290
1479.000000	9.736177
1478.000000	9.750940
1477.000000	9.755773
1476.000000	9.777557
1475.000000	9.777161
1474.000000	9.792558
1473.000000	9.795348
1472.000000	9.815573
1471.000000	9.812142
1470.000000	9.815494
1469.000000	9.854929
1468.000000	9.885770
1467.000000	9.891671
1466.000000	9.875390
1465.000000	9.865882
1464.000000	9.879945
1463.000000	9.920911
1462.000000	9.926018
1461.000000	9.929460
1460.000000	9.918597
1459.000000	9.945879
1458.000000	9.981685
1457.000000	9.977574
1456.000000	9.976645
1455.000000	9.975044
1454.000000	10.001647
1453.000000	10.024480
1452.000000	10.020194
1451.000000	10.021904
1450.000000	10.020885
1449.000000	10.040903
1448.000000	10.085700
1447.000000	10.106247
1446.000000	10.110589
1445.000000	10.122910
