PE UV       SUBTECH     SPECTRUM    ASCII       PEDS        4.00        
   -1
TTmsopph192.Sample.asc
18/03/21
09:27:28.00
18/03/21
09:27:28.00
Administrator

200.000000
1
Lambda 750
750N8071901
PerkinElmer UV WinLab 6.0.4.0738 / 1.61.00 Lambda 900

0
0
3350/servo 860.8/2
0
0
UV/VIS
1
1
1
CommonBeamDepol,150mm sphere / downward view
0
0
0
0
Program
Program
3350/servo 860.8/2
3350/0.2 860.8/0.2
3350/0.2 860.8/0.2
0
1
 
 
 
0
 
860.8
319.2
860.8
Front
100
on
 
 
0
0
0
 
0
 
 
 
0
 
 
0
0
0
0
0
 
 
 
 
0
0


0
0
#HDR
-1
-1
#GR
nm
%T
1.0
0.0
2350.000000
-1.000000
2151
8
12.188793
-0.005642
#DATA
2350.000000	2.874424
2349.000000	2.777643
2348.000000	2.397442
2347.000000	3.439462
2346.000000	2.896287
2345.000000	2.958558
2344.000000	2.807276
2343.000000	2.750327
2342.000000	3.088125
2341.000000	3.180371
2340.000000	3.290525
2339.000000	3.373495
2338.000000	3.875552
2337.000000	3.551249
2336.000000	3.449346
2335.000000	4.103756
2334.000000	3.823948
2333.000000	4.022497
2332.000000	3.895500
2331.000000	3.787208
2330.000000	3.906059
2329.000000	3.964621
2328.000000	3.841296
2327.000000	3.579445
2326.000000	3.680288
2325.000000	3.476739
2324.000000	3.479721
2323.000000	3.488476
2322.000000	3.700774
2321.000000	3.359832
2320.000000	3.612060
2319.000000	4.064074
2318.000000	3.671365
2317.000000	3.654597
2316.000000	3.512407
2315.000000	3.459309
2314.000000	3.285760
2313.000000	3.303489
2312.000000	3.415050
2311.000000	3.457706
2310.000000	3.131308
2309.000000	3.449001
2308.000000	3.217249
2307.000000	3.251705
2306.000000	3.330043
2305.000000	3.341012
2304.000000	3.054356
2303.000000	3.115215
2302.000000	3.336410
2301.000000	3.162243
2300.000000	3.189812
2299.000000	3.031297
2298.000000	2.985675
2297.000000	3.138657
2296.000000	3.121844
2295.000000	3.080821
2294.000000	3.266045
2293.000000	3.070658
2292.000000	2.846174
2291.000000	2.892358
2290.000000	3.000540
2289.000000	3.041115
2288.000000	3.088308
2287.000000	3.090212
2286.000000	3.002910
2285.000000	2.991417
2284.000000	2.960110
2283.000000	2.905703
2282.000000	2.932265
2281.000000	2.797167
2280.000000	3.027157
2279.000000	2.993102
2278.000000	2.928774
2277.000000	2.777279
2276.000000	2.811215
2275.000000	2.983227
2274.000000	3.026779
2273.000000	2.931504
2272.000000	2.887612
2271.000000	2.938657
2270.000000	2.955978
2269.000000	2.926341
2268.000000	2.901704
2267.000000	2.879502
2266.000000	2.956378
2265.000000	3.007501
2264.000000	3.032242
2263.000000	3.115145
2262.000000	3.248252
2261.000000	3.219438
2260.000000	3.258677
2259.000000	3.193213
2258.000000	3.154581
2257.000000	3.212737
2256.000000	3.372900
2255.000000	3.523212
2254.000000	3.542886
2253.000000	3.501213
2252.000000	3.560109
2251.000000	3.519712
2250.000000	3.583801
2249.000000	3.854767
2248.000000	3.851761
2247.000000	3.796308
2246.000000	3.878833
2245.000000	3.962599
2244.000000	4.069868
2243.000000	4.144271
2242.000000	4.154866
2241.000000	4.098738
2240.000000	4.128371
2239.000000	4.179948
2238.000000	4.217282
2237.000000	4.270788
2236.000000	4.408061
2235.000000	4.477278
2234.000000	4.401050
2233.000000	4.383089
2232.000000	4.274743
2231.000000	4.344031
2230.000000	4.488866
2229.000000	4.439500
2228.000000	4.484844
2227.000000	4.438451
2226.000000	4.416761
2225.000000	4.476450
2224.000000	4.439033
2223.000000	4.378501
2222.000000	4.410124
2221.000000	4.354479
2220.000000	4.332900
2219.000000	4.446783
2218.000000	4.486550
2217.000000	4.387241
2216.000000	4.334621
2215.000000	4.230297
2214.000000	4.250341
2213.000000	4.321435
2212.000000	4.213689
2211.000000	4.159653
2210.000000	4.186999
2209.000000	4.187800
2208.000000	4.125157
2207.000000	4.159512
2206.000000	4.032940
2205.000000	4.037035
2204.000000	4.060612
2203.000000	3.978424
2202.000000	4.074429
2201.000000	4.103071
2200.000000	3.996554
2199.000000	4.000921
2198.000000	4.054387
2197.000000	3.969310
2196.000000	3.917815
2195.000000	3.841112
2194.000000	3.830922
2193.000000	3.822796
2192.000000	3.873835
2191.000000	3.827342
2190.000000	3.810663
2189.000000	3.849664
2188.000000	3.725830
2187.000000	3.709530
2186.000000	3.718161
2185.000000	3.741070
2184.000000	3.601809
2183.000000	3.830048
2182.000000	3.712644
2181.000000	3.559501
2180.000000	3.614154
2179.000000	3.708241
2178.000000	3.755697
2177.000000	3.651251
2176.000000	3.630611
2175.000000	3.663991
2174.000000	3.633719
2173.000000	3.789012
2172.000000	3.623301
2171.000000	3.751101
2170.000000	3.812336
2169.000000	3.869939
2168.000000	3.850660
2167.000000	3.862443
2166.000000	3.797110
2165.000000	3.875471
2164.000000	3.847386
2163.000000	3.710138
2162.000000	3.916744
2161.000000	3.822099
2160.000000	3.811208
2159.000000	3.878216
2158.000000	4.057569
2157.000000	4.061078
2156.000000	4.043069
2155.000000	4.026713
2154.000000	4.164491
2153.000000	4.316562
2152.000000	4.272321
2151.000000	4.314866
2150.000000	4.261235
2149.000000	4.179320
2148.000000	4.117094
2147.000000	4.222833
2146.000000	4.176994
2145.000000	4.246603
2144.000000	4.458450
2143.000000	4.430386
2142.000000	4.304669
2141.000000	4.504336
2140.000000	4.598244
2139.000000	4.582003
2138.000000	4.672162
2137.000000	4.632615
2136.000000	4.460433
2135.000000	4.539624
2134.000000	4.647020
2133.000000	4.537697
2132.000000	4.688296
2131.000000	4.863528
2130.000000	5.008559
2129.000000	4.827801
2128.000000	4.873315
2127.000000	4.772759
2126.000000	4.800501
2125.000000	4.722403
2124.000000	4.794123
2123.000000	4.830138
2122.000000	4.925115
2121.000000	4.770126
2120.000000	4.835931
2119.000000	4.804329
2118.000000	4.855369
2117.000000	4.920451
2116.000000	4.982501
2115.000000	5.136018
2114.000000	4.961401
2113.000000	4.849310
2112.000000	4.810778
2111.000000	4.871485
2110.000000	4.815103
2109.000000	4.896462
2108.000000	4.958823
2107.000000	4.907068
2106.000000	4.994329
2105.000000	4.988534
2104.000000	5.038257
2103.000000	5.056061
2102.000000	4.943999
2101.000000	5.005559
2100.000000	4.980081
2099.000000	4.906007
2098.000000	4.922491
2097.000000	4.835774
2096.000000	4.903631
2095.000000	4.909260
2094.000000	4.932705
2093.000000	4.903334
2092.000000	4.823227
2091.000000	4.955674
2090.000000	4.928713
2089.000000	4.805140
2088.000000	4.848423
2087.000000	4.970466
2086.000000	4.905029
2085.000000	4.978475
2084.000000	4.909950
2083.000000	4.852490
2082.000000	4.820642
2081.000000	4.781489
2080.000000	4.751247
2079.000000	4.816480
2078.000000	4.800941
2077.000000	4.733059
2076.000000	4.667460
2075.000000	4.696090
2074.000000	4.620360
2073.000000	4.639865
2072.000000	4.609222
2071.000000	4.538526
2070.000000	4.509941
2069.000000	4.438371
2068.000000	4.319984
2067.000000	4.267440
2066.000000	4.252973
2065.000000	4.385879
2064.000000	4.313920
2063.000000	4.192120
2062.000000	4.185738
2061.000000	4.135581
2060.000000	4.075014
2059.000000	4.065591
2058.000000	4.006482
2057.000000	3.950644
2056.000000	3.940931
2055.000000	3.889273
2054.000000	3.813795
2053.000000	3.740801
2052.000000	3.740349
2051.000000	3.772804
2050.000000	3.764115
2049.000000	3.690241
2048.000000	3.605843
2047.000000	3.593799
2046.000000	3.613878
2045.000000	3.620992
2044.000000	3.588239
2043.000000	3.609226
2042.000000	3.596990
2041.000000	3.569839
2040.000000	3.590065
2039.000000	3.580117
2038.000000	3.577152
2037.000000	3.589236
2036.000000	3.598336
2035.000000	3.643860
2034.000000	3.668984
2033.000000	3.678739
2032.000000	3.722208
2031.000000	3.752325
2030.000000	3.774014
2029.000000	3.818372
2028.000000	3.822022
2027.000000	3.831304
2026.000000	3.905177
2025.000000	3.919627
2024.000000	3.867910
2023.000000	3.863639
2022.000000	3.866542
2021.000000	3.923110
2020.000000	3.956791
2019.000000	3.915947
2018.000000	3.936941
2017.000000	3.941041
2016.000000	3.992552
2015.000000	4.031335
2014.000000	3.992823
2013.000000	3.976330
2012.000000	3.981252
2011.000000	3.990722
2010.000000	3.966873
2009.000000	3.928262
2008.000000	3.888383
2007.000000	3.852524
2006.000000	3.822884
2005.000000	3.798081
2004.000000	3.766116
2003.000000	3.773746
2002.000000	3.769626
2001.000000	3.715306
2000.000000	3.701169
1999.000000	3.683718
1998.000000	3.666109
1997.000000	3.650171
1996.000000	3.631501
1995.000000	3.618288
1994.000000	3.568925
1993.000000	3.517954
1992.000000	3.514414
1991.000000	3.486103
1990.000000	3.454730
1989.000000	3.437783
1988.000000	3.400641
1987.000000	3.398753
1986.000000	3.357717
1985.000000	3.367038
1984.000000	3.349919
1983.000000	3.281695
1982.000000	3.268280
1981.000000	3.247883
1980.000000	3.221749
1979.000000	3.197871
1978.000000	3.215922
1977.000000	3.186843
1976.000000	3.162259
1975.000000	3.117946
1974.000000	3.065500
1973.000000	3.057041
1972.000000	3.038214
1971.000000	3.002644
1970.000000	2.976803
1969.000000	2.955257
1968.000000	2.983455
1967.000000	3.005817
1966.000000	2.989828
1965.000000	2.939683
1964.000000	2.946778
1963.000000	2.924770
1962.000000	2.915704
1961.000000	2.880516
1960.000000	2.834259
1959.000000	2.848676
1958.000000	2.853420
1957.000000	2.774346
1956.000000	2.802775
1955.000000	2.809094
1954.000000	2.817733
1953.000000	2.764533
1952.000000	2.852507
1951.000000	2.811877
1950.000000	2.759918
1949.000000	2.737146
1948.000000	2.708083
1947.000000	2.736101
1946.000000	2.738492
1945.000000	2.754302
1944.000000	2.720456
1943.000000	2.777363
1942.000000	2.819363
1941.000000	2.796912
1940.000000	2.853014
1939.000000	2.782979
1938.000000	2.882171
1937.000000	2.875770
1936.000000	2.974080
1935.000000	2.923881
1934.000000	2.907644
1933.000000	2.893703
1932.000000	3.046431
1931.000000	3.063356
1930.000000	3.118535
1929.000000	3.084610
1928.000000	3.100776
1927.000000	3.121029
1926.000000	3.156061
1925.000000	3.290592
1924.000000	3.371307
1923.000000	3.404781
1922.000000	3.459866
1921.000000	3.526038
1920.000000	3.569484
1919.000000	3.609201
1918.000000	3.714857
1917.000000	3.788689
1916.000000	3.956063
1915.000000	3.974879
1914.000000	4.026471
1913.000000	4.203064
1912.000000	4.274871
1911.000000	4.343698
1910.000000	4.384338
1909.000000	4.537623
1908.000000	4.772055
1907.000000	4.830610
1906.000000	4.928855
1905.000000	5.064950
1904.000000	5.225081
1903.000000	5.428216
1902.000000	5.486480
1901.000000	5.589796
1900.000000	5.808104
1899.000000	5.996191
1898.000000	6.169190
1897.000000	6.274075
1896.000000	6.412122
1895.000000	6.586103
1894.000000	6.741048
1893.000000	6.904323
1892.000000	7.081972
1891.000000	7.235686
1890.000000	7.351833
1889.000000	7.507211
1888.000000	7.664048
1887.000000	7.790508
1886.000000	7.969578
1885.000000	8.082220
1884.000000	8.234836
1883.000000	8.350141
1882.000000	8.527607
1881.000000	8.646647
1880.000000	8.757063
1879.000000	8.819924
1878.000000	8.941466
1877.000000	9.098919
1876.000000	9.155162
1875.000000	9.224834
1874.000000	9.290434
1873.000000	9.386511
1872.000000	9.476886
1871.000000	9.507110
1870.000000	9.547161
1869.000000	9.602578
1868.000000	9.693899
1867.000000	9.673609
1866.000000	9.760623
1865.000000	9.812444
1864.000000	9.810837
1863.000000	9.862232
1862.000000	9.877076
1861.000000	9.845102
1860.000000	9.865364
1859.000000	9.868627
1858.000000	9.894745
1857.000000	9.934388
1856.000000	9.941879
1855.000000	9.926772
1854.000000	9.954808
1853.000000	9.954862
1852.000000	9.976042
1851.000000	9.994792
1850.000000	9.993765
1849.000000	9.981792
1848.000000	9.990040
1847.000000	9.959609
1846.000000	9.947533
1845.000000	9.961092
1844.000000	9.927897
1843.000000	9.930990
1842.000000	9.942644
1841.000000	9.937453
1840.000000	9.884571
1839.000000	9.878020
1838.000000	9.892709
1837.000000	9.849675
1836.000000	9.800732
1835.000000	9.770396
1834.000000	9.744724
1833.000000	9.732678
1832.000000	9.745912
1831.000000	9.725429
1830.000000	9.710337
1829.000000	9.688596
1828.000000	9.670937
1827.000000	9.652596
1826.000000	9.630023
1825.000000	9.607011
1824.000000	9.584400
1823.000000	9.576912
1822.000000	9.543466
1821.000000	9.520066
1820.000000	9.510135
1819.000000	9.464585
1818.000000	9.459352
1817.000000	9.446140
1816.000000	9.423248
1815.000000	9.417485
1814.000000	9.408255
1813.000000	9.388421
1812.000000	9.373251
1811.000000	9.373836
1810.000000	9.372994
1809.000000	9.365885
1808.000000	9.345364
1807.000000	9.322889
1806.000000	9.318679
1805.000000	9.292827
1804.000000	9.261276
1803.000000	9.266555
1802.000000	9.241647
1801.000000	9.198909
1800.000000	9.203477
1799.000000	9.218395
1798.000000	9.221146
1797.000000	9.208086
1796.000000	9.181788
1795.000000	9.189067
1794.000000	9.184206
1793.000000	9.170815
1792.000000	9.183285
1791.000000	9.184906
1790.000000	9.178056
1789.000000	9.165589
1788.000000	9.162699
1787.000000	9.143846
1786.000000	9.133595
1785.000000	9.127881
1784.000000	9.116440
1783.000000	9.115976
1782.000000	9.123243
1781.000000	9.117036
1780.000000	9.107815
1779.000000	9.077887
1778.000000	9.069261
1777.000000	9.024961
1776.000000	9.004151
1775.000000	9.005836
1774.000000	8.984254
1773.000000	8.967803
1772.000000	8.939339
1771.000000	8.920447
1770.000000	8.900114
1769.000000	8.863282
1768.000000	8.851246
1767.000000	8.822691
1766.000000	8.799256
1765.000000	8.778825
1764.000000	8.749409
1763.000000	8.725983
1762.000000	8.687375
1761.000000	8.648874
1760.000000	8.631376
1759.000000	8.627235
1758.000000	8.588459
1757.000000	8.568554
1756.000000	8.562447
1755.000000	8.543388
1754.000000	8.527152
1753.000000	8.507662
1752.000000	8.489567
1751.000000	8.470123
1750.000000	8.454559
1749.000000	8.435809
1748.000000	8.410396
1747.000000	8.369214
1746.000000	8.337033
1745.000000	8.321932
1744.000000	8.284417
1743.000000	8.266626
1742.000000	8.259813
1741.000000	8.230296
1740.000000	8.202462
1739.000000	8.177697
1738.000000	8.194428
1737.000000	8.193103
1736.000000	8.188787
1735.000000	8.159777
1734.000000	8.136240
1733.000000	8.114607
1732.000000	8.115895
1731.000000	8.141280
1730.000000	8.138977
1729.000000	8.157151
1728.000000	8.151048
1727.000000	8.151147
1726.000000	8.206491
1725.000000	8.202981
1724.000000	8.236279
1723.000000	8.302777
1722.000000	8.309616
1721.000000	8.332510
1720.000000	8.357190
1719.000000	8.418795
1718.000000	8.429228
1717.000000	8.471071
1716.000000	8.510064
1715.000000	8.524185
1714.000000	8.559255
1713.000000	8.607436
1712.000000	8.575463
1711.000000	8.607606
1710.000000	8.620976
1709.000000	8.631880
1708.000000	8.661784
1707.000000	8.666327
1706.000000	8.663500
1705.000000	8.678748
1704.000000	8.702458
1703.000000	8.692099
1702.000000	8.676313
1701.000000	8.663966
1700.000000	8.702999
1699.000000	8.663513
1698.000000	8.716713
1697.000000	8.745357
1696.000000	8.745722
1695.000000	8.737867
1694.000000	8.761278
1693.000000	8.776947
1692.000000	8.792550
1691.000000	8.807646
1690.000000	8.820446
1689.000000	8.871596
1688.000000	8.894313
1687.000000	8.942678
1686.000000	8.983386
1685.000000	9.030879
1684.000000	9.079653
1683.000000	9.134785
1682.000000	9.204379
1681.000000	9.278650
1680.000000	9.313148
1679.000000	9.366069
1678.000000	9.457816
1677.000000	9.499094
1676.000000	9.550305
1675.000000	9.641131
1674.000000	9.696269
1673.000000	9.759360
1672.000000	9.788992
1671.000000	9.870223
1670.000000	9.931701
1669.000000	9.977616
1668.000000	10.010390
1667.000000	10.067244
1666.000000	10.094294
1665.000000	10.117213
1664.000000	10.127817
1663.000000	10.170378
1662.000000	10.173743
1661.000000	10.215562
1660.000000	10.235810
1659.000000	10.252620
1658.000000	10.281460
1657.000000	10.303367
1656.000000	10.321835
1655.000000	10.324365
1654.000000	10.327012
1653.000000	10.337329
1652.000000	10.362400
1651.000000	10.344123
1650.000000	10.347904
1649.000000	10.330946
1648.000000	10.315126
1647.000000	10.314149
1646.000000	10.299222
1645.000000	10.303171
1644.000000	10.297104
1643.000000	10.281230
1642.000000	10.271892
1641.000000	10.274164
1640.000000	10.247661
1639.000000	10.239686
1638.000000	10.213028
1637.000000	10.201526
1636.000000	10.178017
1635.000000	10.157268
1634.000000	10.152678
1633.000000	10.134578
1632.000000	10.110242
1631.000000	10.087354
1630.000000	10.066110
1629.000000	10.051758
1628.000000	10.025648
1627.000000	10.008393
1626.000000	9.991169
1625.000000	9.978555
1624.000000	9.965596
1623.000000	9.945828
1622.000000	9.919937
1621.000000	9.896373
1620.000000	9.873949
1619.000000	9.839166
1618.000000	9.823167
1617.000000	9.802087
1616.000000	9.765823
1615.000000	9.746276
1614.000000	9.728715
1613.000000	9.716659
1612.000000	9.687959
1611.000000	9.668225
1610.000000	9.650481
1609.000000	9.609789
1608.000000	9.581509
1607.000000	9.567627
1606.000000	9.543717
1605.000000	9.518074
1604.000000	9.486443
1603.000000	9.450583
1602.000000	9.426327
1601.000000	9.411784
1600.000000	9.401512
1599.000000	9.375486
1598.000000	9.345889
1597.000000	9.319386
1596.000000	9.290162
1595.000000	9.273134
1594.000000	9.262263
1593.000000	9.236898
1592.000000	9.218856
1591.000000	9.208574
1590.000000	9.175989
1589.000000	9.145349
1588.000000	9.134769
1587.000000	9.123515
1586.000000	9.095088
1585.000000	9.065959
1584.000000	9.044538
1583.000000	9.032273
1582.000000	9.013532
1581.000000	8.999673
1580.000000	8.992879
1579.000000	8.978033
1578.000000	8.966127
1577.000000	8.950020
1576.000000	8.931412
1575.000000	8.910059
1574.000000	8.889917
1573.000000	8.859708
1572.000000	8.833580
1571.000000	8.817786
1570.000000	8.813568
1569.000000	8.795697
1568.000000	8.769052
1567.000000	8.760495
1566.000000	8.746616
1565.000000	8.720456
1564.000000	8.705548
1563.000000	8.697748
1562.000000	8.682821
1561.000000	8.679324
1560.000000	8.668939
1559.000000	8.647752
1558.000000	8.645017
1557.000000	8.637546
1556.000000	8.621159
1555.000000	8.606655
1554.000000	8.594550
1553.000000	8.584094
1552.000000	8.573552
1551.000000	8.564077
1550.000000	8.543324
1549.000000	8.525422
1548.000000	8.512213
1547.000000	8.473473
1546.000000	8.455780
1545.000000	8.431728
1544.000000	8.390794
1543.000000	8.352475
1542.000000	8.329470
1541.000000	8.295833
1540.000000	8.261484
1539.000000	8.235988
1538.000000	8.189100
1537.000000	8.155313
1536.000000	8.124436
1535.000000	8.090075
1534.000000	8.056813
1533.000000	8.015864
1532.000000	7.974316
1531.000000	7.945025
1530.000000	7.920089
1529.000000	7.907290
1528.000000	7.956737
1527.000000	8.005759
1526.000000	8.002619
1525.000000	7.943822
1524.000000	7.868507
1523.000000	7.827612
1522.000000	7.773352
1521.000000	7.781718
1520.000000	7.790937
1519.000000	7.744234
1518.000000	7.728051
1517.000000	7.718825
1516.000000	7.682433
1515.000000	7.662290
1514.000000	7.646748
1513.000000	7.644155
1512.000000	7.640922
1511.000000	7.609801
1510.000000	7.584261
1509.000000	7.587555
1508.000000	7.570131
1507.000000	7.583422
1506.000000	7.584069
1505.000000	7.576365
1504.000000	7.560763
1503.000000	7.540647
1502.000000	7.523499
1501.000000	7.518814
1500.000000	7.523506
1499.000000	7.518965
1498.000000	7.504224
1497.000000	7.510228
1496.000000	7.498810
1495.000000	7.501988
1494.000000	7.513913
1493.000000	7.509092
1492.000000	7.525686
1491.000000	7.539384
1490.000000	7.539823
1489.000000	7.540542
1488.000000	7.564481
1487.000000	7.561928
1486.000000	7.573365
1485.000000	7.601103
1484.000000	7.615248
1483.000000	7.622973
1482.000000	7.649443
1481.000000	7.653065
1480.000000	7.672736
1479.000000	7.680265
1478.000000	7.718664
1477.000000	7.725341
1476.000000	7.739999
1475.000000	7.746412
1474.000000	7.754534
1473.000000	7.783911
1472.000000	7.783194
1471.000000	7.803710
1470.000000	7.813328
1469.000000	7.825570
1468.000000	7.846695
1467.000000	7.882540
1466.000000	7.901654
1465.000000	7.907287
1464.000000	7.914306
1463.000000	7.926497
1462.000000	7.945796
1461.000000	7.977287
1460.000000	7.969078
1459.000000	7.979803
1458.000000	7.991592
1457.000000	8.038501
1456.000000	8.065462
1455.000000	8.056622
1454.000000	8.049102
1453.000000	8.071493
1452.000000	8.113324
1451.000000	8.139715
1450.000000	8.151412
1449.000000	8.165548
1448.000000	8.189382
1447.000000	8.235865
1446.000000	8.262762
1445.000000	8.270625
1444.000000	8.286906
1443.000000	8.286455
1442.000000	8.311111
1441.000000	8.347610
1440.000000	8.399064
1439.000000	8.448428
1438.000000	8.479982
1437.000000	8.485740
1436.000000	8.517544
1435.000000	8.530494
1434.000000	8.571150
1433.000000	8.615463
1432.000000	8.653894
1431.000000	8.686874
1430.000000	8.728614
