PE UV       SUBTECH     SPECTRUM    ASCII       PEDS        4.00        
   -1
Empty Chamber.Sample.asc
18/03/08
09:00:45.00
18/03/08
09:00:45.00
Administrator

200.000000
1
Lambda 750
750N8071901
PerkinElmer UV WinLab 6.0.4.0738 / 1.61.00 Lambda 900

0
0
3350/servo 860.8/2
0
0
UV/VIS
1
1
1
CommonBeamDepol,150mm sphere / downward view
0
0
0
0
Program
Program
3350/servo 860.8/2
3350/0.2 860.8/0.2
3350/0.2 860.8/0.2
0
1
 
 
 
0
 
860.8
319.2
860.8
Front
100
on
 
 
0
0
0
 
0
 
 
 
0
 
 
0
0
0
0
0
 
 
 
 
0
0


0
0
#HDR
-1
-1
#GR
nm
%T
1.0
0.0
2350.000000
-1.000000
2151
8
100.581447
99.354305
#DATA
2350.000000	100.087029
2349.000000	99.877435
2348.000000	100.055852
2347.000000	100.154813
2346.000000	100.060315
2345.000000	99.875326
2344.000000	99.694764
2343.000000	99.999899
2342.000000	100.232648
2341.000000	100.212815
2340.000000	99.487374
2339.000000	99.769399
2338.000000	100.061760
2337.000000	99.890235
2336.000000	99.986973
2335.000000	99.947108
2334.000000	99.831994
2333.000000	100.172686
2332.000000	99.755165
2331.000000	99.846650
2330.000000	99.915518
2329.000000	99.836401
2328.000000	99.622302
2327.000000	99.693528
2326.000000	99.784005
2325.000000	100.463588
2324.000000	100.193740
2323.000000	100.190020
2322.000000	100.381382
2321.000000	100.137015
2320.000000	99.985143
2319.000000	100.132772
2318.000000	100.025687
2317.000000	100.076160
2316.000000	99.920000
2315.000000	99.762808
2314.000000	100.136204
2313.000000	99.896335
2312.000000	99.827610
2311.000000	100.185450
2310.000000	99.819141
2309.000000	99.972347
2308.000000	100.225338
2307.000000	100.025459
2306.000000	99.954580
2305.000000	99.853553
2304.000000	99.937087
2303.000000	100.232957
2302.000000	100.135480
2301.000000	99.968885
2300.000000	100.211413
2299.000000	100.202254
2298.000000	100.009124
2297.000000	100.162259
2296.000000	100.281172
2295.000000	100.180940
2294.000000	100.102417
2293.000000	99.763239
2292.000000	99.782138
2291.000000	99.886558
2290.000000	100.082911
2289.000000	99.986624
2288.000000	100.029271
2287.000000	100.160866
2286.000000	99.951758
2285.000000	99.807011
2284.000000	100.045753
2283.000000	99.967446
2282.000000	100.086608
2281.000000	100.277449
2280.000000	100.412622
2279.000000	100.268467
2278.000000	99.959018
2277.000000	99.833878
2276.000000	100.073313
2275.000000	100.027160
2274.000000	99.910256
2273.000000	100.107765
2272.000000	100.098592
2271.000000	99.809855
2270.000000	100.016639
2269.000000	100.162051
2268.000000	99.959546
2267.000000	100.010855
2266.000000	100.113114
2265.000000	100.015006
2264.000000	100.052728
2263.000000	99.998682
2262.000000	99.785019
2261.000000	99.891588
2260.000000	100.089260
2259.000000	100.002533
2258.000000	100.015208
2257.000000	100.040477
2256.000000	99.898213
2255.000000	100.041297
2254.000000	99.967943
2253.000000	99.844531
2252.000000	99.991488
2251.000000	100.079504
2250.000000	100.057708
2249.000000	100.181296
2248.000000	100.211415
2247.000000	99.946943
2246.000000	99.939874
2245.000000	100.048861
2244.000000	100.010030
2243.000000	100.062459
2242.000000	100.041462
2241.000000	99.902005
2240.000000	99.956179
2239.000000	100.050306
2238.000000	100.085606
2237.000000	100.036936
2236.000000	100.056420
2235.000000	100.068303
2234.000000	99.941161
2233.000000	99.976381
2232.000000	100.095075
2231.000000	99.979637
2230.000000	99.930784
2229.000000	99.995235
2228.000000	100.191924
2227.000000	100.127759
2226.000000	99.892655
2225.000000	99.968363
2224.000000	99.964511
2223.000000	99.964628
2222.000000	100.135907
2221.000000	100.120563
2220.000000	99.993715
2219.000000	100.013484
2218.000000	100.082500
2217.000000	100.026069
2216.000000	100.008615
2215.000000	99.879326
2214.000000	100.016520
2213.000000	100.108369
2212.000000	99.971416
2211.000000	99.921907
2210.000000	100.070040
2209.000000	99.962305
2208.000000	100.018244
2207.000000	100.109650
2206.000000	100.033158
2205.000000	100.063920
2204.000000	100.106692
2203.000000	100.033866
2202.000000	100.093066
2201.000000	100.023704
2200.000000	99.968092
2199.000000	99.921932
2198.000000	100.075274
2197.000000	100.025735
2196.000000	100.019754
2195.000000	99.896649
2194.000000	99.844451
2193.000000	99.905811
2192.000000	100.027252
2191.000000	100.184825
2190.000000	100.015495
2189.000000	100.120338
2188.000000	100.126605
2187.000000	99.945292
2186.000000	100.020638
2185.000000	99.991499
2184.000000	99.997975
2183.000000	99.967751
2182.000000	99.902633
2181.000000	100.047354
2180.000000	100.006679
2179.000000	99.826581
2178.000000	99.813418
2177.000000	100.039555
2176.000000	99.971476
2175.000000	100.012034
2174.000000	100.193255
2173.000000	99.848485
2172.000000	100.097176
2171.000000	99.983631
2170.000000	99.837118
2169.000000	100.068627
2168.000000	99.934788
2167.000000	100.014657
2166.000000	100.130766
2165.000000	100.085245
2164.000000	99.811548
2163.000000	100.056622
2162.000000	100.001819
2161.000000	100.157557
2160.000000	100.239021
2159.000000	100.153096
2158.000000	99.754873
2157.000000	100.062773
2156.000000	100.008980
2155.000000	100.017047
2154.000000	99.935147
2153.000000	100.242267
2152.000000	99.843153
2151.000000	99.950997
2150.000000	100.020278
2149.000000	99.822492
2148.000000	99.931148
2147.000000	100.032773
2146.000000	99.836661
2145.000000	99.835188
2144.000000	99.990919
2143.000000	99.801141
2142.000000	99.660616
2141.000000	100.064514
2140.000000	100.042769
2139.000000	100.060905
2138.000000	100.076748
2137.000000	99.870829
2136.000000	100.047152
2135.000000	100.133805
2134.000000	99.984082
2133.000000	99.919721
2132.000000	100.173069
2131.000000	100.097228
2130.000000	99.973983
2129.000000	99.739189
2128.000000	99.894168
2127.000000	99.971847
2126.000000	99.852037
2125.000000	99.939249
2124.000000	100.018772
2123.000000	100.127156
2122.000000	99.789442
2121.000000	100.088514
2120.000000	99.896651
2119.000000	99.863277
2118.000000	99.934504
2117.000000	100.000706
2116.000000	100.181766
2115.000000	100.050393
2114.000000	99.894335
2113.000000	99.991518
2112.000000	100.121876
2111.000000	99.891868
2110.000000	100.015061
2109.000000	100.113778
2108.000000	100.052677
2107.000000	100.111204
2106.000000	100.110695
2105.000000	100.198452
2104.000000	99.990201
2103.000000	100.046080
2102.000000	100.001314
2101.000000	99.976250
2100.000000	99.992416
2099.000000	100.116331
2098.000000	100.042064
2097.000000	100.100873
2096.000000	100.009003
2095.000000	99.992318
2094.000000	100.099628
2093.000000	100.159822
2092.000000	100.029549
2091.000000	100.007484
2090.000000	99.851158
2089.000000	99.936905
2088.000000	100.010920
2087.000000	100.052795
2086.000000	100.011732
2085.000000	99.979478
2084.000000	99.902404
2083.000000	99.993220
2082.000000	99.918590
2081.000000	99.983307
2080.000000	100.014366
2079.000000	100.005465
2078.000000	99.925024
2077.000000	99.949922
2076.000000	100.028239
2075.000000	100.008400
2074.000000	99.937601
2073.000000	99.944582
2072.000000	100.047253
2071.000000	100.062034
2070.000000	99.937890
2069.000000	99.906074
2068.000000	99.975697
2067.000000	100.036668
2066.000000	99.945861
2065.000000	99.953670
2064.000000	100.061864
2063.000000	100.064640
2062.000000	99.907764
2061.000000	99.945916
2060.000000	99.939037
2059.000000	99.912130
2058.000000	100.040502
2057.000000	100.099762
2056.000000	99.985219
2055.000000	100.062796
2054.000000	100.015092
2053.000000	100.057059
2052.000000	100.036479
2051.000000	99.936606
2050.000000	99.961211
2049.000000	100.026351
2048.000000	100.113161
2047.000000	100.113086
2046.000000	100.007601
2045.000000	99.896802
2044.000000	99.941948
2043.000000	100.045595
2042.000000	100.031807
2041.000000	99.979732
2040.000000	99.959562
2039.000000	99.961790
2038.000000	100.014901
2037.000000	99.990370
2036.000000	99.922280
2035.000000	100.012064
2034.000000	100.077610
2033.000000	100.056605
2032.000000	100.044327
2031.000000	100.055269
2030.000000	99.966150
2029.000000	99.947793
2028.000000	100.009634
2027.000000	100.006896
2026.000000	100.017450
2025.000000	100.029223
2024.000000	99.982859
2023.000000	100.021304
2022.000000	100.019682
2021.000000	99.983362
2020.000000	100.002029
2019.000000	100.019689
2018.000000	100.034012
2017.000000	99.991068
2016.000000	99.987008
2015.000000	100.025280
2014.000000	99.998274
2013.000000	99.941645
2012.000000	99.933620
2011.000000	99.960301
2010.000000	99.953702
2009.000000	99.977459
2008.000000	100.027123
2007.000000	99.979280
2006.000000	99.989742
2005.000000	100.007009
2004.000000	100.033016
2003.000000	100.029668
2002.000000	100.018696
2001.000000	100.023675
2000.000000	99.999085
1999.000000	99.964036
1998.000000	99.962618
1997.000000	99.974295
1996.000000	99.969932
1995.000000	100.013210
1994.000000	99.991159
1993.000000	100.028761
1992.000000	99.993903
1991.000000	99.990244
1990.000000	100.035889
1989.000000	100.055213
1988.000000	100.020331
1987.000000	100.029891
1986.000000	100.037114
1985.000000	99.944507
1984.000000	99.977231
1983.000000	100.044736
1982.000000	100.032740
1981.000000	100.044843
1980.000000	100.003355
1979.000000	100.023281
1978.000000	99.957518
1977.000000	99.984955
1976.000000	100.021352
1975.000000	100.029181
1974.000000	99.940034
1973.000000	99.971943
1972.000000	100.013726
1971.000000	99.976821
1970.000000	99.997153
1969.000000	99.961690
1968.000000	99.979061
1967.000000	100.001728
1966.000000	99.998272
1965.000000	100.005896
1964.000000	100.058468
1963.000000	100.051974
1962.000000	100.013013
1961.000000	100.013214
1960.000000	100.030802
1959.000000	100.049828
1958.000000	100.014639
1957.000000	99.992073
1956.000000	100.002846
1955.000000	99.977946
1954.000000	99.973783
1953.000000	100.028449
1952.000000	100.033635
1951.000000	100.015344
1950.000000	100.028148
1949.000000	100.069599
1948.000000	100.052642
1947.000000	100.018901
1946.000000	100.033213
1945.000000	100.043790
1944.000000	99.965778
1943.000000	99.973092
1942.000000	99.996345
1941.000000	99.907365
1940.000000	99.967214
1939.000000	100.005379
1938.000000	99.952329
1937.000000	99.921821
1936.000000	100.044159
1935.000000	99.949363
1934.000000	99.991174
1933.000000	100.046682
1932.000000	99.959541
1931.000000	100.015209
1930.000000	100.019474
1929.000000	100.028699
1928.000000	100.040371
1927.000000	100.029819
1926.000000	100.021296
1925.000000	99.988134
1924.000000	99.935358
1923.000000	99.986520
1922.000000	99.938680
1921.000000	99.984895
1920.000000	99.913953
1919.000000	100.011659
1918.000000	100.049180
1917.000000	99.932813
1916.000000	99.935848
1915.000000	100.054751
1914.000000	100.047510
1913.000000	100.017348
1912.000000	100.000203
1911.000000	99.958636
1910.000000	100.006390
1909.000000	99.937379
1908.000000	100.021191
1907.000000	100.032560
1906.000000	100.044340
1905.000000	100.057321
1904.000000	100.007000
1903.000000	100.033986
1902.000000	99.943606
1901.000000	99.975453
1900.000000	99.980825
1899.000000	99.877181
1898.000000	100.019483
1897.000000	99.966625
1896.000000	100.043334
1895.000000	100.006089
1894.000000	99.981730
1893.000000	99.972701
1892.000000	99.913336
1891.000000	99.981628
1890.000000	100.014520
1889.000000	99.992286
1888.000000	99.987718
1887.000000	99.965010
1886.000000	99.991784
1885.000000	99.988235
1884.000000	99.988846
1883.000000	99.992802
1882.000000	100.004156
1881.000000	100.034976
1880.000000	99.997567
1879.000000	100.000709
1878.000000	100.013783
1877.000000	100.033546
1876.000000	99.973855
1875.000000	99.956845
1874.000000	99.972754
1873.000000	99.991794
1872.000000	99.999494
1871.000000	99.992606
1870.000000	99.980153
1869.000000	100.013471
1868.000000	100.064443
1867.000000	100.003951
1866.000000	99.986525
1865.000000	99.963113
1864.000000	99.990677
1863.000000	100.033141
1862.000000	99.965848
1861.000000	99.950448
1860.000000	100.001925
1859.000000	100.005980
1858.000000	99.988445
1857.000000	99.933227
1856.000000	99.980433
1855.000000	99.977802
1854.000000	99.999899
1853.000000	100.028482
1852.000000	100.016829
1851.000000	100.042470
1850.000000	100.006485
1849.000000	100.013379
1848.000000	99.989866
1847.000000	100.009327
1846.000000	100.050696
1845.000000	100.022495
1844.000000	100.026249
1843.000000	100.001014
1842.000000	99.985306
1841.000000	99.955312
1840.000000	99.972741
1839.000000	100.018548
1838.000000	100.035078
1837.000000	100.012673
1836.000000	100.006084
1835.000000	99.996958
1834.000000	100.051724
1833.000000	100.038959
1832.000000	100.029325
1831.000000	99.990971
1830.000000	99.995840
1829.000000	100.015423
1828.000000	100.011870
1827.000000	99.977579
1826.000000	99.980516
1825.000000	100.004263
1824.000000	100.012790
1823.000000	99.991776
1822.000000	99.969433
1821.000000	99.966282
1820.000000	99.984664
1819.000000	99.966589
1818.000000	99.982427
1817.000000	100.000305
1816.000000	100.008739
1815.000000	100.005387
1814.000000	100.002033
1813.000000	100.000102
1812.000000	100.001728
1811.000000	99.992684
1810.000000	99.982928
1809.000000	99.992784
1808.000000	99.994917
1807.000000	100.000407
1806.000000	99.990646
1805.000000	99.982207
1804.000000	100.000610
1803.000000	99.997661
1802.000000	99.993595
1801.000000	100.007728
1800.000000	99.980377
1799.000000	99.982610
1798.000000	100.000000
1797.000000	100.000915
1796.000000	99.994509
1795.000000	99.983528
1794.000000	100.007933
1793.000000	99.999898
1792.000000	99.997762
1791.000000	100.046502
1790.000000	100.039580
1789.000000	100.001119
1788.000000	100.006511
1787.000000	100.004679
1786.000000	100.015258
1785.000000	100.035919
1784.000000	100.043648
1783.000000	100.024720
1782.000000	99.973045
1781.000000	99.960542
1780.000000	99.998576
1779.000000	100.005493
1778.000000	99.971218
1777.000000	99.990947
1776.000000	99.995219
1775.000000	99.975893
1774.000000	99.996541
1773.000000	100.017502
1772.000000	99.982095
1771.000000	99.961454
1770.000000	99.997457
1769.000000	99.986574
1768.000000	99.961056
1767.000000	99.968575
1766.000000	99.989728
1765.000000	99.978237
1764.000000	99.965114
1763.000000	99.971215
1762.000000	99.997864
1761.000000	100.015466
1760.000000	99.999084
1759.000000	99.986574
1758.000000	99.993286
1757.000000	99.998779
1756.000000	99.988812
1755.000000	99.982098
1754.000000	99.980877
1753.000000	99.992576
1752.000000	100.008035
1751.000000	100.014850
1750.000000	99.992270
1749.000000	100.028892
1748.000000	99.977220
1747.000000	99.959022
1746.000000	100.000305
1745.000000	99.978844
1744.000000	99.982711
1743.000000	100.006306
1742.000000	100.002339
1741.000000	100.025127
1740.000000	100.024517
1739.000000	100.013427
1738.000000	100.023596
1737.000000	100.001423
1736.000000	99.999288
1735.000000	100.012814
1734.000000	100.024407
1733.000000	100.004474
1732.000000	100.025829
1731.000000	100.039977
1730.000000	100.000000
1729.000000	100.018914
1728.000000	100.008441
1727.000000	100.027057
1726.000000	99.984747
1725.000000	100.004475
1724.000000	99.977628
1723.000000	100.000407
1722.000000	99.980886
1721.000000	99.989120
1720.000000	99.979967
1719.000000	99.978038
1718.000000	100.025119
1717.000000	100.002441
1716.000000	99.997356
1715.000000	99.993085
1714.000000	100.013327
1713.000000	99.977935
1712.000000	100.009356
1711.000000	99.977123
1710.000000	100.016272
1709.000000	100.008746
1708.000000	99.980983
1707.000000	99.986682
1706.000000	99.966751
1705.000000	99.982308
1704.000000	100.001729
1703.000000	99.959030
1702.000000	100.016267
1701.000000	99.996441
1700.000000	100.009761
1699.000000	100.002847
1698.000000	100.000203
1697.000000	99.986479
1696.000000	100.008744
1695.000000	99.990037
1694.000000	100.001932
1693.000000	99.992781
1692.000000	99.989426
1691.000000	99.986379
1690.000000	100.002542
1689.000000	100.013016
1688.000000	99.989833
1687.000000	100.036711
1686.000000	99.988006
1685.000000	99.993291
1684.000000	99.984142
1683.000000	99.951318
1682.000000	100.018300
1681.000000	99.999593
1680.000000	100.025214
1679.000000	100.011591
1678.000000	99.986580
1677.000000	99.979159
1676.000000	100.005592
1675.000000	100.004982
1674.000000	100.012913
1673.000000	100.006201
1672.000000	100.008439
1671.000000	99.991256
1670.000000	99.996238
1669.000000	100.022254
1668.000000	99.991262
1667.000000	99.993700
1666.000000	100.008740
1665.000000	100.011992
1664.000000	100.008232
1663.000000	99.987096
1662.000000	100.013313
1661.000000	99.984148
1660.000000	100.002643
1659.000000	100.030796
1658.000000	100.000610
1657.000000	100.005792
1656.000000	100.008535
1655.000000	99.985368
1654.000000	99.990143
1653.000000	100.014632
1652.000000	100.003658
1651.000000	99.977649
1650.000000	99.984150
1649.000000	99.980290
1648.000000	100.000508
1647.000000	100.010263
1646.000000	99.996952
1645.000000	99.995123
1644.000000	99.973992
1643.000000	100.004369
1642.000000	99.997765
1641.000000	99.995123
1640.000000	99.997257
1639.000000	100.014529
1638.000000	100.031297
1637.000000	100.027335
1636.000000	100.015547
1635.000000	100.032518
1634.000000	100.031808
1633.000000	100.030792
1632.000000	100.034248
1631.000000	100.015752
1630.000000	100.001016
1629.000000	100.009553
1628.000000	100.020324
1627.000000	99.986184
1626.000000	99.981613
1625.000000	99.985574
1624.000000	100.009449
1623.000000	100.021847
1622.000000	99.995225
1621.000000	100.007721
1620.000000	100.023675
1619.000000	100.011075
1618.000000	100.024588
1617.000000	100.004572
1616.000000	99.985878
1615.000000	99.991262
1614.000000	99.997562
1613.000000	100.011684
1612.000000	99.991771
1611.000000	99.983746
1610.000000	100.004572
1609.000000	100.014427
1608.000000	99.997054
1607.000000	99.995327
1606.000000	99.997562
1605.000000	99.984661
1604.000000	99.997460
1603.000000	99.998375
1602.000000	100.019609
1601.000000	100.015341
1600.000000	100.016663
1599.000000	100.026621
1598.000000	99.998476
1597.000000	99.975623
1596.000000	99.970241
1595.000000	99.990858
1594.000000	99.992585
1593.000000	99.982936
1592.000000	99.998578
1591.000000	100.008839
1590.000000	100.010872
1589.000000	99.993701
1588.000000	99.986896
1587.000000	99.998171
1586.000000	100.003149
1585.000000	99.997257
1584.000000	100.002641
1583.000000	99.997765
1582.000000	99.987100
1581.000000	99.996242
1580.000000	99.987913
1579.000000	100.002946
1578.000000	100.003251
1577.000000	99.997867
1576.000000	100.007313
1575.000000	100.015947
1574.000000	99.998070
1573.000000	99.990250
1572.000000	99.993195
1571.000000	99.991062
1570.000000	100.003250
1569.000000	100.014018
1568.000000	100.008837
1567.000000	99.997664
1566.000000	99.983345
1565.000000	99.990149
1564.000000	100.009242
1563.000000	100.012798
1562.000000	100.018487
1561.000000	100.016049
1560.000000	100.000102
1559.000000	100.005383
1558.000000	100.017164
1557.000000	100.007617
1556.000000	100.002031
1555.000000	100.000711
1554.000000	99.994009
1553.000000	99.986597
1552.000000	99.993704
1551.000000	99.999289
1550.000000	99.992283
1549.000000	99.998071
1548.000000	99.996344
1547.000000	100.006297
1546.000000	100.009748
1545.000000	100.015030
1544.000000	100.006296
1543.000000	100.004062
1542.000000	99.987715
1541.000000	100.012388
1540.000000	100.026609
1539.000000	100.032397
1538.000000	100.018075
1537.000000	100.011372
1536.000000	99.992284
1535.000000	100.003655
1534.000000	100.013402
1533.000000	100.028432
1532.000000	100.020105
1531.000000	100.020916
1530.000000	99.995735
1529.000000	100.008734
1528.000000	100.015539
1527.000000	100.008226
1526.000000	100.017773
1525.000000	99.999797
1524.000000	100.005078
1523.000000	100.017162
1522.000000	100.025894
1521.000000	100.002031
1520.000000	100.003148
1519.000000	100.032801
1518.000000	100.018177
1517.000000	99.985883
1516.000000	99.983955
1515.000000	99.994618
1514.000000	99.993196
1513.000000	99.991975
1512.000000	99.976339
1511.000000	99.974513
1510.000000	100.023869
1509.000000	100.001930
1508.000000	100.008836
1507.000000	100.002641
1506.000000	100.009143
1505.000000	100.014119
1504.000000	100.016964
1503.000000	100.017371
1502.000000	100.013510
1501.000000	100.027835
1500.000000	100.003149
1499.000000	100.010359
1498.000000	100.014829
1497.000000	99.992688
1496.000000	100.008329
1495.000000	100.009040
1494.000000	100.014525
1493.000000	99.991977
1492.000000	99.997055
1491.000000	100.007007
