PE UV       SUBTECH     SPECTRUM    ASCII       PEDS        4.00        
   -1
TTAgneauUK 32.Sample.asc
18/03/08
12:21:27.00
18/03/08
12:21:27.00
Administrator

200.000000
1
Lambda 750
750N8071901
PerkinElmer UV WinLab 6.0.4.0738 / 1.61.00 Lambda 900

0
0
3350/servo 860.8/2
0
0
UV/VIS
1
1
1
CommonBeamDepol,150mm sphere / downward view
0
0
0
0
Program
Program
3350/servo 860.8/2
3350/0.2 860.8/0.2
3350/0.2 860.8/0.2
0
1
 
 
 
0
 
860.8
319.2
860.8
Front
100
on
 
 
0
0
0
 
0
 
 
 
0
 
 
0
0
0
0
0
 
 
 
 
0
0


0
0
#HDR
-1
-1
#GR
nm
%T
1.0
0.0
2350.000000
-1.000000
2151
8
28.533605
0.037595
#DATA
2350.000000	6.118858
2349.000000	6.768424
2348.000000	6.421362
2347.000000	7.380020
2346.000000	6.662167
2345.000000	6.636209
2344.000000	6.633386
2343.000000	6.384311
2342.000000	6.646888
2341.000000	6.698975
2340.000000	6.509791
2339.000000	7.076675
2338.000000	7.110230
2337.000000	7.128649
2336.000000	7.136618
2335.000000	7.326787
2334.000000	7.287888
2333.000000	7.455638
2332.000000	7.183120
2331.000000	7.145343
2330.000000	7.041862
2329.000000	7.121508
2328.000000	7.075609
2327.000000	6.935792
2326.000000	6.650778
2325.000000	7.151956
2324.000000	7.337779
2323.000000	7.008519
2322.000000	7.217241
2321.000000	6.949034
2320.000000	6.992927
2319.000000	6.865407
2318.000000	6.957858
2317.000000	6.824698
2316.000000	7.043648
2315.000000	6.730221
2314.000000	6.626808
2313.000000	6.641047
2312.000000	6.447659
2311.000000	6.727346
2310.000000	6.709306
2309.000000	6.748389
2308.000000	6.759441
2307.000000	6.879533
2306.000000	6.668782
2305.000000	6.541413
2304.000000	6.465502
2303.000000	6.433237
2302.000000	6.400114
2301.000000	6.410670
2300.000000	6.272395
2299.000000	6.228376
2298.000000	6.050650
2297.000000	6.013125
2296.000000	6.054600
2295.000000	6.062159
2294.000000	6.076766
2293.000000	6.098798
2292.000000	5.958226
2291.000000	6.058288
2290.000000	6.067081
2289.000000	6.086611
2288.000000	6.061045
2287.000000	6.147810
2286.000000	5.951991
2285.000000	5.804567
2284.000000	5.857922
2283.000000	5.776201
2282.000000	5.718557
2281.000000	5.848554
2280.000000	5.884086
2279.000000	5.889729
2278.000000	5.686071
2277.000000	5.779208
2276.000000	5.958344
2275.000000	6.051080
2274.000000	5.990113
2273.000000	5.986347
2272.000000	6.050885
2271.000000	5.999256
2270.000000	5.949595
2269.000000	5.992331
2268.000000	6.036608
2267.000000	6.131948
2266.000000	6.180711
2265.000000	6.284327
2264.000000	6.347109
2263.000000	6.379182
2262.000000	6.381827
2261.000000	6.363734
2260.000000	6.310594
2259.000000	6.522600
2258.000000	6.678603
2257.000000	6.694246
2256.000000	6.690701
2255.000000	6.792539
2254.000000	6.937032
2253.000000	6.994695
2252.000000	7.168169
2251.000000	7.372808
2250.000000	7.438912
2249.000000	7.531275
2248.000000	7.631164
2247.000000	7.664488
2246.000000	7.752263
2245.000000	7.831187
2244.000000	7.906415
2243.000000	8.157101
2242.000000	8.271554
2241.000000	8.176005
2240.000000	8.172124
2239.000000	8.422653
2238.000000	8.464151
2237.000000	8.428818
2236.000000	8.514930
2235.000000	8.601707
2234.000000	8.711968
2233.000000	8.751118
2232.000000	8.725214
2231.000000	8.666101
2230.000000	8.815121
2229.000000	8.823974
2228.000000	8.815205
2227.000000	8.846544
2226.000000	8.798132
2225.000000	8.840037
2224.000000	8.790596
2223.000000	8.594079
2222.000000	8.610448
2221.000000	8.632618
2220.000000	8.657023
2219.000000	8.750218
2218.000000	8.730926
2217.000000	8.621132
2216.000000	8.575899
2215.000000	8.607974
2214.000000	8.637783
2213.000000	8.650340
2212.000000	8.561831
2211.000000	8.399272
2210.000000	8.400882
2209.000000	8.333857
2208.000000	8.245063
2207.000000	8.279320
2206.000000	8.083139
2205.000000	8.156244
2204.000000	8.255436
2203.000000	8.234246
2202.000000	8.182786
2201.000000	8.119796
2200.000000	8.068390
2199.000000	8.116334
2198.000000	8.013369
2197.000000	7.901749
2196.000000	7.868664
2195.000000	7.873282
2194.000000	7.772894
2193.000000	7.601453
2192.000000	7.680642
2191.000000	7.613894
2190.000000	7.660679
2189.000000	7.579059
2188.000000	7.507168
2187.000000	7.565933
2186.000000	7.502532
2185.000000	7.433284
2184.000000	7.507208
2183.000000	7.401836
2182.000000	7.365597
2181.000000	7.428933
2180.000000	7.576549
2179.000000	7.364749
2178.000000	7.320271
2177.000000	7.341429
2176.000000	7.250379
2175.000000	7.354128
2174.000000	7.416233
2173.000000	7.437063
2172.000000	7.298112
2171.000000	7.397576
2170.000000	7.484599
2169.000000	7.485581
2168.000000	7.541282
2167.000000	7.610114
2166.000000	7.632117
2165.000000	7.498626
2164.000000	7.759678
2163.000000	7.610135
2162.000000	7.743742
2161.000000	7.848721
2160.000000	7.929556
2159.000000	8.087092
2158.000000	7.870167
2157.000000	7.978181
2156.000000	8.134673
2155.000000	8.068793
2154.000000	8.246090
2153.000000	8.483097
2152.000000	8.578682
2151.000000	8.267904
2150.000000	8.599019
2149.000000	8.621347
2148.000000	8.551307
2147.000000	8.749497
2146.000000	8.783514
2145.000000	8.749463
2144.000000	8.896854
2143.000000	8.870928
2142.000000	9.011196
2141.000000	9.141940
2140.000000	9.101253
2139.000000	9.354300
2138.000000	9.383049
2137.000000	9.276440
2136.000000	9.364708
2135.000000	9.310065
2134.000000	9.778382
2133.000000	9.307507
2132.000000	9.677133
2131.000000	9.708367
2130.000000	9.664063
2129.000000	9.718930
2128.000000	9.598616
2127.000000	9.540392
2126.000000	9.695633
2125.000000	9.743193
2124.000000	9.771815
2123.000000	9.630218
2122.000000	9.841356
2121.000000	9.967929
2120.000000	9.968804
2119.000000	9.972110
2118.000000	10.058936
2117.000000	9.973570
2116.000000	10.067793
2115.000000	10.008049
2114.000000	10.161485
2113.000000	10.024215
2112.000000	9.961810
2111.000000	10.022343
2110.000000	9.851072
2109.000000	9.941958
2108.000000	10.110570
2107.000000	10.195780
2106.000000	10.127522
2105.000000	10.003196
2104.000000	10.195928
2103.000000	10.151206
2102.000000	10.211626
2101.000000	10.194064
2100.000000	10.167824
2099.000000	10.172867
2098.000000	10.161128
2097.000000	10.125044
2096.000000	10.071587
2095.000000	10.178398
2094.000000	10.057086
2093.000000	10.025385
2092.000000	10.020715
2091.000000	10.108474
2090.000000	10.084506
2089.000000	10.154208
2088.000000	10.062111
2087.000000	10.148595
2086.000000	10.146664
2085.000000	10.090954
2084.000000	9.893625
2083.000000	9.920176
2082.000000	9.834419
2081.000000	9.825207
2080.000000	9.862572
2079.000000	9.842222
2078.000000	9.684809
2077.000000	9.696162
2076.000000	9.628751
2075.000000	9.537279
2074.000000	9.569021
2073.000000	9.537419
2072.000000	9.489075
2071.000000	9.438644
2070.000000	9.320442
2069.000000	9.180952
2068.000000	9.086757
2067.000000	9.040788
2066.000000	8.982576
2065.000000	8.826993
2064.000000	8.805042
2063.000000	8.727422
2062.000000	8.696783
2061.000000	8.635482
2060.000000	8.492501
2059.000000	8.394908
2058.000000	8.268538
2057.000000	8.245033
2056.000000	8.135785
2055.000000	8.082563
2054.000000	8.025358
2053.000000	7.950116
2052.000000	7.904571
2051.000000	7.812941
2050.000000	7.766512
2049.000000	7.681307
2048.000000	7.621329
2047.000000	7.633389
2046.000000	7.592296
2045.000000	7.542251
2044.000000	7.555529
2043.000000	7.580385
2042.000000	7.612158
2041.000000	7.590736
2040.000000	7.578797
2039.000000	7.535352
2038.000000	7.566174
2037.000000	7.645257
2036.000000	7.683250
2035.000000	7.765845
2034.000000	7.800267
2033.000000	7.806329
2032.000000	7.890068
2031.000000	7.973982
2030.000000	8.013236
2029.000000	8.040626
2028.000000	8.132851
2027.000000	8.198339
2026.000000	8.224755
2025.000000	8.287402
2024.000000	8.349570
2023.000000	8.370327
2022.000000	8.406735
2021.000000	8.453838
2020.000000	8.470074
2019.000000	8.451555
2018.000000	8.487579
2017.000000	8.544484
2016.000000	8.549157
2015.000000	8.536515
2014.000000	8.521235
2013.000000	8.517159
2012.000000	8.494716
2011.000000	8.467956
2010.000000	8.489334
2009.000000	8.467981
2008.000000	8.413643
2007.000000	8.379022
2006.000000	8.333418
2005.000000	8.283384
2004.000000	8.258743
2003.000000	8.235085
2002.000000	8.170048
2001.000000	8.095520
2000.000000	8.066724
1999.000000	8.026833
1998.000000	8.007143
1997.000000	7.965578
1996.000000	7.906528
1995.000000	7.856079
1994.000000	7.784989
1993.000000	7.723742
1992.000000	7.677168
1991.000000	7.637010
1990.000000	7.568420
1989.000000	7.498134
1988.000000	7.466865
1987.000000	7.462908
1986.000000	7.425767
1985.000000	7.361295
1984.000000	7.267819
1983.000000	7.214231
1982.000000	7.213269
1981.000000	7.151057
1980.000000	7.065649
1979.000000	7.043429
1978.000000	6.994237
1977.000000	6.949023
1976.000000	6.871897
1975.000000	6.807104
1974.000000	6.782953
1973.000000	6.782526
1972.000000	6.712229
1971.000000	6.665745
1970.000000	6.611928
1969.000000	6.583218
1968.000000	6.543951
1967.000000	6.507545
1966.000000	6.483402
1965.000000	6.431823
1964.000000	6.346732
1963.000000	6.305242
1962.000000	6.249504
1961.000000	6.202920
1960.000000	6.218391
1959.000000	6.157831
1958.000000	6.123088
1957.000000	6.088924
1956.000000	6.066896
1955.000000	6.043375
1954.000000	5.997466
1953.000000	5.939567
1952.000000	5.924464
1951.000000	5.933096
1950.000000	5.940113
1949.000000	5.874906
1948.000000	5.872579
1947.000000	5.861790
1946.000000	5.838421
1945.000000	5.862631
1944.000000	5.843997
1943.000000	5.873214
1942.000000	5.837466
1941.000000	5.847474
1940.000000	5.925564
1939.000000	5.966543
1938.000000	6.005451
1937.000000	6.009651
1936.000000	6.131844
1935.000000	6.189349
1934.000000	6.157625
1933.000000	6.232519
1932.000000	6.271421
1931.000000	6.290968
1930.000000	6.366720
1929.000000	6.480714
1928.000000	6.549577
1927.000000	6.690495
1926.000000	6.765601
1925.000000	6.890051
1924.000000	6.967814
1923.000000	7.134017
1922.000000	7.268539
1921.000000	7.427953
1920.000000	7.436341
1919.000000	7.617465
1918.000000	7.849677
1917.000000	8.028508
1916.000000	8.074700
1915.000000	8.294712
1914.000000	8.534442
1913.000000	8.731786
1912.000000	8.888970
1911.000000	9.001942
1910.000000	9.276804
1909.000000	9.476060
1908.000000	9.746747
1907.000000	9.954527
1906.000000	10.244338
1905.000000	10.598983
1904.000000	10.840429
1903.000000	11.107008
1902.000000	11.416412
1901.000000	11.703316
1900.000000	12.025481
1899.000000	12.281808
1898.000000	12.644256
1897.000000	12.928433
1896.000000	13.210132
1895.000000	13.555202
1894.000000	13.812529
1893.000000	14.143074
1892.000000	14.463088
1891.000000	14.740763
1890.000000	15.053798
1889.000000	15.346223
1888.000000	15.643182
1887.000000	15.935241
1886.000000	16.220948
1885.000000	16.513692
1884.000000	16.776445
1883.000000	17.018613
1882.000000	17.250458
1881.000000	17.521546
1880.000000	17.770338
1879.000000	17.976766
1878.000000	18.223417
1877.000000	18.403613
1876.000000	18.579685
1875.000000	18.763967
1874.000000	18.944471
1873.000000	19.094132
1872.000000	19.277522
1871.000000	19.440888
1870.000000	19.572246
1869.000000	19.657928
1868.000000	19.752605
1867.000000	19.821031
1866.000000	19.875141
1865.000000	19.925639
1864.000000	20.002473
1863.000000	20.068917
1862.000000	20.103511
1861.000000	20.146568
1860.000000	20.183406
1859.000000	20.207614
1858.000000	20.272167
1857.000000	20.305939
1856.000000	20.328295
1855.000000	20.371662
1854.000000	20.377773
1853.000000	20.408465
1852.000000	20.414668
1851.000000	20.406837
1850.000000	20.435107
1849.000000	20.456748
1848.000000	20.454124
1847.000000	20.470504
1846.000000	20.461433
1845.000000	20.442646
1844.000000	20.418931
1843.000000	20.405375
1842.000000	20.373138
1841.000000	20.380708
1840.000000	20.354372
1839.000000	20.329871
1838.000000	20.306539
1837.000000	20.244160
1836.000000	20.216176
1835.000000	20.156232
1834.000000	20.126592
1833.000000	20.104803
1832.000000	20.070298
1831.000000	20.035831
1830.000000	20.029219
1829.000000	19.983339
1828.000000	19.928839
1827.000000	19.917479
1826.000000	19.890502
1825.000000	19.843976
1824.000000	19.833014
1823.000000	19.816339
1822.000000	19.772424
1821.000000	19.751623
1820.000000	19.709089
1819.000000	19.667010
1818.000000	19.654500
1817.000000	19.618950
1816.000000	19.602635
1815.000000	19.599752
1814.000000	19.555278
1813.000000	19.529501
1812.000000	19.503552
1811.000000	19.471686
1810.000000	19.462471
1809.000000	19.447894
1808.000000	19.430444
1807.000000	19.406006
1806.000000	19.366010
1805.000000	19.333753
1804.000000	19.325198
1803.000000	19.325428
1802.000000	19.297479
1801.000000	19.267046
1800.000000	19.237972
1799.000000	19.214095
1798.000000	19.207954
1797.000000	19.204375
1796.000000	19.188588
1795.000000	19.157618
1794.000000	19.145803
1793.000000	19.152756
1792.000000	19.133862
1791.000000	19.117607
1790.000000	19.107505
1789.000000	19.101542
1788.000000	19.089205
1787.000000	19.062578
1786.000000	19.057942
1785.000000	19.048656
1784.000000	19.013525
1783.000000	19.002680
1782.000000	18.996378
1781.000000	18.973371
1780.000000	18.959502
1779.000000	18.928849
1778.000000	18.890505
1777.000000	18.851360
1776.000000	18.813200
1775.000000	18.753299
1774.000000	18.719025
1773.000000	18.706505
1772.000000	18.653427
1771.000000	18.610550
1770.000000	18.590431
1769.000000	18.526185
1768.000000	18.471813
1767.000000	18.437664
1766.000000	18.412001
1765.000000	18.359994
1764.000000	18.351680
1763.000000	18.306993
1762.000000	18.255318
1761.000000	18.226161
1760.000000	18.172432
1759.000000	18.121467
1758.000000	18.090608
1757.000000	18.059460
1756.000000	18.020857
1755.000000	17.991240
1754.000000	17.980362
1753.000000	17.896388
1752.000000	17.866126
1751.000000	17.829469
1750.000000	17.808286
1749.000000	17.756147
1748.000000	17.706994
1747.000000	17.664166
1746.000000	17.627179
1745.000000	17.600332
1744.000000	17.545965
1743.000000	17.532956
1742.000000	17.488819
1741.000000	17.437692
1740.000000	17.385201
1739.000000	17.356516
1738.000000	17.312958
1737.000000	17.309816
1736.000000	17.273648
1735.000000	17.271732
1734.000000	17.297462
1733.000000	17.271767
1732.000000	17.249199
1731.000000	17.279946
1730.000000	17.292647
1729.000000	17.300803
1728.000000	17.316556
1727.000000	17.348313
1726.000000	17.389691
1725.000000	17.424644
1724.000000	17.466932
1723.000000	17.540085
1722.000000	17.569635
1721.000000	17.646832
1720.000000	17.692496
1719.000000	17.767122
1718.000000	17.838783
1717.000000	17.869806
1716.000000	17.984421
1715.000000	18.013338
1714.000000	18.077441
1713.000000	18.137336
1712.000000	18.182345
1711.000000	18.228459
1710.000000	18.256179
1709.000000	18.312831
1708.000000	18.349189
1707.000000	18.362905
1706.000000	18.397827
1705.000000	18.422800
1704.000000	18.430308
1703.000000	18.453933
1702.000000	18.435479
1701.000000	18.463325
1700.000000	18.516643
1699.000000	18.482190
1698.000000	18.538245
1697.000000	18.543110
1696.000000	18.559272
1695.000000	18.578266
1694.000000	18.575995
1693.000000	18.633936
1692.000000	18.665761
1691.000000	18.722065
1690.000000	18.754220
1689.000000	18.804840
1688.000000	18.869014
1687.000000	18.954638
1686.000000	19.014976
1685.000000	19.104927
1684.000000	19.207925
1683.000000	19.318822
1682.000000	19.445306
1681.000000	19.552161
1680.000000	19.659509
1679.000000	19.766017
1678.000000	19.899409
1677.000000	19.998211
1676.000000	20.140432
1675.000000	20.252686
1674.000000	20.382334
1673.000000	20.494979
1672.000000	20.617314
1671.000000	20.739257
1670.000000	20.830012
1669.000000	20.952454
1668.000000	21.029534
1667.000000	21.147459
1666.000000	21.211573
1665.000000	21.263806
1664.000000	21.337477
1663.000000	21.379750
1662.000000	21.448178
1661.000000	21.504094
1660.000000	21.561882
1659.000000	21.610439
1658.000000	21.640277
1657.000000	21.681540
1656.000000	21.711854
1655.000000	21.721892
1654.000000	21.736670
1653.000000	21.758883
1652.000000	21.757638
1651.000000	21.743755
1650.000000	21.767221
1649.000000	21.754869
1648.000000	21.740420
1647.000000	21.737597
1646.000000	21.722287
1645.000000	21.724906
1644.000000	21.700741
1643.000000	21.685484
1642.000000	21.658254
1641.000000	21.639069
1640.000000	21.621034
1639.000000	21.611159
1638.000000	21.591250
1637.000000	21.561034
1636.000000	21.537459
1635.000000	21.507804
1634.000000	21.467675
1633.000000	21.432571
1632.000000	21.414227
1631.000000	21.379973
1630.000000	21.342168
1629.000000	21.311507
1628.000000	21.276146
1627.000000	21.243196
1626.000000	21.210391
1625.000000	21.189537
1624.000000	21.152666
1623.000000	21.129234
1622.000000	21.091985
1621.000000	21.056824
1620.000000	21.023630
1619.000000	20.987280
1618.000000	20.936348
1617.000000	20.893944
1616.000000	20.857725
1615.000000	20.817919
1614.000000	20.775170
1613.000000	20.726321
1612.000000	20.693064
1611.000000	20.654597
1610.000000	20.612228
1609.000000	20.577457
1608.000000	20.536159
1607.000000	20.482229
1606.000000	20.432221
1605.000000	20.381960
1604.000000	20.333275
1603.000000	20.287068
1602.000000	20.245239
1601.000000	20.199763
1600.000000	20.165307
1599.000000	20.119490
1598.000000	20.073308
1597.000000	20.028582
1596.000000	19.986796
1595.000000	19.954329
1594.000000	19.916997
1593.000000	19.875964
1592.000000	19.841561
1591.000000	19.810212
1590.000000	19.771981
1589.000000	19.720769
1588.000000	19.682276
1587.000000	19.658689
1586.000000	19.619258
1585.000000	19.578137
1584.000000	19.548532
1583.000000	19.521915
1582.000000	19.483492
1581.000000	19.448996
1580.000000	19.419116
1579.000000	19.382203
1578.000000	19.353728
1577.000000	19.314511
1576.000000	19.276977
1575.000000	19.250412
1574.000000	19.209349
1573.000000	19.170714
1572.000000	19.137379
1571.000000	19.100620
1570.000000	19.075799
1569.000000	19.049307
1568.000000	19.018327
1567.000000	18.989622
1566.000000	18.969539
1565.000000	18.943504
1564.000000	18.912367
1563.000000	18.892390
1562.000000	18.877498
1561.000000	18.849972
1560.000000	18.831794
1559.000000	18.799276
1558.000000	18.787501
1557.000000	18.774025
1556.000000	18.754468
1555.000000	18.734666
1554.000000	18.714957
1553.000000	18.692756
1552.000000	18.669853
1551.000000	18.635400
1550.000000	18.603041
1549.000000	18.575828
1548.000000	18.543319
1547.000000	18.504741
1546.000000	18.454276
1545.000000	18.409634
1544.000000	18.359926
1543.000000	18.316131
1542.000000	18.266100
1541.000000	18.209548
1540.000000	18.136033
1539.000000	18.087934
1538.000000	18.028152
1537.000000	17.951946
1536.000000	17.877871
1535.000000	17.813756
1534.000000	17.763999
1533.000000	17.722374
1532.000000	17.707511
1531.000000	17.700890
1530.000000	17.675615
1529.000000	17.629961
1528.000000	17.546037
1527.000000	17.463616
1526.000000	17.404582
1525.000000	17.337642
1524.000000	17.274687
1523.000000	17.257774
1522.000000	17.246572
1521.000000	17.226142
1520.000000	17.170078
1519.000000	17.144250
1518.000000	17.089991
1517.000000	17.046025
1516.000000	17.026862
1515.000000	17.013801
1514.000000	16.979358
1513.000000	16.953228
1512.000000	16.934296
1511.000000	16.939227
1510.000000	16.906697
1509.000000	16.862778
1508.000000	16.834438
1507.000000	16.815951
1506.000000	16.802616
1505.000000	16.805895
1504.000000	16.816262
1503.000000	16.813981
1502.000000	16.793248
1501.000000	16.776227
1500.000000	16.741115
1499.000000	16.734423
1498.000000	16.747159
1497.000000	16.732678
1496.000000	16.737037
1495.000000	16.758930
1494.000000	16.782033
1493.000000	16.786171
1492.000000	16.787459
1491.000000	16.799213
1490.000000	16.828718
1489.000000	16.849762
1488.000000	16.865047
1487.000000	16.902629
1486.000000	16.937998
1485.000000	16.962049
1484.000000	16.992793
1483.000000	16.999324
1482.000000	17.010148
1481.000000	17.062354
1480.000000	17.113792
1479.000000	17.147359
1478.000000	17.204690
1477.000000	17.235153
1476.000000	17.267580
1475.000000	17.312894
1474.000000	17.330019
1473.000000	17.381692
1472.000000	17.408018
1471.000000	17.481102
1470.000000	17.515439
1469.000000	17.536588
1468.000000	17.553624
1467.000000	17.561546
1466.000000	17.594721
1465.000000	17.626901
1464.000000	17.669229
1463.000000	17.712514
1462.000000	17.731033
1461.000000	17.768222
1460.000000	17.836070
1459.000000	17.873588
1458.000000	17.884539
1457.000000	17.913359
1456.000000	17.941947
1455.000000	17.997822
1454.000000	18.053661
1453.000000	18.089583
1452.000000	18.127732
1451.000000	18.144432
