PE UV       SUBTECH     SPECTRUM    ASCII       PEDS        4.00        
   -1
TTAgneauUK 52.Sample.asc
18/03/08
14:06:15.00
18/03/08
14:06:15.00
Administrator

200.000000
1
Lambda 750
750N8071901
PerkinElmer UV WinLab 6.0.4.0738 / 1.61.00 Lambda 900

0
0
3350/servo 860.8/2
0
0
UV/VIS
1
1
1
CommonBeamDepol,150mm sphere / downward view
0
0
0
0
Program
Program
3350/servo 860.8/2
3350/0.2 860.8/0.2
3350/0.2 860.8/0.2
0
1
 
 
 
0
 
860.8
319.2
860.8
Front
100
on
 
 
0
0
0
 
0
 
 
 
0
 
 
0
0
0
0
0
 
 
 
 
0
0


0
0
#HDR
-1
-1
#GR
nm
%T
1.0
0.0
2350.000000
-1.000000
2151
8
28.584071
0.055488
#DATA
2350.000000	7.074759
2349.000000	6.910661
2348.000000	7.041895
2347.000000	7.773427
2346.000000	7.182231
2345.000000	6.614588
2344.000000	7.081355
2343.000000	6.911945
2342.000000	6.751458
2341.000000	7.274578
2340.000000	6.923326
2339.000000	7.234119
2338.000000	7.484831
2337.000000	7.837774
2336.000000	7.721507
2335.000000	7.448246
2334.000000	7.854012
2333.000000	8.188543
2332.000000	8.011825
2331.000000	8.058969
2330.000000	7.856836
2329.000000	7.860737
2328.000000	7.525293
2327.000000	7.370290
2326.000000	7.328480
2325.000000	7.431735
2324.000000	7.782601
2323.000000	7.625323
2322.000000	7.433956
2321.000000	7.751653
2320.000000	7.875268
2319.000000	7.709706
2318.000000	7.393736
2317.000000	7.396807
2316.000000	7.488250
2315.000000	7.287177
2314.000000	7.390867
2313.000000	7.462371
2312.000000	7.215162
2311.000000	7.350993
2310.000000	7.133878
2309.000000	7.317753
2308.000000	7.260565
2307.000000	7.076914
2306.000000	7.014605
2305.000000	7.045829
2304.000000	7.082875
2303.000000	6.982617
2302.000000	6.923071
2301.000000	6.761046
2300.000000	6.695627
2299.000000	6.707334
2298.000000	6.626753
2297.000000	6.681036
2296.000000	6.516011
2295.000000	6.462907
2294.000000	6.384726
2293.000000	6.385158
2292.000000	6.356880
2291.000000	6.468441
2290.000000	6.471701
2289.000000	6.575226
2288.000000	6.571407
2287.000000	6.414670
2286.000000	6.352926
2285.000000	6.325081
2284.000000	6.133354
2283.000000	6.248086
2282.000000	6.313555
2281.000000	6.195594
2280.000000	6.141899
2279.000000	6.282175
2278.000000	6.329308
2277.000000	6.336362
2276.000000	6.419822
2275.000000	6.475713
2274.000000	6.358399
2273.000000	6.509576
2272.000000	6.656520
2271.000000	6.571921
2270.000000	6.443280
2269.000000	6.372242
2268.000000	6.500361
2267.000000	6.560053
2266.000000	6.670299
2265.000000	6.782555
2264.000000	6.855223
2263.000000	6.912563
2262.000000	6.830919
2261.000000	6.942807
2260.000000	7.107954
2259.000000	7.134180
2258.000000	7.062958
2257.000000	7.240020
2256.000000	7.386384
2255.000000	7.415641
2254.000000	7.513241
2253.000000	7.554485
2252.000000	7.633401
2251.000000	7.764347
2250.000000	7.920762
2249.000000	7.991315
2248.000000	8.083253
2247.000000	8.253088
2246.000000	8.316519
2245.000000	8.449860
2244.000000	8.560521
2243.000000	8.587014
2242.000000	8.657385
2241.000000	8.720498
2240.000000	8.848408
2239.000000	8.886865
2238.000000	8.881633
2237.000000	8.978995
2236.000000	9.111398
2235.000000	9.175331
2234.000000	9.201449
2233.000000	9.142394
2232.000000	9.236673
2231.000000	9.372125
2230.000000	9.285145
2229.000000	9.335761
2228.000000	9.406801
2227.000000	9.366409
2226.000000	9.401048
2225.000000	9.339329
2224.000000	9.270208
2223.000000	9.322601
2222.000000	9.291811
2221.000000	9.219295
2220.000000	9.277995
2219.000000	9.311268
2218.000000	9.266214
2217.000000	9.230051
2216.000000	9.207394
2215.000000	9.234749
2214.000000	9.209588
2213.000000	9.169354
2212.000000	9.096622
2211.000000	9.021076
2210.000000	9.003370
2209.000000	9.074779
2208.000000	8.965075
2207.000000	8.919163
2206.000000	8.896462
2205.000000	8.911104
2204.000000	8.870232
2203.000000	8.792625
2202.000000	8.695053
2201.000000	8.743289
2200.000000	8.693679
2199.000000	8.604791
2198.000000	8.628223
2197.000000	8.546744
2196.000000	8.392918
2195.000000	8.360175
2194.000000	8.375039
2193.000000	8.297236
2192.000000	8.275325
2191.000000	8.155905
2190.000000	8.143357
2189.000000	8.159661
2188.000000	8.062914
2187.000000	8.028477
2186.000000	8.040443
2185.000000	7.939266
2184.000000	7.968341
2183.000000	8.032657
2182.000000	8.032605
2181.000000	8.116479
2180.000000	8.066635
2179.000000	7.901883
2178.000000	7.907105
2177.000000	7.909773
2176.000000	7.867794
2175.000000	7.864319
2174.000000	7.846857
2173.000000	7.945548
2172.000000	7.908268
2171.000000	8.131261
2170.000000	8.055342
2169.000000	8.095351
2168.000000	8.132734
2167.000000	8.094085
2166.000000	8.113681
2165.000000	8.150589
2164.000000	8.101033
2163.000000	8.187153
2162.000000	8.236056
2161.000000	8.437916
2160.000000	8.546926
2159.000000	8.567701
2158.000000	8.521588
2157.000000	8.674542
2156.000000	8.588937
2155.000000	8.776094
2154.000000	8.761382
2153.000000	8.862605
2152.000000	8.990620
2151.000000	8.928436
2150.000000	8.958366
2149.000000	9.155082
2148.000000	9.201625
2147.000000	9.508328
2146.000000	9.459138
2145.000000	9.539050
2144.000000	9.620634
2143.000000	9.703576
2142.000000	9.702445
2141.000000	9.758814
2140.000000	9.932821
2139.000000	9.719425
2138.000000	10.000766
2137.000000	9.829498
2136.000000	9.926394
2135.000000	10.081061
2134.000000	10.284120
2133.000000	9.986201
2132.000000	10.152846
2131.000000	10.164551
2130.000000	10.488326
2129.000000	10.221614
2128.000000	10.234414
2127.000000	10.153714
2126.000000	10.359195
2125.000000	10.357964
2124.000000	10.516653
2123.000000	10.323162
2122.000000	10.550677
2121.000000	10.590356
2120.000000	10.349700
2119.000000	10.578075
2118.000000	10.646079
2117.000000	10.624475
2116.000000	10.608037
2115.000000	10.635793
2114.000000	10.604126
2113.000000	10.658681
2112.000000	10.663659
2111.000000	10.675375
2110.000000	10.647062
2109.000000	10.635851
2108.000000	10.674139
2107.000000	10.671732
2106.000000	10.776518
2105.000000	10.669253
2104.000000	10.817907
2103.000000	10.760658
2102.000000	10.619492
2101.000000	10.727078
2100.000000	10.675533
2099.000000	10.787701
2098.000000	10.763172
2097.000000	10.741614
2096.000000	10.790285
2095.000000	10.826595
2094.000000	10.793222
2093.000000	10.789172
2092.000000	10.796482
2091.000000	10.683310
2090.000000	10.696851
2089.000000	10.740665
2088.000000	10.746008
2087.000000	10.713563
2086.000000	10.639187
2085.000000	10.710455
2084.000000	10.664483
2083.000000	10.531812
2082.000000	10.502790
2081.000000	10.393585
2080.000000	10.453804
2079.000000	10.395776
2078.000000	10.344109
2077.000000	10.319459
2076.000000	10.294953
2075.000000	10.244891
2074.000000	10.106139
2073.000000	10.102726
2072.000000	10.035566
2071.000000	10.014967
2070.000000	9.978160
2069.000000	9.846733
2068.000000	9.741511
2067.000000	9.748209
2066.000000	9.616556
2065.000000	9.385881
2064.000000	9.422164
2063.000000	9.347480
2062.000000	9.251210
2061.000000	9.164983
2060.000000	9.021117
2059.000000	9.013135
2058.000000	8.931662
2057.000000	8.845936
2056.000000	8.855209
2055.000000	8.716398
2054.000000	8.575237
2053.000000	8.475408
2052.000000	8.394098
2051.000000	8.323131
2050.000000	8.343588
2049.000000	8.330048
2048.000000	8.201836
2047.000000	8.101252
2046.000000	8.118821
2045.000000	8.195162
2044.000000	8.203215
2043.000000	8.162283
2042.000000	8.131812
2041.000000	8.166134
2040.000000	8.211824
2039.000000	8.185325
2038.000000	8.198006
2037.000000	8.205112
2036.000000	8.165480
2035.000000	8.225587
2034.000000	8.312291
2033.000000	8.371163
2032.000000	8.483061
2031.000000	8.519068
2030.000000	8.550681
2029.000000	8.616731
2028.000000	8.690084
2027.000000	8.722766
2026.000000	8.816013
2025.000000	8.940349
2024.000000	8.946171
2023.000000	8.980425
2022.000000	9.041732
2021.000000	9.053806
2020.000000	9.048524
2019.000000	9.075224
2018.000000	9.133597
2017.000000	9.125789
2016.000000	9.105276
2015.000000	9.143749
2014.000000	9.168603
2013.000000	9.147898
2012.000000	9.152832
2011.000000	9.130959
2010.000000	9.094250
2009.000000	9.079952
2008.000000	9.033912
2007.000000	8.968114
2006.000000	8.968880
2005.000000	8.945859
2004.000000	8.854349
2003.000000	8.790945
2002.000000	8.786711
2001.000000	8.743373
2000.000000	8.688703
1999.000000	8.661287
1998.000000	8.642136
1997.000000	8.555971
1996.000000	8.509620
1995.000000	8.475854
1994.000000	8.417901
1993.000000	8.352524
1992.000000	8.315890
1991.000000	8.228342
1990.000000	8.155659
1989.000000	8.094703
1988.000000	8.076498
1987.000000	8.025247
1986.000000	7.953194
1985.000000	7.856872
1984.000000	7.844873
1983.000000	7.801996
1982.000000	7.725525
1981.000000	7.696094
1980.000000	7.655664
1979.000000	7.608075
1978.000000	7.545584
1977.000000	7.484338
1976.000000	7.403461
1975.000000	7.378328
1974.000000	7.335554
1973.000000	7.278908
1972.000000	7.228210
1971.000000	7.219902
1970.000000	7.178935
1969.000000	7.099945
1968.000000	7.020982
1967.000000	7.014412
1966.000000	6.979990
1965.000000	6.957380
1964.000000	6.909343
1963.000000	6.846545
1962.000000	6.775736
1961.000000	6.783916
1960.000000	6.723222
1959.000000	6.636180
1958.000000	6.604761
1957.000000	6.629186
1956.000000	6.581450
1955.000000	6.553147
1954.000000	6.551272
1953.000000	6.492588
1952.000000	6.472890
1951.000000	6.440265
1950.000000	6.447689
1949.000000	6.380289
1948.000000	6.353881
1947.000000	6.317653
1946.000000	6.349418
1945.000000	6.381096
1944.000000	6.372564
1943.000000	6.433709
1942.000000	6.409272
1941.000000	6.464364
1940.000000	6.431558
1939.000000	6.469598
1938.000000	6.457211
1937.000000	6.507828
1936.000000	6.610482
1935.000000	6.598502
1934.000000	6.608158
1933.000000	6.700765
1932.000000	6.791716
1931.000000	6.869806
1930.000000	6.931986
1929.000000	7.018898
1928.000000	7.061622
1927.000000	7.198337
1926.000000	7.285424
1925.000000	7.465886
1924.000000	7.533377
1923.000000	7.688238
1922.000000	7.845659
1921.000000	7.997782
1920.000000	8.048807
1919.000000	8.173844
1918.000000	8.283883
1917.000000	8.434570
1916.000000	8.581832
1915.000000	8.867565
1914.000000	9.059892
1913.000000	9.299195
1912.000000	9.432291
1911.000000	9.659704
1910.000000	9.809341
1909.000000	10.144019
1908.000000	10.317801
1907.000000	10.620745
1906.000000	10.845926
1905.000000	11.097933
1904.000000	11.370060
1903.000000	11.706282
1902.000000	11.999830
1901.000000	12.283709
1900.000000	12.606718
1899.000000	12.915275
1898.000000	13.209355
1897.000000	13.483023
1896.000000	13.823703
1895.000000	14.111042
1894.000000	14.384388
1893.000000	14.795503
1892.000000	15.007733
1891.000000	15.327446
1890.000000	15.610617
1889.000000	15.884301
1888.000000	16.184597
1887.000000	16.502484
1886.000000	16.790885
1885.000000	17.061562
1884.000000	17.352880
1883.000000	17.563057
1882.000000	17.796064
1881.000000	18.020837
1880.000000	18.262365
1879.000000	18.487070
1878.000000	18.701778
1877.000000	18.870724
1876.000000	19.080693
1875.000000	19.272810
1874.000000	19.459109
1873.000000	19.621775
1872.000000	19.756216
1871.000000	19.903168
1870.000000	19.998461
1869.000000	20.152491
1868.000000	20.240485
1867.000000	20.308014
1866.000000	20.369348
1865.000000	20.398377
1864.000000	20.474804
1863.000000	20.546978
1862.000000	20.596945
1861.000000	20.605402
1860.000000	20.645975
1859.000000	20.693000
1858.000000	20.732435
1857.000000	20.795641
1856.000000	20.818781
1855.000000	20.843892
1854.000000	20.861110
1853.000000	20.874423
1852.000000	20.860947
1851.000000	20.897013
1850.000000	20.922579
1849.000000	20.917104
1848.000000	20.901843
1847.000000	20.912317
1846.000000	20.917695
1845.000000	20.890318
1844.000000	20.900029
1843.000000	20.879431
1842.000000	20.852179
1841.000000	20.847752
1840.000000	20.826295
1839.000000	20.808472
1838.000000	20.763063
1837.000000	20.692900
1836.000000	20.670834
1835.000000	20.628233
1834.000000	20.580853
1833.000000	20.553642
1832.000000	20.547304
1831.000000	20.488796
1830.000000	20.463854
1829.000000	20.437605
1828.000000	20.381532
1827.000000	20.341750
1826.000000	20.304748
1825.000000	20.306607
1824.000000	20.291338
1823.000000	20.263461
1822.000000	20.226764
1821.000000	20.187522
1820.000000	20.170378
1819.000000	20.139127
1818.000000	20.119920
1817.000000	20.109690
1816.000000	20.063548
1815.000000	20.059130
1814.000000	20.050803
1813.000000	20.005976
1812.000000	19.981281
1811.000000	19.964821
1810.000000	19.938154
1809.000000	19.912370
1808.000000	19.875508
1807.000000	19.849097
1806.000000	19.842651
1805.000000	19.814263
1804.000000	19.788040
1803.000000	19.775136
1802.000000	19.746569
1801.000000	19.716982
1800.000000	19.702725
1799.000000	19.704269
1798.000000	19.701292
1797.000000	19.669734
1796.000000	19.654321
1795.000000	19.651378
1794.000000	19.646698
1793.000000	19.612722
1792.000000	19.592331
1791.000000	19.592596
1790.000000	19.577073
1789.000000	19.555633
1788.000000	19.556271
1787.000000	19.534799
1786.000000	19.529225
1785.000000	19.526088
1784.000000	19.495489
1783.000000	19.478868
1782.000000	19.465395
1781.000000	19.448600
1780.000000	19.414794
1779.000000	19.384877
1778.000000	19.356617
1777.000000	19.305319
1776.000000	19.275155
1775.000000	19.243582
1774.000000	19.211982
1773.000000	19.186500
1772.000000	19.132500
1771.000000	19.089376
1770.000000	19.041075
1769.000000	19.015226
1768.000000	18.987540
1767.000000	18.926225
1766.000000	18.886041
1765.000000	18.834924
1764.000000	18.808043
1763.000000	18.788105
1762.000000	18.762040
1761.000000	18.703355
1760.000000	18.649425
1759.000000	18.579775
1758.000000	18.570850
1757.000000	18.549299
1756.000000	18.516797
1755.000000	18.486290
1754.000000	18.440531
1753.000000	18.407016
1752.000000	18.367968
1751.000000	18.325023
1750.000000	18.286661
1749.000000	18.267866
1748.000000	18.211412
1747.000000	18.165466
1746.000000	18.138905
1745.000000	18.075522
1744.000000	18.023946
1743.000000	17.987179
1742.000000	17.960170
1741.000000	17.929442
1740.000000	17.897308
1739.000000	17.854640
1738.000000	17.836656
1737.000000	17.814039
1736.000000	17.792175
1735.000000	17.768333
1734.000000	17.748783
1733.000000	17.743400
1732.000000	17.729583
1731.000000	17.763835
1730.000000	17.734366
1729.000000	17.752293
1728.000000	17.796295
1727.000000	17.855377
1726.000000	17.847574
1725.000000	17.902895
1724.000000	17.982613
1723.000000	18.013462
1722.000000	18.043004
1721.000000	18.099231
1720.000000	18.194742
1719.000000	18.279576
1718.000000	18.316138
1717.000000	18.363802
1716.000000	18.420667
1715.000000	18.510116
1714.000000	18.561789
1713.000000	18.592879
1712.000000	18.656527
1711.000000	18.706833
1710.000000	18.755218
1709.000000	18.786331
1708.000000	18.818816
1707.000000	18.862087
1706.000000	18.877542
1705.000000	18.910744
1704.000000	18.904041
1703.000000	18.907654
1702.000000	18.924011
1701.000000	18.946949
1700.000000	18.974587
1699.000000	18.948886
1698.000000	18.991250
1697.000000	19.008116
1696.000000	19.033699
1695.000000	19.059944
1694.000000	19.051497
1693.000000	19.066697
1692.000000	19.103071
1691.000000	19.189049
1690.000000	19.230058
1689.000000	19.275334
1688.000000	19.350510
1687.000000	19.421510
1686.000000	19.511930
1685.000000	19.590624
1684.000000	19.689859
1683.000000	19.767324
1682.000000	19.894877
1681.000000	20.018685
1680.000000	20.132984
1679.000000	20.234552
1678.000000	20.345735
1677.000000	20.464340
1676.000000	20.592882
1675.000000	20.699146
1674.000000	20.811906
1673.000000	20.918372
1672.000000	21.034780
1671.000000	21.136286
1670.000000	21.250712
1669.000000	21.388694
1668.000000	21.457305
1667.000000	21.550740
1666.000000	21.633113
1665.000000	21.674986
1664.000000	21.758214
1663.000000	21.804255
1662.000000	21.856609
1661.000000	21.922750
1660.000000	21.989363
1659.000000	22.031425
1658.000000	22.048767
1657.000000	22.087297
1656.000000	22.115766
1655.000000	22.122229
1654.000000	22.137552
1653.000000	22.154357
1652.000000	22.188283
1651.000000	22.176153
1650.000000	22.180949
1649.000000	22.151510
1648.000000	22.142667
1647.000000	22.140695
1646.000000	22.141383
1645.000000	22.127857
1644.000000	22.115346
1643.000000	22.090645
1642.000000	22.081670
1641.000000	22.065275
1640.000000	22.045322
1639.000000	22.017876
1638.000000	21.998523
1637.000000	21.984770
1636.000000	21.956927
1635.000000	21.915495
1634.000000	21.879456
1633.000000	21.853097
1632.000000	21.851124
1631.000000	21.817979
1630.000000	21.777662
1629.000000	21.752863
1628.000000	21.714441
1627.000000	21.672319
1626.000000	21.650264
1625.000000	21.612355
1624.000000	21.577991
1623.000000	21.549109
1622.000000	21.520802
1621.000000	21.479955
1620.000000	21.445011
1619.000000	21.412822
1618.000000	21.363290
1617.000000	21.315263
1616.000000	21.277424
1615.000000	21.247088
1614.000000	21.214874
1613.000000	21.175586
1612.000000	21.130914
1611.000000	21.096202
1610.000000	21.050535
1609.000000	21.014832
1608.000000	20.975102
1607.000000	20.924350
1606.000000	20.883379
1605.000000	20.831348
1604.000000	20.781056
1603.000000	20.730673
1602.000000	20.697860
1601.000000	20.665289
1600.000000	20.625362
1599.000000	20.586373
1598.000000	20.535650
1597.000000	20.490938
1596.000000	20.456143
1595.000000	20.412363
1594.000000	20.371422
1593.000000	20.341453
1592.000000	20.303590
1591.000000	20.263956
1590.000000	20.226251
1589.000000	20.195195
1588.000000	20.160823
1587.000000	20.125711
1586.000000	20.096557
1585.000000	20.054391
1584.000000	20.022045
1583.000000	19.997542
1582.000000	19.959370
1581.000000	19.928532
1580.000000	19.900376
1579.000000	19.866323
1578.000000	19.840108
1577.000000	19.804335
1576.000000	19.755695
1575.000000	19.716543
1574.000000	19.686137
1573.000000	19.658930
1572.000000	19.619434
1571.000000	19.590197
1570.000000	19.554934
1569.000000	19.516355
1568.000000	19.497147
1567.000000	19.480775
1566.000000	19.456385
1565.000000	19.434836
1564.000000	19.405047
1563.000000	19.395572
1562.000000	19.372176
1561.000000	19.349127
1560.000000	19.324970
1559.000000	19.304038
1558.000000	19.283831
1557.000000	19.259382
1556.000000	19.239706
1555.000000	19.223622
1554.000000	19.199597
1553.000000	19.172742
1552.000000	19.170184
1551.000000	19.136321
1550.000000	19.099365
1549.000000	19.069919
1548.000000	19.035622
1547.000000	19.001962
1546.000000	18.964731
1545.000000	18.930386
1544.000000	18.868685
1543.000000	18.809356
1542.000000	18.766252
1541.000000	18.710354
1540.000000	18.655207
1539.000000	18.584647
1538.000000	18.528263
1537.000000	18.462254
1536.000000	18.386292
1535.000000	18.338574
1534.000000	18.309603
1533.000000	18.290607
1532.000000	18.278984
1531.000000	18.240339
1530.000000	18.194280
1529.000000	18.122729
1528.000000	18.051499
1527.000000	17.980629
1526.000000	17.902720
1525.000000	17.857680
1524.000000	17.826867
1523.000000	17.772924
1522.000000	17.746985
1521.000000	17.714729
1520.000000	17.680716
1519.000000	17.637794
1518.000000	17.593166
1517.000000	17.578907
1516.000000	17.553191
1515.000000	17.510993
1514.000000	17.492872
1513.000000	17.505120
1512.000000	17.467421
1511.000000	17.418818
1510.000000	17.401656
1509.000000	17.370213
1508.000000	17.374771
1507.000000	17.373341
1506.000000	17.358437
1505.000000	17.340697
1504.000000	17.302430
1503.000000	17.275582
1502.000000	17.258469
1501.000000	17.265770
1500.000000	17.259304
1499.000000	17.257145
1498.000000	17.250937
1497.000000	17.250208
1496.000000	17.267840
1495.000000	17.264468
1494.000000	17.264289
1493.000000	17.298446
1492.000000	17.300616
1491.000000	17.338266
1490.000000	17.341427
1489.000000	17.369138
1488.000000	17.385295
1487.000000	17.420658
1486.000000	17.463940
1485.000000	17.470479
1484.000000	17.506345
1483.000000	17.560454
1482.000000	17.600598
1481.000000	17.627560
1480.000000	17.674259
1479.000000	17.700454
1478.000000	17.739025
1477.000000	17.763025
1476.000000	17.809776
1475.000000	17.817953
1474.000000	17.852187
1473.000000	17.897241
1472.000000	17.917896
1471.000000	17.942549
1470.000000	17.977178
1469.000000	18.009134
1468.000000	18.032639
1467.000000	18.062423
1466.000000	18.135067
1465.000000	18.169047
1464.000000	18.178782
1463.000000	18.204582
1462.000000	18.232093
1461.000000	18.286794
1460.000000	18.325915
1459.000000	18.349799
1458.000000	18.372730
1457.000000	18.435375
1456.000000	18.473867
1455.000000	18.503431
1454.000000	18.519883
1453.000000	18.552476
