PE UV       SUBTECH     SPECTRUM    ASCII       PEDS        4.00        
   -1
chevre_side1_watered.Sample.asc
24/02/16
16:40:06.00
24/02/16
16:40:06.00
Administrator

250.000000
1
Lambda 750
750N8071901
PerkinElmer UV WinLab 6.0.4.0738 / 1.61.00 Lambda 900

0
0
3350/servo 860.8/2
0
0
UV/VIS
1
1
1
CommonBeamDepol,150mm sphere / downward view
0
0
0
0
Program
Program
3350/servo 860.8/2
3350/0.2 860.8/0.2
3350/0.2 860.8/0.2
0
1
 
 
 
0
 
860.8
319.2
860.8
Front
100
on
 
 
0
0
0
 
0
 
 
 
0
 
 
0
0
0
0
0
 
 
 
 
0
0


0
0
#HDR
-1
-1
#GR
nm
%R
1.0
0.0
2500.000000
-10.000000
226
8
45.611121
8.323625
#DATA
2500.000000	10.385963
2490.000000	13.197181
2480.000000	17.922822
2470.000000	19.367355
2460.000000	12.237301
2450.000000	15.646507
2440.000000	14.902373
2430.000000	19.227328
2420.000000	20.138246
2410.000000	19.358634
2400.000000	21.767392
2390.000000	14.955202
2380.000000	21.677078
2370.000000	19.501532
2360.000000	17.841035
2350.000000	23.300189
2340.000000	22.102410
2330.000000	18.417011
2320.000000	18.458068
2310.000000	18.402346
2300.000000	17.937324
2290.000000	17.670763
2280.000000	18.080659
2270.000000	21.967592
2260.000000	19.302110
2250.000000	22.356325
2240.000000	23.234740
2230.000000	22.541100
2220.000000	22.177629
2210.000000	20.754290
2200.000000	19.598117
2190.000000	22.087647
2180.000000	23.477630
2170.000000	21.072001
2160.000000	22.399741
2150.000000	25.218804
2140.000000	23.094542
2130.000000	23.873795
2120.000000	22.288655
2110.000000	23.240570
2100.000000	23.770782
2090.000000	23.034605
2080.000000	22.237702
2070.000000	21.147455
2060.000000	20.493016
2050.000000	20.384037
2040.000000	20.680290
2030.000000	21.273367
2020.000000	20.843375
2010.000000	19.958058
2000.000000	19.113513
1990.000000	18.480541
1980.000000	16.648808
1970.000000	17.466472
1960.000000	16.790079
1950.000000	16.878420
1940.000000	18.427773
1930.000000	20.434892
1920.000000	22.721454
1910.000000	26.656972
1900.000000	29.610244
1890.000000	31.449409
1880.000000	33.099040
1870.000000	33.833578
1860.000000	33.354963
1850.000000	33.086174
1840.000000	32.702033
1830.000000	32.943329
1820.000000	32.494848
1810.000000	32.472023
1800.000000	32.599378
1790.000000	32.414386
1780.000000	31.877790
1770.000000	32.270944
1760.000000	31.779696
1750.000000	31.378710
1740.000000	31.407191
1730.000000	31.841026
1720.000000	32.408688
1710.000000	32.746840
1700.000000	33.265782
1690.000000	34.003259
1680.000000	34.812327
1670.000000	35.326068
1660.000000	35.226957
1650.000000	35.177442
1640.000000	34.768501
1630.000000	34.621320
1620.000000	34.015559
1610.000000	33.827683
1600.000000	33.360704
1590.000000	33.143812
1580.000000	32.716707
1570.000000	32.476462
1560.000000	32.252209
1550.000000	31.588246
1540.000000	31.283548
1530.000000	31.049070
1520.000000	30.861801
1510.000000	30.806055
1500.000000	30.520227
1490.000000	30.721977
1480.000000	30.785784
1470.000000	30.999159
1460.000000	31.541680
1450.000000	32.116063
1440.000000	32.907574
1430.000000	33.789211
1420.000000	35.414374
1410.000000	37.345318
1400.000000	38.999217
1390.000000	39.721233
1380.000000	39.810410
1370.000000	40.364216
1360.000000	40.835126
1350.000000	40.814499
1340.000000	40.951959
1330.000000	41.853426
1320.000000	42.435556
1310.000000	42.782384
1300.000000	42.690336
1290.000000	42.352619
1280.000000	42.223645
1270.000000	42.025061
1260.000000	41.859453
1250.000000	41.999641
1240.000000	41.862093
1230.000000	41.753476
1220.000000	41.496659
1210.000000	41.689431
1200.000000	41.402607
1190.000000	41.976341
1180.000000	42.088518
1170.000000	42.598788
1160.000000	43.093446
1150.000000	43.777164
1140.000000	43.812907
1130.000000	43.478320
1120.000000	43.351959
1110.000000	43.468485
1100.000000	43.440071
1090.000000	43.771998
1080.000000	43.739954
1070.000000	43.799804
1060.000000	43.769097
1050.000000	43.548104
1040.000000	43.284347
1030.000000	43.269770
1020.000000	43.301421
1010.000000	43.838742
1000.000000	43.838391
990.000000	43.933828
980.000000	44.023435
970.000000	43.997063
960.000000	44.460796
950.000000	44.576651
940.000000	43.995598
930.000000	44.133612
920.000000	44.196527
910.000000	44.660349
900.000000	44.619792
890.000000	44.393883
880.000000	43.552949
870.000000	44.379954
860.000000	43.958655
850.000000	45.611121
840.000000	43.900759
830.000000	44.849122
820.000000	45.091009
810.000000	44.776427
800.000000	45.096699
790.000000	44.831758
780.000000	45.149353
770.000000	45.154122
760.000000	44.877613
750.000000	44.980365
740.000000	44.869135
730.000000	44.885830
720.000000	44.690307
710.000000	44.547804
700.000000	44.503949
690.000000	44.483912
680.000000	44.446618
670.000000	44.378822
660.000000	44.109612
650.000000	44.101124
640.000000	43.768196
630.000000	43.859616
620.000000	43.643784
610.000000	43.326262
600.000000	43.203008
590.000000	43.041421
580.000000	42.706622
570.000000	42.517909
560.000000	42.250123
550.000000	41.841075
540.000000	41.492787
530.000000	41.101313
520.000000	40.862611
510.000000	40.439239
500.000000	40.081188
490.000000	39.522575
480.000000	38.852290
470.000000	38.328021
460.000000	37.731303
450.000000	36.806377
440.000000	35.931795
430.000000	35.000717
420.000000	33.960072
410.000000	32.671146
400.000000	31.051141
390.000000	29.759191
380.000000	28.103096
370.000000	26.578824
360.000000	23.893994
350.000000	23.506526
340.000000	22.362874
330.000000	20.268069
320.000000	20.429897
310.000000	22.905696
300.000000	12.801614
290.000000	10.028229
280.000000	8.446304
270.000000	8.323625
260.000000	8.525662
250.000000	9.193428
