PE UV       SUBTECH     SPECTRUM    ASCII       PEDS        4.00        
   -1
veau_side2_watered.Sample.asc
24/02/16
16:27:39.00
24/02/16
16:27:39.00
Administrator

250.000000
1
Lambda 750
750N8071901
PerkinElmer UV WinLab 6.0.4.0738 / 1.61.00 Lambda 900

0
0
3350/servo 860.8/2
0
0
UV/VIS
1
1
1
CommonBeamDepol,150mm sphere / downward view
0
0
0
0
Program
Program
3350/servo 860.8/2
3350/0.2 860.8/0.2
3350/0.2 860.8/0.2
0
1
 
 
 
0
 
860.8
319.2
860.8
Front
100
on
 
 
0
0
0
 
0
 
 
 
0
 
 
0
0
0
0
0
 
 
 
 
0
0


0
0
#HDR
-1
-1
#GR
nm
%R
1.0
0.0
2500.000000
-10.000000
226
8
33.247497
1.029023
#DATA
2500.000000	1.594105
2490.000000	1.228761
2480.000000	7.562483
2470.000000	7.732633
2460.000000	1.029023
2450.000000	3.862516
2440.000000	1.274026
2430.000000	5.484307
2420.000000	4.800097
2410.000000	6.261295
2400.000000	3.621227
2390.000000	5.486272
2380.000000	4.010645
2370.000000	10.466253
2360.000000	5.613476
2350.000000	6.356933
2340.000000	8.490292
2330.000000	4.015414
2320.000000	6.018337
2310.000000	6.611402
2300.000000	8.234621
2290.000000	7.103298
2280.000000	5.457354
2270.000000	8.203022
2260.000000	7.142000
2250.000000	7.851631
2240.000000	9.651258
2230.000000	7.461323
2220.000000	7.778153
2210.000000	7.474949
2200.000000	7.470569
2190.000000	7.074174
2180.000000	9.062058
2170.000000	8.622463
2160.000000	5.373964
2150.000000	8.754859
2140.000000	9.410875
2130.000000	9.180115
2120.000000	7.958973
2110.000000	8.847321
2100.000000	7.958967
2090.000000	8.671973
2080.000000	7.020581
2070.000000	7.027918
2060.000000	6.518888
2050.000000	6.959533
2040.000000	7.725873
2030.000000	8.141291
2020.000000	7.510135
2010.000000	6.821153
2000.000000	6.607332
1990.000000	5.685394
1980.000000	5.195520
1970.000000	5.048836
1960.000000	4.799202
1950.000000	4.815985
1940.000000	5.415244
1930.000000	8.148473
1920.000000	9.841008
1910.000000	12.273457
1900.000000	15.198377
1890.000000	17.721581
1880.000000	19.215961
1870.000000	20.120531
1860.000000	20.035206
1850.000000	19.622219
1840.000000	19.771483
1830.000000	19.314212
1820.000000	19.348056
1810.000000	19.133137
1800.000000	19.112250
1790.000000	18.740527
1780.000000	18.204784
1770.000000	18.297348
1760.000000	17.940621
1750.000000	17.756723
1740.000000	17.830914
1730.000000	18.737487
1720.000000	19.147871
1710.000000	19.316166
1700.000000	19.874660
1690.000000	20.837754
1680.000000	21.533369
1670.000000	22.090253
1660.000000	22.022224
1650.000000	22.004907
1640.000000	21.596004
1630.000000	21.152822
1620.000000	20.515926
1610.000000	20.147125
1600.000000	19.633277
1590.000000	19.472622
1580.000000	19.004767
1570.000000	18.817171
1560.000000	18.352330
1550.000000	17.923838
1540.000000	17.328178
1530.000000	17.096723
1520.000000	16.858224
1510.000000	16.674761
1500.000000	16.594625
1490.000000	16.737300
1480.000000	16.739891
1470.000000	16.970675
1460.000000	17.500259
1450.000000	18.185897
1440.000000	19.273672
1430.000000	20.388574
1420.000000	22.324134
1410.000000	24.224009
1400.000000	26.124478
1390.000000	26.887675
1380.000000	27.175457
1370.000000	27.839750
1360.000000	28.306167
1350.000000	28.480143
1340.000000	28.482983
1330.000000	29.279504
1320.000000	29.871650
1310.000000	30.270334
1300.000000	30.371384
1290.000000	30.642204
1280.000000	30.347788
1270.000000	29.940732
1260.000000	29.830136
1250.000000	29.799801
1240.000000	29.930007
1230.000000	29.568629
1220.000000	29.269849
1210.000000	29.212053
1200.000000	29.286607
1190.000000	29.491024
1180.000000	29.900570
1170.000000	30.274632
1160.000000	30.937885
1150.000000	31.196184
1140.000000	31.642201
1130.000000	31.601246
1120.000000	31.388075
1110.000000	31.442432
1100.000000	32.005575
1090.000000	31.898545
1080.000000	31.785825
1070.000000	31.650164
1060.000000	31.660742
1050.000000	31.436048
1040.000000	31.257208
1030.000000	31.228158
1020.000000	31.454139
1010.000000	31.954782
1000.000000	31.714295
990.000000	31.950709
980.000000	31.583080
970.000000	31.985184
960.000000	32.215682
950.000000	32.123012
940.000000	32.220736
930.000000	32.348706
920.000000	32.243318
910.000000	33.247497
900.000000	32.195945
890.000000	32.284213
880.000000	31.240867
870.000000	32.365153
860.000000	32.028487
850.000000	31.940610
840.000000	31.449907
830.000000	31.855775
820.000000	32.081801
810.000000	31.907869
800.000000	31.790747
790.000000	31.827597
780.000000	32.064416
770.000000	31.918792
760.000000	31.805174
750.000000	31.957240
740.000000	32.020098
730.000000	31.848642
720.000000	31.856902
710.000000	31.891977
700.000000	31.842783
690.000000	31.839748
680.000000	31.776880
670.000000	31.708904
660.000000	31.684396
650.000000	31.641614
640.000000	31.483318
630.000000	31.558616
620.000000	31.352104
610.000000	31.277544
600.000000	31.181636
590.000000	31.096043
580.000000	30.877345
570.000000	30.724519
560.000000	30.656806
550.000000	30.463388
540.000000	30.253784
530.000000	30.027520
520.000000	29.763773
510.000000	29.539848
500.000000	29.222591
490.000000	28.789823
480.000000	28.282117
470.000000	27.863992
460.000000	27.276454
450.000000	26.524892
440.000000	25.851470
430.000000	24.901659
420.000000	24.033951
410.000000	23.047342
400.000000	22.029109
390.000000	21.153799
380.000000	19.927351
370.000000	18.994084
360.000000	17.247315
350.000000	16.691734
340.000000	16.481030
330.000000	14.732439
320.000000	13.941732
310.000000	13.942397
300.000000	8.852794
290.000000	7.118132
280.000000	6.448243
270.000000	6.935942
260.000000	7.704897
250.000000	7.742193
