PE UV       SUBTECH     SPECTRUM    ASCII       PEDS        4.00        
   -1
019-2S-XXX-NR007-X001.Sample.asc
24/01/19
19:41:15.00
24/01/19
19:41:15.00
Administrator

250.000000
1
Lambda 750
750N8071901
PerkinElmer UV WinLab 6.0.4.0738 / 1.61.00 Lambda 900

0
0
3350/servo 860.8/2
0
0
UV/VIS
1
1
1
CommonBeamDepol,150mm sphere / downward view
0
0
0
0
Program
Program
3350/servo 860.8/2
3350/0.2 860.8/0.2
3350/0.2 860.8/0.2
0
1
 
 
 
0
 
860.8
319.2
860.8
Front
100
on
 
 
0
0
0
 
0
 
 
 
0
 
 
0
0
0
0
0
 
 
 
 
0
0


0
0
#HDR
-1
-1
#GR
nm
%R
1.0
0.0
2500.000000
-10.000000
226
8
65.276064
3.842924
#DATA
2500.000000	22.003493
2490.000000	21.810117
2480.000000	24.418721
2470.000000	22.190559
2460.000000	23.321137
2450.000000	23.904491
2440.000000	25.294284
2430.000000	26.876743
2420.000000	25.474329
2410.000000	27.854131
2400.000000	27.911527
2390.000000	25.547290
2380.000000	26.198032
2370.000000	26.698845
2360.000000	26.730410
2350.000000	27.593136
2340.000000	27.712670
2330.000000	27.220109
2320.000000	25.791009
2310.000000	26.573041
2300.000000	24.524883
2290.000000	26.083419
2280.000000	27.291791
2270.000000	28.959526
2260.000000	30.885183
2250.000000	32.291496
2240.000000	32.043213
2230.000000	31.829047
2220.000000	31.298388
2210.000000	30.947008
2200.000000	30.449046
2190.000000	30.149079
2180.000000	31.357656
2170.000000	32.888947
2160.000000	33.506547
2150.000000	34.659227
2140.000000	35.813098
2130.000000	36.198856
2120.000000	36.592526
2110.000000	36.072854
2100.000000	36.359337
2090.000000	35.189706
2080.000000	33.926808
2070.000000	32.351111
2060.000000	32.009884
2050.000000	32.155427
2040.000000	32.868073
2030.000000	33.440331
2020.000000	32.154247
2010.000000	31.126178
2000.000000	29.997762
1990.000000	28.778647
1980.000000	27.751947
1970.000000	27.256840
1960.000000	26.723315
1950.000000	27.694938
1940.000000	29.053635
1930.000000	33.059625
1920.000000	37.744263
1910.000000	43.202331
1900.000000	47.647559
1890.000000	51.025057
1880.000000	52.515490
1870.000000	53.529507
1860.000000	53.404054
1850.000000	53.193634
1840.000000	52.736807
1830.000000	52.454801
1820.000000	52.125263
1810.000000	51.855061
1800.000000	51.534860
1790.000000	51.059540
1780.000000	50.603377
1770.000000	50.003122
1760.000000	49.452596
1750.000000	49.059325
1740.000000	49.408620
1730.000000	50.320207
1720.000000	51.099908
1710.000000	51.404106
1700.000000	52.559839
1690.000000	54.278102
1680.000000	55.571246
1670.000000	56.172501
1660.000000	56.257115
1650.000000	56.051456
1640.000000	55.566343
1630.000000	55.092660
1620.000000	54.484577
1610.000000	53.879385
1600.000000	53.380585
1590.000000	52.837963
1580.000000	52.572975
1570.000000	52.369042
1560.000000	51.836229
1550.000000	51.057342
1540.000000	50.328740
1530.000000	49.840881
1520.000000	49.583959
1510.000000	49.514850
1500.000000	49.777441
1490.000000	50.207383
1480.000000	50.633537
1470.000000	51.121910
1460.000000	51.745739
1450.000000	52.746784
1440.000000	53.919824
1430.000000	55.525486
1420.000000	57.325217
1410.000000	59.244493
1400.000000	60.707190
1390.000000	61.549264
1380.000000	61.994612
1370.000000	62.440003
1360.000000	62.925090
1350.000000	63.527410
1340.000000	64.127682
1330.000000	64.497064
1320.000000	64.448042
1310.000000	64.222934
1300.000000	64.037791
1290.000000	64.019866
1280.000000	64.018220
1270.000000	64.079423
1260.000000	64.046849
1250.000000	63.955594
1240.000000	63.746493
1230.000000	63.548232
1220.000000	63.236065
1210.000000	62.990717
1200.000000	62.953393
1190.000000	63.143149
1180.000000	63.668538
1170.000000	64.223799
1160.000000	64.616042
1150.000000	64.945859
1140.000000	65.012865
1130.000000	65.096620
1120.000000	65.121566
1110.000000	65.264082
1100.000000	65.276064
1090.000000	65.118660
1080.000000	65.037346
1070.000000	64.981189
1060.000000	64.938589
1050.000000	64.876358
1040.000000	64.823619
1030.000000	64.756365
1020.000000	64.786378
1010.000000	64.933251
1000.000000	64.996909
990.000000	64.912428
980.000000	64.966365
970.000000	64.969699
960.000000	65.123064
950.000000	65.127196
940.000000	65.103714
930.000000	65.069801
920.000000	64.868249
910.000000	64.985560
900.000000	65.008482
890.000000	64.815727
880.000000	65.049466
870.000000	64.609545
860.000000	65.092929
850.000000	64.824559
840.000000	64.509391
830.000000	64.223540
820.000000	64.187626
810.000000	63.663278
800.000000	63.701911
790.000000	63.479438
780.000000	63.365256
770.000000	62.913615
760.000000	62.509279
750.000000	62.338624
740.000000	62.011771
730.000000	61.401148
720.000000	60.980636
710.000000	60.582518
700.000000	59.917678
690.000000	59.173787
680.000000	58.367329
670.000000	57.608760
660.000000	56.729604
650.000000	55.936357
640.000000	55.059884
630.000000	54.156034
620.000000	53.068160
610.000000	51.994792
600.000000	50.905141
590.000000	49.599187
580.000000	48.299463
570.000000	46.916883
560.000000	45.408604
550.000000	43.860056
540.000000	42.278318
530.000000	40.619140
520.000000	38.943121
510.000000	37.203281
500.000000	35.464556
490.000000	33.638849
480.000000	31.750864
470.000000	30.025891
460.000000	28.303662
450.000000	26.382418
440.000000	24.176950
430.000000	22.166265
420.000000	20.020878
410.000000	18.016740
400.000000	16.050930
390.000000	14.267804
380.000000	12.543027
370.000000	10.867815
360.000000	9.324104
350.000000	8.798162
340.000000	7.453476
330.000000	6.747260
320.000000	5.577089
310.000000	5.483632
300.000000	4.268590
290.000000	3.858267
280.000000	3.842924
270.000000	4.000636
260.000000	4.519412
250.000000	4.767373
