PE UV       SUBTECH     SPECTRUM    ASCII       PEDS        4.00        
   -1
019-1C-XXX-NR008-X001.Sample.asc
24/01/19
19:13:08.00
24/01/19
19:13:08.00
Administrator

250.000000
1
Lambda 750
750N8071901
PerkinElmer UV WinLab 6.0.4.0738 / 1.61.00 Lambda 900

0
0
3350/servo 860.8/2
0
0
UV/VIS
1
1
1
CommonBeamDepol,150mm sphere / downward view
0
0
0
0
Program
Program
3350/servo 860.8/2
3350/0.2 860.8/0.2
3350/0.2 860.8/0.2
0
1
 
 
 
0
 
860.8
319.2
860.8
Front
100
on
 
 
0
0
0
 
0
 
 
 
0
 
 
0
0
0
0
0
 
 
 
 
0
0


0
0
#HDR
-1
-1
#GR
nm
%R
1.0
0.0
2500.000000
-10.000000
226
8
43.130563
1.756858
#DATA
2500.000000	15.597780
2490.000000	16.672398
2480.000000	18.596862
2470.000000	17.185636
2460.000000	18.238811
2450.000000	19.359689
2440.000000	20.211758
2430.000000	20.984863
2420.000000	18.950516
2410.000000	20.193847
2400.000000	20.181731
2390.000000	18.908541
2380.000000	19.742266
2370.000000	18.447528
2360.000000	19.677593
2350.000000	20.282726
2340.000000	19.684340
2330.000000	19.540396
2320.000000	19.274515
2310.000000	19.920392
2300.000000	18.359589
2290.000000	19.401475
2280.000000	19.654591
2270.000000	20.900681
2260.000000	21.038741
2250.000000	22.983708
2240.000000	22.571522
2230.000000	21.958122
2220.000000	22.366755
2210.000000	22.267276
2200.000000	21.473312
2190.000000	21.884891
2180.000000	22.115135
2170.000000	23.390461
2160.000000	24.251028
2150.000000	24.826014
2140.000000	24.938505
2130.000000	25.066311
2120.000000	25.876025
2110.000000	25.110680
2100.000000	25.700813
2090.000000	24.936675
2080.000000	23.640465
2070.000000	23.316596
2060.000000	23.157323
2050.000000	23.253613
2040.000000	23.875990
2030.000000	24.093815
2020.000000	23.472719
2010.000000	22.929452
2000.000000	22.668257
1990.000000	21.847705
1980.000000	21.260329
1970.000000	21.010959
1960.000000	20.650220
1950.000000	21.163989
1940.000000	21.819164
1930.000000	24.099734
1920.000000	26.914527
1910.000000	29.543650
1900.000000	32.135422
1890.000000	33.883759
1880.000000	34.767055
1870.000000	35.401485
1860.000000	35.213920
1850.000000	35.205182
1840.000000	34.854517
1830.000000	34.651710
1820.000000	34.625215
1810.000000	34.508575
1800.000000	34.172621
1790.000000	33.997962
1780.000000	33.779054
1770.000000	33.435214
1760.000000	33.348761
1750.000000	33.126039
1740.000000	33.188960
1730.000000	33.783093
1720.000000	34.124424
1710.000000	34.304147
1700.000000	35.075730
1690.000000	35.892979
1680.000000	36.682174
1670.000000	37.173443
1660.000000	37.201191
1650.000000	37.146088
1640.000000	36.901208
1630.000000	36.545008
1620.000000	36.245773
1610.000000	35.901893
1600.000000	35.531408
1590.000000	35.287329
1580.000000	35.151535
1570.000000	35.113843
1560.000000	34.805387
1550.000000	34.388298
1540.000000	33.991173
1530.000000	33.665649
1520.000000	33.547405
1510.000000	33.441443
1500.000000	33.740037
1490.000000	33.995508
1480.000000	34.318746
1470.000000	34.639411
1460.000000	34.946957
1450.000000	35.562798
1440.000000	36.174421
1430.000000	37.078136
1420.000000	38.182462
1410.000000	39.336194
1400.000000	40.247083
1390.000000	40.832199
1380.000000	41.039785
1370.000000	41.256673
1360.000000	41.554989
1350.000000	41.860713
1340.000000	42.221554
1330.000000	42.823713
1320.000000	42.988632
1310.000000	42.823588
1300.000000	42.665300
1290.000000	42.397444
1280.000000	42.375595
1270.000000	42.460729
1260.000000	42.481525
1250.000000	42.634286
1240.000000	42.344487
1230.000000	42.147374
1220.000000	42.023952
1210.000000	41.773305
1200.000000	41.741695
1190.000000	41.864776
1180.000000	42.172459
1170.000000	42.509667
1160.000000	42.801327
1150.000000	42.940184
1140.000000	43.063896
1130.000000	43.005235
1120.000000	43.037301
1110.000000	43.128284
1100.000000	43.130563
1090.000000	43.002029
1080.000000	42.952273
1070.000000	42.856882
1060.000000	42.780068
1050.000000	42.725654
1040.000000	42.606998
1030.000000	42.476137
1020.000000	42.520525
1010.000000	42.617696
1000.000000	42.621929
990.000000	42.576250
980.000000	42.642789
970.000000	42.639084
960.000000	42.646844
950.000000	42.529119
940.000000	42.433633
930.000000	42.525205
920.000000	42.518620
910.000000	42.378456
900.000000	42.377003
890.000000	42.065747
880.000000	42.503214
870.000000	42.257841
860.000000	42.537482
850.000000	41.070958
840.000000	40.389646
830.000000	40.491293
820.000000	40.213604
810.000000	39.943891
800.000000	39.906897
790.000000	39.637967
780.000000	39.576112
770.000000	39.475824
760.000000	39.053359
750.000000	38.972097
740.000000	38.754188
730.000000	38.391173
720.000000	38.318545
710.000000	37.907135
700.000000	37.623917
690.000000	37.258081
680.000000	36.855281
670.000000	36.471030
660.000000	36.035534
650.000000	35.665410
640.000000	35.088741
630.000000	34.639489
620.000000	34.115373
610.000000	33.596282
600.000000	33.036580
590.000000	32.425705
580.000000	31.737114
570.000000	31.058214
560.000000	30.296648
550.000000	29.477077
540.000000	28.618754
530.000000	27.770453
520.000000	26.838219
510.000000	25.878093
500.000000	24.934592
490.000000	23.980720
480.000000	23.041506
470.000000	22.117534
460.000000	21.185090
450.000000	20.077137
440.000000	18.846039
430.000000	17.573742
420.000000	16.209741
410.000000	14.798563
400.000000	13.423003
390.000000	11.987893
380.000000	10.619494
370.000000	9.166589
360.000000	8.183588
350.000000	6.942854
340.000000	5.810417
330.000000	5.003972
320.000000	3.824389
310.000000	2.661417
300.000000	2.199242
290.000000	1.809225
280.000000	1.756858
270.000000	1.783031
260.000000	2.230859
250.000000	2.370653
