PE UV       SUBTECH     SPECTRUM    ASCII       PEDS        4.00        
   -1
019-1C-XXX-NR008-Y001.Sample.asc
24/01/19
19:17:22.00
24/01/19
19:17:22.00
Administrator

250.000000
1
Lambda 750
750N8071901
PerkinElmer UV WinLab 6.0.4.0738 / 1.61.00 Lambda 900

0
0
3350/servo 860.8/2
0
0
UV/VIS
1
1
1
CommonBeamDepol,150mm sphere / downward view
0
0
0
0
Program
Program
3350/servo 860.8/2
3350/0.2 860.8/0.2
3350/0.2 860.8/0.2
0
1
 
 
 
0
 
860.8
319.2
860.8
Front
100
on
 
 
0
0
0
 
0
 
 
 
0
 
 
0
0
0
0
0
 
 
 
 
0
0


0
0
#HDR
-1
-1
#GR
nm
%R
1.0
0.0
2500.000000
-10.000000
226
8
59.669435
5.508606
#DATA
2500.000000	10.015563
2490.000000	10.681662
2480.000000	12.955878
2470.000000	13.776155
2460.000000	14.072331
2450.000000	14.274443
2440.000000	15.003199
2430.000000	14.509572
2420.000000	14.270506
2410.000000	17.217409
2400.000000	18.065684
2390.000000	15.715821
2380.000000	16.715789
2370.000000	16.490881
2360.000000	16.778148
2350.000000	16.754676
2340.000000	16.147147
2330.000000	16.333102
2320.000000	15.956838
2310.000000	14.353308
2300.000000	13.775644
2290.000000	15.078917
2280.000000	16.212581
2270.000000	17.743600
2260.000000	19.350397
2250.000000	21.155378
2240.000000	19.942237
2230.000000	20.297761
2220.000000	19.961222
2210.000000	19.384700
2200.000000	17.853488
2190.000000	18.319193
2180.000000	19.330823
2170.000000	20.981462
2160.000000	21.663990
2150.000000	22.181044
2140.000000	23.270514
2130.000000	23.823120
2120.000000	24.412530
2110.000000	24.029384
2100.000000	23.827924
2090.000000	23.140290
2080.000000	21.485345
2070.000000	20.865008
2060.000000	19.991310
2050.000000	20.564007
2040.000000	21.308565
2030.000000	21.914091
2020.000000	20.976852
2010.000000	20.028814
2000.000000	19.077999
1990.000000	18.173087
1980.000000	17.073264
1970.000000	16.471981
1960.000000	16.333758
1950.000000	16.883500
1940.000000	18.661232
1930.000000	22.277951
1920.000000	26.704964
1910.000000	31.818602
1900.000000	36.418535
1890.000000	39.723625
1880.000000	41.247644
1870.000000	42.269548
1860.000000	42.118908
1850.000000	41.936397
1840.000000	41.600649
1830.000000	41.495971
1820.000000	40.939200
1810.000000	40.528927
1800.000000	40.118274
1790.000000	39.663657
1780.000000	39.255397
1770.000000	38.618911
1760.000000	38.102855
1750.000000	37.713046
1740.000000	38.072307
1730.000000	39.250010
1720.000000	39.964120
1710.000000	40.189669
1700.000000	41.407729
1690.000000	43.303875
1680.000000	44.837279
1670.000000	45.535403
1660.000000	45.674246
1650.000000	45.454864
1640.000000	44.961422
1630.000000	44.338971
1620.000000	43.581307
1610.000000	42.911465
1600.000000	42.281791
1590.000000	41.790280
1580.000000	41.484347
1570.000000	41.280900
1560.000000	40.817508
1550.000000	39.778493
1540.000000	38.981415
1530.000000	38.471492
1520.000000	38.136500
1510.000000	38.172190
1500.000000	38.558968
1490.000000	39.114270
1480.000000	39.620791
1470.000000	40.300750
1460.000000	40.983031
1450.000000	42.120399
1440.000000	43.464552
1430.000000	45.308509
1420.000000	47.486100
1410.000000	49.729356
1400.000000	51.455507
1390.000000	52.544140
1380.000000	53.043074
1370.000000	53.744780
1360.000000	54.279566
1350.000000	54.878195
1340.000000	55.486708
1330.000000	56.217297
1320.000000	56.451007
1310.000000	56.398697
1300.000000	56.371172
1290.000000	56.251715
1280.000000	56.301444
1270.000000	56.395303
1260.000000	56.268670
1250.000000	56.295349
1240.000000	56.113016
1230.000000	55.823419
1220.000000	55.478884
1210.000000	55.129867
1200.000000	55.023046
1190.000000	55.500309
1180.000000	55.994973
1170.000000	56.696286
1160.000000	57.313259
1150.000000	57.792385
1140.000000	58.017924
1130.000000	58.146180
1120.000000	58.237769
1110.000000	58.330835
1100.000000	58.403739
1090.000000	58.194908
1080.000000	58.071159
1070.000000	58.037914
1060.000000	57.987900
1050.000000	57.972175
1040.000000	57.921175
1030.000000	57.855887
1020.000000	57.923304
1010.000000	58.079552
1000.000000	58.177205
990.000000	58.170245
980.000000	58.266852
970.000000	58.308125
960.000000	58.444207
950.000000	58.461114
940.000000	58.351289
930.000000	58.406795
920.000000	58.275767
910.000000	58.459370
900.000000	58.631120
890.000000	58.333575
880.000000	58.548350
870.000000	58.552126
860.000000	59.037745
850.000000	59.669435
840.000000	59.021084
830.000000	59.183648
820.000000	59.122125
810.000000	58.912258
800.000000	58.807652
790.000000	58.553112
780.000000	58.709154
770.000000	58.411609
760.000000	58.305255
750.000000	58.178234
740.000000	57.984275
730.000000	57.637537
720.000000	57.486989
710.000000	57.271512
700.000000	56.798044
690.000000	56.245828
680.000000	55.997027
670.000000	55.578360
660.000000	55.084261
650.000000	54.622248
640.000000	54.033045
630.000000	53.419855
620.000000	52.806064
610.000000	52.120406
600.000000	51.428869
590.000000	50.643637
580.000000	49.755691
570.000000	48.853043
560.000000	47.842195
550.000000	46.824306
540.000000	45.678386
530.000000	44.514767
520.000000	43.226323
510.000000	41.806141
500.000000	40.400638
490.000000	39.138127
480.000000	37.820010
470.000000	36.247395
460.000000	34.769845
450.000000	33.156353
440.000000	31.206910
430.000000	29.183472
420.000000	26.830759
410.000000	24.503602
400.000000	22.057619
390.000000	19.784666
380.000000	17.585841
370.000000	15.286229
360.000000	13.154188
350.000000	11.412278
340.000000	9.681880
330.000000	7.955248
320.000000	6.416077
310.000000	6.281125
300.000000	6.403444
290.000000	5.731285
280.000000	5.508606
270.000000	5.601386
260.000000	5.923140
250.000000	6.217023
