PE UV       SUBTECH     SPECTRUM    ASCII       PEDS        4.00        
   -1
019-1C-XXX-NR007-Y001.Sample.asc
24/01/19
19:08:19.00
24/01/19
19:08:19.00
Administrator

250.000000
1
Lambda 750
750N8071901
PerkinElmer UV WinLab 6.0.4.0738 / 1.61.00 Lambda 900

0
0
3350/servo 860.8/2
0
0
UV/VIS
1
1
1
CommonBeamDepol,150mm sphere / downward view
0
0
0
0
Program
Program
3350/servo 860.8/2
3350/0.2 860.8/0.2
3350/0.2 860.8/0.2
0
1
 
 
 
0
 
860.8
319.2
860.8
Front
100
on
 
 
0
0
0
 
0
 
 
 
0
 
 
0
0
0
0
0
 
 
 
 
0
0


0
0
#HDR
-1
-1
#GR
nm
%R
1.0
0.0
2500.000000
-10.000000
226
8
57.361861
3.471552
#DATA
2500.000000	9.592680
2490.000000	8.845592
2480.000000	11.736323
2470.000000	10.856251
2460.000000	11.250056
2450.000000	13.350806
2440.000000	15.809648
2430.000000	14.229888
2420.000000	13.190612
2410.000000	15.295143
2400.000000	15.492062
2390.000000	14.387408
2380.000000	13.320963
2370.000000	14.072335
2360.000000	14.462633
2350.000000	14.694731
2340.000000	13.899796
2330.000000	14.695753
2320.000000	13.715475
2310.000000	13.611505
2300.000000	12.807895
2290.000000	13.531214
2280.000000	13.396117
2270.000000	15.147602
2260.000000	17.264263
2250.000000	18.090975
2240.000000	18.564383
2230.000000	18.852116
2220.000000	17.796837
2210.000000	17.005788
2200.000000	16.561726
2190.000000	16.028332
2180.000000	17.177904
2170.000000	18.391931
2160.000000	19.444702
2150.000000	20.589535
2140.000000	21.625107
2130.000000	21.737617
2120.000000	22.349446
2110.000000	21.702851
2100.000000	22.185532
2090.000000	21.457025
2080.000000	19.635534
2070.000000	18.637153
2060.000000	17.919920
2050.000000	18.864394
2040.000000	19.347967
2030.000000	19.905166
2020.000000	19.017829
2010.000000	18.132044
2000.000000	16.960465
1990.000000	15.902610
1980.000000	14.897729
1970.000000	14.384643
1960.000000	14.314410
1950.000000	14.919026
1940.000000	16.248005
1930.000000	19.953795
1920.000000	24.946864
1910.000000	30.109398
1900.000000	35.138025
1890.000000	38.558732
1880.000000	40.495895
1870.000000	41.190007
1860.000000	41.024003
1850.000000	41.132867
1840.000000	40.706534
1830.000000	40.186888
1820.000000	39.752623
1810.000000	39.265503
1800.000000	38.791004
1790.000000	38.293300
1780.000000	37.736043
1770.000000	36.960953
1760.000000	36.472687
1750.000000	36.047110
1740.000000	36.405839
1730.000000	37.596894
1720.000000	38.308450
1710.000000	38.674160
1700.000000	40.046299
1690.000000	42.020903
1680.000000	43.800441
1670.000000	44.544500
1660.000000	44.678958
1650.000000	44.342260
1640.000000	43.801526
1630.000000	43.111057
1620.000000	42.268918
1610.000000	41.504161
1600.000000	40.833758
1590.000000	40.238966
1580.000000	39.756800
1570.000000	39.602357
1560.000000	39.030034
1550.000000	38.057032
1540.000000	37.015155
1530.000000	36.487283
1520.000000	36.154185
1510.000000	36.175116
1500.000000	36.535119
1490.000000	37.129625
1480.000000	37.718299
1470.000000	38.355051
1460.000000	39.108306
1450.000000	40.318513
1440.000000	41.768357
1430.000000	43.785294
1420.000000	46.140348
1410.000000	48.578951
1400.000000	50.444738
1390.000000	51.622482
1380.000000	52.142768
1370.000000	52.893833
1360.000000	53.566572
1350.000000	54.213731
1340.000000	55.104663
1330.000000	55.841865
1320.000000	55.976565
1310.000000	55.797686
1300.000000	55.680140
1290.000000	55.453762
1280.000000	55.543534
1270.000000	55.581726
1260.000000	55.459688
1250.000000	55.439970
1240.000000	55.192355
1230.000000	54.856913
1220.000000	54.466694
1210.000000	54.040366
1200.000000	53.828054
1190.000000	54.187552
1180.000000	54.898408
1170.000000	55.706516
1160.000000	56.331845
1150.000000	56.641735
1140.000000	56.923675
1130.000000	57.097928
1120.000000	57.156594
1110.000000	57.300854
1100.000000	57.283993
1090.000000	57.067086
1080.000000	56.833423
1070.000000	56.665215
1060.000000	56.549943
1050.000000	56.497223
1040.000000	56.368196
1030.000000	56.173303
1020.000000	56.228590
1010.000000	56.413732
1000.000000	56.371906
990.000000	56.334111
980.000000	56.424180
970.000000	56.448105
960.000000	56.488715
950.000000	56.457578
940.000000	56.294947
930.000000	56.379795
920.000000	56.197988
910.000000	56.205134
900.000000	56.514448
890.000000	56.326579
880.000000	56.408839
870.000000	56.438901
860.000000	56.082460
850.000000	57.361861
840.000000	56.479376
830.000000	56.337409
820.000000	56.471954
810.000000	56.074552
800.000000	55.875620
790.000000	55.433470
780.000000	55.495562
770.000000	55.197074
760.000000	54.804544
750.000000	54.620634
740.000000	54.222154
730.000000	53.732764
720.000000	53.498615
710.000000	53.047398
700.000000	52.493664
690.000000	51.973329
680.000000	51.347616
670.000000	50.789643
660.000000	50.178897
650.000000	49.406441
640.000000	48.709620
630.000000	48.006063
620.000000	47.117449
610.000000	46.393118
600.000000	45.570187
590.000000	44.617729
580.000000	43.662279
570.000000	42.661020
560.000000	41.568550
550.000000	40.484770
540.000000	39.261754
530.000000	38.006534
520.000000	36.691907
510.000000	35.320082
500.000000	33.942266
490.000000	32.651994
480.000000	31.378356
470.000000	29.835432
460.000000	28.440413
450.000000	26.837120
440.000000	25.049555
430.000000	23.108365
420.000000	21.094862
410.000000	19.014028
400.000000	16.913813
390.000000	15.023148
380.000000	12.999137
370.000000	11.292595
360.000000	9.572229
350.000000	8.272181
340.000000	7.303459
330.000000	6.017306
320.000000	4.744218
310.000000	4.839136
300.000000	3.853339
290.000000	3.574582
280.000000	3.471552
270.000000	3.651633
260.000000	4.044568
250.000000	4.328167
