PE UV       SUBTECH     SPECTRUM    ASCII       PEDS        4.00        
   -1
18-1G-XXX-NR007-F001.Sample.asc
24/01/19
18:03:35.00
24/01/19
18:03:35.00
Administrator

250.000000
1
Lambda 750
750N8071901
PerkinElmer UV WinLab 6.0.4.0738 / 1.61.00 Lambda 900

0
0
3350/servo 860.8/2
0
0
UV/VIS
1
1
1
CommonBeamDepol,150mm sphere / downward view
0
0
0
0
Program
Program
3350/servo 860.8/2
3350/0.2 860.8/0.2
3350/0.2 860.8/0.2
0
1
 
 
 
0
 
860.8
319.2
860.8
Front
100
on
 
 
0
0
0
 
0
 
 
 
0
 
 
0
0
0
0
0
 
 
 
 
0
0


0
0
#HDR
-1
-1
#GR
nm
%R
1.0
0.0
2500.000000
-10.000000
226
8
66.056782
4.834167
#DATA
2500.000000	8.464449
2490.000000	7.739221
2480.000000	9.595061
2470.000000	10.533707
2460.000000	11.116193
2450.000000	9.928824
2440.000000	14.159955
2430.000000	14.110221
2420.000000	10.232939
2410.000000	11.033190
2400.000000	13.837108
2390.000000	12.436086
2380.000000	12.740041
2370.000000	14.539700
2360.000000	12.428565
2350.000000	12.896214
2340.000000	12.345351
2330.000000	12.333059
2320.000000	11.421529
2310.000000	12.112274
2300.000000	10.775787
2290.000000	10.628085
2280.000000	12.605607
2270.000000	14.429252
2260.000000	16.095535
2250.000000	16.419507
2240.000000	16.463953
2230.000000	16.205319
2220.000000	16.989682
2210.000000	16.301960
2200.000000	15.254954
2190.000000	15.122483
2180.000000	15.476487
2170.000000	16.659042
2160.000000	19.460489
2150.000000	19.435172
2140.000000	20.937503
2130.000000	21.433739
2120.000000	21.441126
2110.000000	20.578455
2100.000000	21.353798
2090.000000	20.150465
2080.000000	18.694302
2070.000000	17.583961
2060.000000	16.490475
2050.000000	17.230673
2040.000000	18.488545
2030.000000	18.657246
2020.000000	17.872759
2010.000000	17.023447
2000.000000	15.385413
1990.000000	14.607067
1980.000000	13.757889
1970.000000	13.272051
1960.000000	12.999466
1950.000000	13.858668
1940.000000	15.501654
1930.000000	19.081181
1920.000000	24.758448
1910.000000	30.699069
1900.000000	36.693744
1890.000000	40.721255
1880.000000	42.552915
1870.000000	43.628899
1860.000000	43.681433
1850.000000	43.290619
1840.000000	42.642341
1830.000000	42.125337
1820.000000	41.513961
1810.000000	41.034458
1800.000000	40.590018
1790.000000	39.952253
1780.000000	39.133394
1770.000000	38.248938
1760.000000	37.372351
1750.000000	36.608375
1740.000000	37.169006
1730.000000	38.639899
1720.000000	39.571276
1710.000000	40.167740
1700.000000	41.837228
1690.000000	44.461060
1680.000000	46.849121
1670.000000	47.831590
1660.000000	47.886265
1650.000000	47.452857
1640.000000	46.733763
1630.000000	45.780260
1620.000000	44.793798
1610.000000	43.809154
1600.000000	42.899948
1590.000000	42.179929
1580.000000	41.555845
1570.000000	41.195733
1560.000000	40.434747
1550.000000	39.255272
1540.000000	38.043040
1530.000000	37.334660
1520.000000	36.953458
1510.000000	36.897193
1500.000000	37.372166
1490.000000	38.157944
1480.000000	38.835184
1470.000000	39.724098
1460.000000	40.673035
1450.000000	42.223586
1440.000000	44.123276
1430.000000	46.803195
1420.000000	49.838371
1410.000000	52.981358
1400.000000	55.439410
1390.000000	56.954911
1380.000000	57.957649
1370.000000	58.980516
1360.000000	60.057381
1350.000000	61.060427
1340.000000	62.094011
1330.000000	62.768799
1320.000000	62.874089
1310.000000	62.691317
1300.000000	62.424023
1290.000000	62.445696
1280.000000	62.444516
1270.000000	62.541737
1260.000000	62.495358
1250.000000	62.183029
1240.000000	61.731842
1230.000000	61.150857
1220.000000	60.607528
1210.000000	60.002625
1200.000000	59.866668
1190.000000	60.491579
1180.000000	61.583284
1170.000000	62.863828
1160.000000	63.770699
1150.000000	64.539436
1140.000000	64.946491
1130.000000	65.132766
1120.000000	65.206132
1110.000000	65.373996
1100.000000	65.341700
1090.000000	65.214739
1080.000000	65.097195
1070.000000	64.949120
1060.000000	64.851007
1050.000000	64.769856
1040.000000	64.716847
1030.000000	64.596291
1020.000000	64.673742
1010.000000	64.904650
1000.000000	65.008453
990.000000	65.053002
980.000000	65.261020
970.000000	65.365023
960.000000	65.545098
950.000000	65.530160
940.000000	65.504769
930.000000	65.689155
920.000000	65.529583
910.000000	65.694132
900.000000	65.716540
890.000000	65.554219
880.000000	66.008392
870.000000	65.700816
860.000000	66.056782
850.000000	65.998438
840.000000	65.155831
830.000000	65.438310
820.000000	65.319850
810.000000	65.139151
800.000000	65.065900
790.000000	64.941483
780.000000	64.845331
770.000000	64.700109
760.000000	64.431248
750.000000	64.420967
740.000000	64.292920
730.000000	63.958292
720.000000	63.911286
710.000000	63.752201
700.000000	63.379936
690.000000	63.051390
680.000000	62.607001
670.000000	62.253069
660.000000	61.840700
650.000000	61.380849
640.000000	60.767129
630.000000	60.308558
620.000000	59.738362
610.000000	59.128295
600.000000	58.468293
590.000000	57.784608
580.000000	56.950457
570.000000	56.229568
560.000000	55.378853
550.000000	54.426201
540.000000	53.559904
530.000000	52.466210
520.000000	51.398427
510.000000	50.145544
500.000000	48.809564
490.000000	47.245158
480.000000	45.336739
470.000000	43.357793
460.000000	41.248071
450.000000	38.676307
440.000000	35.771360
430.000000	33.003733
420.000000	30.111872
410.000000	27.690698
400.000000	25.704812
390.000000	23.585314
380.000000	21.125909
370.000000	18.700852
360.000000	16.212248
350.000000	14.147048
340.000000	12.290390
330.000000	10.829567
320.000000	9.196537
310.000000	8.032576
300.000000	5.598325
290.000000	4.834167
280.000000	5.288053
270.000000	5.205884
260.000000	5.802856
250.000000	6.028257
