PE UV       SUBTECH     SPECTRUM    ASCII       PEDS        4.00        
   -1
18-3C-XXX-NR008-C001.Sample.asc
24/01/19
18:20:54.00
24/01/19
18:20:54.00
Administrator

250.000000
1
Lambda 750
750N8071901
PerkinElmer UV WinLab 6.0.4.0738 / 1.61.00 Lambda 900

0
0
3350/servo 860.8/2
0
0
UV/VIS
1
1
1
CommonBeamDepol,150mm sphere / downward view
0
0
0
0
Program
Program
3350/servo 860.8/2
3350/0.2 860.8/0.2
3350/0.2 860.8/0.2
0
1
 
 
 
0
 
860.8
319.2
860.8
Front
100
on
 
 
0
0
0
 
0
 
 
 
0
 
 
0
0
0
0
0
 
 
 
 
0
0


0
0
#HDR
-1
-1
#GR
nm
%R
1.0
0.0
2500.000000
-10.000000
226
8
52.568474
6.916866
#DATA
2500.000000	6.916866
2490.000000	9.243219
2480.000000	11.877124
2470.000000	9.133546
2460.000000	10.967549
2450.000000	11.319521
2440.000000	13.953744
2430.000000	12.878727
2420.000000	11.449872
2410.000000	15.166620
2400.000000	15.396813
2390.000000	12.571165
2380.000000	12.298352
2370.000000	11.493901
2360.000000	13.432039
2350.000000	13.793557
2340.000000	14.438053
2330.000000	13.537329
2320.000000	13.290701
2310.000000	12.473580
2300.000000	12.217010
2290.000000	12.521289
2280.000000	13.164728
2270.000000	13.642916
2260.000000	15.547446
2250.000000	17.160168
2240.000000	17.130129
2230.000000	15.753760
2220.000000	16.221413
2210.000000	16.147091
2200.000000	14.930445
2190.000000	14.851855
2180.000000	15.552331
2170.000000	16.180891
2160.000000	17.860468
2150.000000	18.958483
2140.000000	19.267064
2130.000000	20.084505
2120.000000	20.301798
2110.000000	19.379046
2100.000000	19.647904
2090.000000	19.151331
2080.000000	17.931575
2070.000000	16.991489
2060.000000	16.181722
2050.000000	16.571491
2040.000000	17.347528
2030.000000	18.106622
2020.000000	17.120416
2010.000000	16.250739
2000.000000	15.161926
1990.000000	14.346484
1980.000000	13.593064
1970.000000	12.983784
1960.000000	12.609225
1950.000000	13.700516
1940.000000	14.740217
1930.000000	17.628822
1920.000000	22.344008
1910.000000	26.824746
1900.000000	31.197974
1890.000000	34.223959
1880.000000	35.512305
1870.000000	36.415665
1860.000000	36.427083
1850.000000	36.459670
1840.000000	35.922697
1830.000000	35.672502
1820.000000	35.256235
1810.000000	34.856789
1800.000000	34.574267
1790.000000	34.212580
1780.000000	33.773360
1770.000000	33.211004
1760.000000	32.723272
1750.000000	32.330145
1740.000000	32.663590
1730.000000	33.727358
1720.000000	34.190348
1710.000000	34.580284
1700.000000	35.639210
1690.000000	37.332239
1680.000000	38.863313
1670.000000	39.523600
1660.000000	39.520824
1650.000000	39.230973
1640.000000	38.776567
1630.000000	38.151655
1620.000000	37.483844
1610.000000	36.833538
1600.000000	36.221846
1590.000000	35.738728
1580.000000	35.310449
1570.000000	35.082580
1560.000000	34.670976
1550.000000	33.800213
1540.000000	33.012746
1530.000000	32.513484
1520.000000	32.233661
1510.000000	32.192263
1500.000000	32.439606
1490.000000	32.891167
1480.000000	33.327064
1470.000000	33.911954
1460.000000	34.592983
1450.000000	35.644276
1440.000000	36.949580
1430.000000	38.786121
1420.000000	40.860919
1410.000000	43.120939
1400.000000	44.808530
1390.000000	45.796930
1380.000000	46.367134
1370.000000	46.971050
1360.000000	47.688768
1350.000000	48.275880
1340.000000	49.097299
1330.000000	49.635642
1320.000000	49.670549
1310.000000	49.457710
1300.000000	49.211473
1290.000000	49.053297
1280.000000	49.178120
1270.000000	49.375467
1260.000000	49.463908
1250.000000	49.328435
1240.000000	49.109974
1230.000000	48.822079
1220.000000	48.445728
1210.000000	48.098462
1200.000000	48.004319
1190.000000	48.275445
1180.000000	48.992579
1170.000000	49.740275
1160.000000	50.280234
1150.000000	50.787809
1140.000000	51.080630
1130.000000	51.191255
1120.000000	51.277046
1110.000000	51.393907
1100.000000	51.509097
1090.000000	51.391060
1080.000000	51.355865
1070.000000	51.257069
1060.000000	51.213674
1050.000000	51.182786
1040.000000	51.120590
1030.000000	51.111352
1020.000000	51.110348
1010.000000	51.297485
1000.000000	51.386491
990.000000	51.490567
980.000000	51.587677
970.000000	51.710288
960.000000	51.801317
950.000000	51.888564
940.000000	51.884586
930.000000	51.897391
920.000000	51.955283
910.000000	51.873806
900.000000	52.182856
890.000000	52.202671
880.000000	52.395520
870.000000	52.456012
860.000000	52.568474
850.000000	52.137922
840.000000	51.979538
830.000000	52.046931
820.000000	52.120359
810.000000	51.894965
800.000000	51.887540
790.000000	51.751273
780.000000	51.834692
770.000000	51.858787
760.000000	51.566790
750.000000	51.645605
740.000000	51.505305
730.000000	51.261942
720.000000	51.386479
710.000000	51.314461
700.000000	50.884280
690.000000	50.719074
680.000000	50.482414
670.000000	50.148114
660.000000	49.916174
650.000000	49.614685
640.000000	49.328124
630.000000	49.147716
620.000000	48.844277
610.000000	48.628692
600.000000	48.333304
590.000000	47.900686
580.000000	47.674822
570.000000	47.417483
560.000000	47.178236
550.000000	46.851793
540.000000	46.535216
530.000000	46.256336
520.000000	45.850401
510.000000	45.256743
500.000000	44.738997
490.000000	44.069608
480.000000	43.197894
470.000000	42.083181
460.000000	40.755015
450.000000	39.273025
440.000000	37.383519
430.000000	35.468973
420.000000	33.583677
410.000000	31.902034
400.000000	30.743559
390.000000	29.716118
380.000000	28.565197
370.000000	26.763949
360.000000	24.454709
350.000000	22.615058
340.000000	20.961953
330.000000	18.991238
320.000000	17.517162
310.000000	16.126481
300.000000	15.126880
290.000000	11.644626
280.000000	10.496821
270.000000	10.932621
260.000000	11.805894
250.000000	11.275042
