PE UV       SUBTECH     SPECTRUM    ASCII       PEDS        4.00        
   -1
TTgAgneauUK 52.Sample.asc
18/03/08
11:40:51.00
18/03/08
11:40:51.00
Administrator

200.000000
1
Lambda 750
750N8071901
PerkinElmer UV WinLab 6.0.4.0738 / 1.61.00 Lambda 900

0
0
3350/servo 860.8/2
0
0
UV/VIS
1
1
1
CommonBeamDepol,150mm sphere / downward view
0
0
0
0
Program
Program
3350/servo 860.8/2
3350/0.2 860.8/0.2
3350/0.2 860.8/0.2
0
1
 
 
 
0
 
860.8
319.2
860.8
Front
100
on
 
 
0
0
0
 
0
 
 
 
0
 
 
0
0
0
0
0
 
 
 
 
0
0


0
0
#HDR
-1
-1
#GR
nm
%T
1.0
0.0
2350.000000
-1.000000
2151
8
27.781280
0.039620
#DATA
2350.000000	7.331200
2349.000000	7.435320
2348.000000	7.554966
2347.000000	8.270346
2346.000000	7.582779
2345.000000	7.424665
2344.000000	7.252331
2343.000000	7.195184
2342.000000	7.344123
2341.000000	7.536271
2340.000000	7.552720
2339.000000	7.894755
2338.000000	7.697097
2337.000000	7.704965
2336.000000	7.902871
2335.000000	8.208554
2334.000000	7.830748
2333.000000	8.418960
2332.000000	7.927117
2331.000000	8.289500
2330.000000	7.969546
2329.000000	7.797238
2328.000000	7.750237
2327.000000	7.936652
2326.000000	8.083301
2325.000000	8.068253
2324.000000	8.038249
2323.000000	8.021281
2322.000000	8.008514
2321.000000	7.838872
2320.000000	7.713556
2319.000000	7.912407
2318.000000	7.784408
2317.000000	7.700636
2316.000000	7.590602
2315.000000	7.781091
2314.000000	7.578008
2313.000000	7.593369
2312.000000	7.287337
2311.000000	7.421235
2310.000000	7.469135
2309.000000	7.501395
2308.000000	7.439719
2307.000000	7.305941
2306.000000	7.546672
2305.000000	7.482334
2304.000000	7.265534
2303.000000	7.322164
2302.000000	7.221310
2301.000000	7.244500
2300.000000	6.966370
2299.000000	6.883317
2298.000000	6.707851
2297.000000	6.675860
2296.000000	6.978742
2295.000000	6.990404
2294.000000	6.854728
2293.000000	6.727900
2292.000000	6.673189
2291.000000	6.590485
2290.000000	6.536976
2289.000000	6.647981
2288.000000	6.536971
2287.000000	6.775757
2286.000000	6.679369
2285.000000	6.361450
2284.000000	6.452205
2283.000000	6.534178
2282.000000	6.530278
2281.000000	6.480449
2280.000000	6.480875
2279.000000	6.606590
2278.000000	6.702306
2277.000000	6.676410
2276.000000	6.619988
2275.000000	6.655701
2274.000000	6.732857
2273.000000	6.894655
2272.000000	6.901531
2271.000000	6.732385
2270.000000	6.675209
2269.000000	6.711869
2268.000000	6.642610
2267.000000	6.713542
2266.000000	6.868933
2265.000000	6.962319
2264.000000	6.994546
2263.000000	6.986878
2262.000000	7.025455
2261.000000	7.147798
2260.000000	7.365500
2259.000000	7.455674
2258.000000	7.487664
2257.000000	7.640930
2256.000000	7.688502
2255.000000	7.674582
2254.000000	7.756608
2253.000000	7.753202
2252.000000	7.884510
2251.000000	8.035006
2250.000000	8.235775
2249.000000	8.410751
2248.000000	8.430803
2247.000000	8.534200
2246.000000	8.627494
2245.000000	8.709778
2244.000000	8.861738
2243.000000	9.019767
2242.000000	9.026896
2241.000000	9.009009
2240.000000	8.985045
2239.000000	9.103098
2238.000000	9.269194
2237.000000	9.279249
2236.000000	9.356763
2235.000000	9.512887
2234.000000	9.537848
2233.000000	9.538942
2232.000000	9.528081
2231.000000	9.514870
2230.000000	9.643591
2229.000000	9.660089
2228.000000	9.764173
2227.000000	9.880186
2226.000000	9.660845
2225.000000	9.582790
2224.000000	9.691010
2223.000000	9.554597
2222.000000	9.480560
2221.000000	9.532271
2220.000000	9.532324
2219.000000	9.596660
2218.000000	9.611031
2217.000000	9.595423
2216.000000	9.498260
2215.000000	9.358766
2214.000000	9.471369
2213.000000	9.553211
2212.000000	9.453623
2211.000000	9.389864
2210.000000	9.236095
2209.000000	9.113386
2208.000000	9.070482
2207.000000	9.068474
2206.000000	9.070666
2205.000000	9.100732
2204.000000	9.110999
2203.000000	9.060611
2202.000000	9.013382
2201.000000	8.971211
2200.000000	8.935671
2199.000000	8.838590
2198.000000	8.848979
2197.000000	8.746342
2196.000000	8.709597
2195.000000	8.625891
2194.000000	8.661934
2193.000000	8.632771
2192.000000	8.563347
2191.000000	8.458374
2190.000000	8.541269
2189.000000	8.451939
2188.000000	8.296880
2187.000000	8.303535
2186.000000	8.357302
2185.000000	8.289810
2184.000000	8.319228
2183.000000	8.385371
2182.000000	8.341793
2181.000000	8.256720
2180.000000	8.348563
2179.000000	8.241343
2178.000000	8.111274
2177.000000	8.191922
2176.000000	8.203205
2175.000000	8.188333
2174.000000	8.294278
2173.000000	8.272416
2172.000000	8.233065
2171.000000	8.242006
2170.000000	8.293563
2169.000000	8.405383
2168.000000	8.391765
2167.000000	8.396011
2166.000000	8.460035
2165.000000	8.395415
2164.000000	8.492077
2163.000000	8.559080
2162.000000	8.802339
2161.000000	8.736152
2160.000000	8.753086
2159.000000	8.756064
2158.000000	8.961547
2157.000000	8.880423
2156.000000	8.942197
2155.000000	8.990140
2154.000000	9.245912
2153.000000	9.316541
2152.000000	9.391867
2151.000000	9.312697
2150.000000	9.335368
2149.000000	9.583320
2148.000000	9.609094
2147.000000	9.668767
2146.000000	9.718102
2145.000000	9.727954
2144.000000	9.719519
2143.000000	9.860183
2142.000000	9.949837
2141.000000	10.074721
2140.000000	10.186104
2139.000000	10.101188
2138.000000	10.231616
2137.000000	10.308096
2136.000000	10.247776
2135.000000	10.399707
2134.000000	10.382850
2133.000000	10.212734
2132.000000	10.553781
2131.000000	10.592596
2130.000000	10.645333
2129.000000	10.615702
2128.000000	10.728969
2127.000000	10.615572
2126.000000	10.717149
2125.000000	10.768686
2124.000000	10.734049
2123.000000	10.640294
2122.000000	10.823051
2121.000000	10.872772
2120.000000	10.923366
2119.000000	10.887974
2118.000000	10.817842
2117.000000	10.810462
2116.000000	10.950844
2115.000000	11.020356
2114.000000	11.023051
2113.000000	11.000503
2112.000000	10.944500
2111.000000	10.860441
2110.000000	10.820107
2109.000000	11.010256
2108.000000	10.980695
2107.000000	11.104821
2106.000000	11.077439
2105.000000	11.148390
2104.000000	11.027018
2103.000000	10.925577
2102.000000	10.993699
2101.000000	11.110011
2100.000000	11.069990
2099.000000	11.023194
2098.000000	11.023241
2097.000000	11.038365
2096.000000	10.925730
2095.000000	10.938587
2094.000000	11.065506
2093.000000	11.096873
2092.000000	11.006565
2091.000000	11.001068
2090.000000	10.943710
2089.000000	10.938645
2088.000000	11.006969
2087.000000	10.946590
2086.000000	10.915080
2085.000000	10.943577
2084.000000	10.953631
2083.000000	10.904016
2082.000000	10.804259
2081.000000	10.691938
2080.000000	10.708750
2079.000000	10.691578
2078.000000	10.602527
2077.000000	10.525842
2076.000000	10.561150
2075.000000	10.502554
2074.000000	10.473860
2073.000000	10.406213
2072.000000	10.289233
2071.000000	10.294982
2070.000000	10.157409
2069.000000	10.059179
2068.000000	9.953147
2067.000000	9.924862
2066.000000	9.797693
2065.000000	9.678222
2064.000000	9.633372
2063.000000	9.560650
2062.000000	9.494101
2061.000000	9.419200
2060.000000	9.311755
2059.000000	9.213373
2058.000000	9.209102
2057.000000	9.130943
2056.000000	9.067209
2055.000000	8.964847
2054.000000	8.844758
2053.000000	8.818170
2052.000000	8.727576
2051.000000	8.610631
2050.000000	8.606907
2049.000000	8.579875
2048.000000	8.537973
2047.000000	8.505017
2046.000000	8.465345
2045.000000	8.408546
2044.000000	8.383044
2043.000000	8.331493
2042.000000	8.341395
2041.000000	8.451097
2040.000000	8.445535
2039.000000	8.413773
2038.000000	8.426897
2037.000000	8.485089
2036.000000	8.514866
2035.000000	8.561042
2034.000000	8.628209
2033.000000	8.638363
2032.000000	8.707031
2031.000000	8.774828
2030.000000	8.824725
2029.000000	8.901995
2028.000000	8.921495
2027.000000	9.004198
2026.000000	9.120874
2025.000000	9.161955
2024.000000	9.182803
2023.000000	9.238707
2022.000000	9.280147
2021.000000	9.274661
2020.000000	9.288996
2019.000000	9.308554
2018.000000	9.355738
2017.000000	9.413650
2016.000000	9.423276
2015.000000	9.380816
2014.000000	9.381448
2013.000000	9.356250
2012.000000	9.338169
2011.000000	9.369051
2010.000000	9.376301
2009.000000	9.324964
2008.000000	9.241954
2007.000000	9.222541
2006.000000	9.182563
2005.000000	9.150128
2004.000000	9.087390
2003.000000	9.040681
2002.000000	9.007710
2001.000000	8.956546
2000.000000	8.904531
1999.000000	8.870469
1998.000000	8.831994
1997.000000	8.803365
1996.000000	8.762763
1995.000000	8.678889
1994.000000	8.589442
1993.000000	8.557918
1992.000000	8.512100
1991.000000	8.427824
1990.000000	8.361945
1989.000000	8.295728
1988.000000	8.292823
1987.000000	8.222691
1986.000000	8.132256
1985.000000	8.054656
1984.000000	8.055183
1983.000000	8.014389
1982.000000	7.924713
1981.000000	7.894381
1980.000000	7.808759
1979.000000	7.771653
1978.000000	7.761245
1977.000000	7.721702
1976.000000	7.633453
1975.000000	7.584326
1974.000000	7.502137
1973.000000	7.498381
1972.000000	7.452598
1971.000000	7.422819
1970.000000	7.330015
1969.000000	7.296576
1968.000000	7.221532
1967.000000	7.217525
1966.000000	7.149450
1965.000000	7.141783
1964.000000	7.110370
1963.000000	7.050678
1962.000000	6.985069
1961.000000	6.938923
1960.000000	6.917693
1959.000000	6.849424
1958.000000	6.814998
1957.000000	6.833156
1956.000000	6.771028
1955.000000	6.736283
1954.000000	6.709792
1953.000000	6.634831
1952.000000	6.627144
1951.000000	6.647868
1950.000000	6.645537
1949.000000	6.621398
1948.000000	6.566382
1947.000000	6.582167
1946.000000	6.536102
1945.000000	6.580842
1944.000000	6.591202
1943.000000	6.619932
1942.000000	6.607760
1941.000000	6.575973
1940.000000	6.652125
1939.000000	6.632886
1938.000000	6.636941
1937.000000	6.686392
1936.000000	6.780112
1935.000000	6.824997
1934.000000	6.897996
1933.000000	6.944022
1932.000000	7.002227
1931.000000	7.095501
1930.000000	7.125918
1929.000000	7.209650
1928.000000	7.375463
1927.000000	7.381818
1926.000000	7.461774
1925.000000	7.599146
1924.000000	7.765702
1923.000000	7.865613
1922.000000	8.013505
1921.000000	8.217969
1920.000000	8.295698
1919.000000	8.434191
1918.000000	8.516703
1917.000000	8.743753
1916.000000	8.829217
1915.000000	9.114957
1914.000000	9.311019
1913.000000	9.607298
1912.000000	9.752505
1911.000000	9.896226
1910.000000	10.186378
1909.000000	10.428246
1908.000000	10.566521
1907.000000	10.854246
1906.000000	11.165542
1905.000000	11.377439
1904.000000	11.669517
1903.000000	11.866575
1902.000000	12.237173
1901.000000	12.500266
1900.000000	12.765090
1899.000000	13.070853
1898.000000	13.403674
1897.000000	13.643608
1896.000000	13.958473
1895.000000	14.254239
1894.000000	14.560798
1893.000000	14.833660
1892.000000	15.103530
1891.000000	15.414535
1890.000000	15.703420
1889.000000	16.019201
1888.000000	16.268742
1887.000000	16.481389
1886.000000	16.738446
1885.000000	16.986714
1884.000000	17.233131
1883.000000	17.491985
1882.000000	17.744159
1881.000000	17.936896
1880.000000	18.146886
1879.000000	18.341124
1878.000000	18.527966
1877.000000	18.722047
1876.000000	18.875993
1875.000000	19.076891
1874.000000	19.210044
1873.000000	19.399593
1872.000000	19.538039
1871.000000	19.613990
1870.000000	19.747735
1869.000000	19.874572
1868.000000	19.949479
1867.000000	20.019897
1866.000000	20.062267
1865.000000	20.149594
1864.000000	20.199370
1863.000000	20.232595
1862.000000	20.251267
1861.000000	20.277692
1860.000000	20.308649
1859.000000	20.328834
1858.000000	20.377985
1857.000000	20.402096
1856.000000	20.437889
1855.000000	20.444741
1854.000000	20.489133
1853.000000	20.528071
1852.000000	20.541698
1851.000000	20.518333
1850.000000	20.532581
1849.000000	20.555366
1848.000000	20.525873
1847.000000	20.545322
1846.000000	20.541938
1845.000000	20.552082
1844.000000	20.532542
1843.000000	20.497510
1842.000000	20.479344
1841.000000	20.462484
1840.000000	20.425916
1839.000000	20.405483
1838.000000	20.403562
1837.000000	20.340681
1836.000000	20.305302
1835.000000	20.261482
1834.000000	20.235517
1833.000000	20.248363
1832.000000	20.218646
1831.000000	20.161931
1830.000000	20.132602
1829.000000	20.106215
1828.000000	20.072804
1827.000000	20.045004
1826.000000	20.013091
1825.000000	19.987089
1824.000000	19.976348
1823.000000	19.950760
1822.000000	19.920790
1821.000000	19.898378
1820.000000	19.858993
1819.000000	19.829697
1818.000000	19.814787
1817.000000	19.787204
1816.000000	19.768060
1815.000000	19.759823
1814.000000	19.743018
1813.000000	19.710313
1812.000000	19.679563
1811.000000	19.666786
1810.000000	19.658597
1809.000000	19.631347
1808.000000	19.593810
1807.000000	19.561464
1806.000000	19.555019
1805.000000	19.534152
1804.000000	19.500187
1803.000000	19.483329
1802.000000	19.464731
1801.000000	19.457595
1800.000000	19.429730
1799.000000	19.403554
1798.000000	19.400774
1797.000000	19.385597
1796.000000	19.364306
1795.000000	19.360674
1794.000000	19.379825
1793.000000	19.361073
1792.000000	19.338123
1791.000000	19.331087
1790.000000	19.317208
1789.000000	19.293900
1788.000000	19.285248
1787.000000	19.275087
1786.000000	19.266576
1785.000000	19.247790
1784.000000	19.223119
1783.000000	19.205729
1782.000000	19.189539
1781.000000	19.174425
1780.000000	19.169550
1779.000000	19.156609
1778.000000	19.125849
1777.000000	19.089681
1776.000000	19.049416
1775.000000	19.007799
1774.000000	18.969674
1773.000000	18.943501
1772.000000	18.910310
1771.000000	18.884441
1770.000000	18.846474
1769.000000	18.793794
1768.000000	18.766688
1767.000000	18.756083
1766.000000	18.705823
1765.000000	18.655224
1764.000000	18.635954
1763.000000	18.587116
1762.000000	18.539294
1761.000000	18.534150
1760.000000	18.510264
1759.000000	18.430260
1758.000000	18.384592
1757.000000	18.345471
1756.000000	18.346839
1755.000000	18.334734
1754.000000	18.256321
1753.000000	18.228738
1752.000000	18.199738
1751.000000	18.177842
1750.000000	18.154937
1749.000000	18.125134
1748.000000	18.069443
1747.000000	18.011313
1746.000000	18.006446
1745.000000	17.952961
1744.000000	17.925197
1743.000000	17.881302
1742.000000	17.845842
1741.000000	17.828732
1740.000000	17.765161
1739.000000	17.742137
1738.000000	17.707689
1737.000000	17.703921
1736.000000	17.656239
1735.000000	17.665311
1734.000000	17.652885
1733.000000	17.625339
1732.000000	17.628300
1731.000000	17.655502
1730.000000	17.671002
1729.000000	17.659046
1728.000000	17.700998
1727.000000	17.734536
1726.000000	17.761346
1725.000000	17.820407
1724.000000	17.839430
1723.000000	17.893262
1722.000000	17.953739
1721.000000	18.010053
1720.000000	18.058783
1719.000000	18.119028
1718.000000	18.177020
1717.000000	18.234938
1716.000000	18.262642
1715.000000	18.326557
1714.000000	18.385792
1713.000000	18.457030
1712.000000	18.479993
1711.000000	18.525244
1710.000000	18.597686
1709.000000	18.607447
1708.000000	18.645121
1707.000000	18.666989
1706.000000	18.686185
1705.000000	18.702816
1704.000000	18.723658
1703.000000	18.694162
1702.000000	18.739579
1701.000000	18.750083
1700.000000	18.764628
1699.000000	18.746143
1698.000000	18.784978
1697.000000	18.774291
1696.000000	18.834106
1695.000000	18.818597
1694.000000	18.858022
1693.000000	18.889566
1692.000000	18.931442
1691.000000	18.955151
1690.000000	19.012575
1689.000000	19.052950
1688.000000	19.129892
1687.000000	19.202057
1686.000000	19.237888
1685.000000	19.337102
1684.000000	19.387951
1683.000000	19.515784
1682.000000	19.616818
1681.000000	19.716751
1680.000000	19.797068
1679.000000	19.909587
1678.000000	20.012566
1677.000000	20.115328
1676.000000	20.239361
1675.000000	20.321622
1674.000000	20.427070
1673.000000	20.546924
1672.000000	20.635513
1671.000000	20.725938
1670.000000	20.830724
1669.000000	20.924306
1668.000000	21.000271
1667.000000	21.073793
1666.000000	21.138505
1665.000000	21.196733
1664.000000	21.248858
1663.000000	21.289119
1662.000000	21.339541
1661.000000	21.412640
1660.000000	21.448964
1659.000000	21.485119
1658.000000	21.516918
1657.000000	21.534703
1656.000000	21.570612
1655.000000	21.583197
1654.000000	21.593388
1653.000000	21.609717
1652.000000	21.625335
1651.000000	21.613812
1650.000000	21.617662
1649.000000	21.606332
1648.000000	21.605288
1647.000000	21.595340
1646.000000	21.580760
1645.000000	21.564783
1644.000000	21.547436
1643.000000	21.534310
1642.000000	21.527612
1641.000000	21.525076
1640.000000	21.500839
1639.000000	21.476027
1638.000000	21.465450
1637.000000	21.450883
1636.000000	21.425276
1635.000000	21.400089
1634.000000	21.372453
1633.000000	21.350661
1632.000000	21.320120
1631.000000	21.270725
1630.000000	21.248180
1629.000000	21.229191
1628.000000	21.195052
1627.000000	21.159992
1626.000000	21.137452
1625.000000	21.103491
1624.000000	21.077782
1623.000000	21.043064
1622.000000	21.012642
1621.000000	20.979817
1620.000000	20.955753
1619.000000	20.926518
1618.000000	20.890626
1617.000000	20.857674
1616.000000	20.814242
1615.000000	20.781241
1614.000000	20.742660
1613.000000	20.711895
1612.000000	20.679044
1611.000000	20.634279
1610.000000	20.603897
1609.000000	20.571158
1608.000000	20.531689
1607.000000	20.497874
1606.000000	20.441974
1605.000000	20.392626
1604.000000	20.361211
1603.000000	20.322418
1602.000000	20.283744
1601.000000	20.244467
1600.000000	20.214990
1599.000000	20.173240
1598.000000	20.119939
1597.000000	20.086682
1596.000000	20.060230
1595.000000	20.026858
1594.000000	19.981799
1593.000000	19.949602
1592.000000	19.921817
1591.000000	19.889663
1590.000000	19.850013
1589.000000	19.812810
1588.000000	19.781520
1587.000000	19.763228
1586.000000	19.729795
1585.000000	19.679727
1584.000000	19.659774
1583.000000	19.641787
1582.000000	19.616961
1581.000000	19.590794
1580.000000	19.559289
1579.000000	19.524412
1578.000000	19.492490
1577.000000	19.454591
1576.000000	19.427916
1575.000000	19.401659
1574.000000	19.363436
1573.000000	19.338294
1572.000000	19.313096
1571.000000	19.278371
1570.000000	19.250409
1569.000000	19.225644
1568.000000	19.196285
1567.000000	19.171723
1566.000000	19.148679
1565.000000	19.127627
1564.000000	19.098531
1563.000000	19.092992
1562.000000	19.070493
1561.000000	19.047338
1560.000000	19.034203
1559.000000	19.020986
1558.000000	18.998343
1557.000000	18.980294
1556.000000	18.967737
1555.000000	18.941723
1554.000000	18.909300
1553.000000	18.899799
1552.000000	18.885644
1551.000000	18.860830
1550.000000	18.840135
1549.000000	18.803175
1548.000000	18.778097
1547.000000	18.750812
1546.000000	18.699502
1545.000000	18.659956
1544.000000	18.614305
1543.000000	18.575691
1542.000000	18.529680
1541.000000	18.464825
1540.000000	18.410448
1539.000000	18.360410
1538.000000	18.305574
1537.000000	18.245378
1536.000000	18.193807
1535.000000	18.159980
1534.000000	18.165334
1533.000000	18.156876
1532.000000	18.125251
1531.000000	18.058289
1530.000000	17.979320
1529.000000	17.912399
1528.000000	17.845231
1527.000000	17.791941
1526.000000	17.719714
1525.000000	17.674077
1524.000000	17.687121
1523.000000	17.662846
1522.000000	17.605533
1521.000000	17.554202
1520.000000	17.503734
1519.000000	17.484450
1518.000000	17.473744
1517.000000	17.434083
1516.000000	17.395282
1515.000000	17.392179
1514.000000	17.372947
1513.000000	17.357725
1512.000000	17.317333
1511.000000	17.270869
1510.000000	17.284950
1509.000000	17.277075
1508.000000	17.248219
1507.000000	17.234806
1506.000000	17.215189
1505.000000	17.197981
1504.000000	17.167631
1503.000000	17.152360
1502.000000	17.139624
1501.000000	17.129544
1500.000000	17.114065
1499.000000	17.122072
1498.000000	17.133931
1497.000000	17.127833
1496.000000	17.129705
1495.000000	17.151009
1494.000000	17.128388
1493.000000	17.149456
1492.000000	17.164153
1491.000000	17.199034
1490.000000	17.216322
1489.000000	17.238735
1488.000000	17.255919
1487.000000	17.283153
1486.000000	17.298949
1485.000000	17.329057
1484.000000	17.362603
1483.000000	17.409662
1482.000000	17.411463
1481.000000	17.481359
1480.000000	17.481278
1479.000000	17.519134
1478.000000	17.557834
1477.000000	17.574855
1476.000000	17.626067
1475.000000	17.654641
1474.000000	17.679417
1473.000000	17.690169
1472.000000	17.727669
1471.000000	17.759635
1470.000000	17.785235
1469.000000	17.808848
1468.000000	17.880682
1467.000000	17.916778
1466.000000	17.913772
1465.000000	17.931928
1464.000000	17.948570
1463.000000	17.967378
1462.000000	18.012975
1461.000000	18.065535
1460.000000	18.062668
1459.000000	18.112455
1458.000000	18.158474
1457.000000	18.201823
1456.000000	18.222274
1455.000000	18.247176
1454.000000	18.273985
1453.000000	18.307785
