PE UV       SUBTECH     SPECTRUM    ASCII       PEDS        4.00        
   -1
TTgAgneauUK 32.Sample.asc
18/03/08
11:20:55.00
18/03/08
11:20:55.00
Administrator

200.000000
1
Lambda 750
750N8071901
PerkinElmer UV WinLab 6.0.4.0738 / 1.61.00 Lambda 900

0
0
3350/servo 860.8/2
0
0
UV/VIS
1
1
1
CommonBeamDepol,150mm sphere / downward view
0
0
0
0
Program
Program
3350/servo 860.8/2
3350/0.2 860.8/0.2
3350/0.2 860.8/0.2
0
1
 
 
 
0
 
860.8
319.2
860.8
Front
100
on
 
 
0
0
0
 
0
 
 
 
0
 
 
0
0
0
0
0
 
 
 
 
0
0


0
0
#HDR
-1
-1
#GR
nm
%T
1.0
0.0
2350.000000
-1.000000
2151
8
27.588921
0.015854
#DATA
2350.000000	6.545621
2349.000000	6.694784
2348.000000	7.005132
2347.000000	7.505287
2346.000000	7.307617
2345.000000	6.785737
2344.000000	6.346004
2343.000000	6.230451
2342.000000	6.502901
2341.000000	6.836399
2340.000000	6.856862
2339.000000	7.177961
2338.000000	7.092238
2337.000000	7.305627
2336.000000	7.404423
2335.000000	7.715031
2334.000000	7.515066
2333.000000	7.340379
2332.000000	7.473893
2331.000000	7.586679
2330.000000	7.605008
2329.000000	7.145269
2328.000000	7.328317
2327.000000	7.300972
2326.000000	7.378815
2325.000000	7.399508
2324.000000	7.394206
2323.000000	7.189210
2322.000000	7.332599
2321.000000	7.185844
2320.000000	7.182838
2319.000000	7.218084
2318.000000	7.252657
2317.000000	7.281352
2316.000000	7.284559
2315.000000	7.075081
2314.000000	7.200688
2313.000000	6.868625
2312.000000	6.814607
2311.000000	7.054294
2310.000000	6.870295
2309.000000	6.855151
2308.000000	6.604546
2307.000000	6.850321
2306.000000	6.773817
2305.000000	6.745143
2304.000000	6.839431
2303.000000	6.842458
2302.000000	6.723502
2301.000000	6.538476
2300.000000	6.549944
2299.000000	6.436006
2298.000000	6.295364
2297.000000	6.266712
2296.000000	6.292616
2295.000000	6.074844
2294.000000	6.218527
2293.000000	6.325639
2292.000000	6.211234
2291.000000	6.099880
2290.000000	6.098400
2289.000000	6.172337
2288.000000	6.119282
2287.000000	6.165256
2286.000000	6.197559
2285.000000	6.169069
2284.000000	5.922950
2283.000000	6.112697
2282.000000	6.164882
2281.000000	6.146292
2280.000000	6.083185
2279.000000	6.186424
2278.000000	6.146613
2277.000000	6.017091
2276.000000	6.069379
2275.000000	6.088983
2274.000000	6.032709
2273.000000	6.175240
2272.000000	6.238341
2271.000000	6.285234
2270.000000	6.034412
2269.000000	6.041037
2268.000000	6.085883
2267.000000	6.233293
2266.000000	6.289565
2265.000000	6.389873
2264.000000	6.482985
2263.000000	6.408685
2262.000000	6.373628
2261.000000	6.541420
2260.000000	6.792758
2259.000000	6.898809
2258.000000	6.976577
2257.000000	7.082780
2256.000000	6.987953
2255.000000	7.033723
2254.000000	7.187805
2253.000000	7.123830
2252.000000	7.299703
2251.000000	7.514577
2250.000000	7.541144
2249.000000	7.748911
2248.000000	7.958396
2247.000000	7.907151
2246.000000	8.036267
2245.000000	8.142703
2244.000000	8.118371
2243.000000	8.315277
2242.000000	8.464571
2241.000000	8.458639
2240.000000	8.485464
2239.000000	8.467888
2238.000000	8.457457
2237.000000	8.565094
2236.000000	8.728128
2235.000000	8.792611
2234.000000	8.845269
2233.000000	8.910872
2232.000000	9.008310
2231.000000	9.089574
2230.000000	9.025405
2229.000000	9.051784
2228.000000	9.057240
2227.000000	8.980189
2226.000000	9.007956
2225.000000	9.180335
2224.000000	9.131902
2223.000000	9.004151
2222.000000	9.067969
2221.000000	9.043018
2220.000000	8.993459
2219.000000	8.881610
2218.000000	8.925659
2217.000000	8.921686
2216.000000	8.932743
2215.000000	8.935040
2214.000000	8.900983
2213.000000	8.880471
2212.000000	8.783411
2211.000000	8.779809
2210.000000	8.786864
2209.000000	8.618593
2208.000000	8.543345
2207.000000	8.651074
2206.000000	8.546534
2205.000000	8.488321
2204.000000	8.497724
2203.000000	8.443929
2202.000000	8.391626
2201.000000	8.356227
2200.000000	8.322233
2199.000000	8.306391
2198.000000	8.181849
2197.000000	8.170041
2196.000000	8.100855
2195.000000	8.096281
2194.000000	8.099993
2193.000000	7.963321
2192.000000	7.909397
2191.000000	7.813615
2190.000000	7.842873
2189.000000	7.907022
2188.000000	7.797246
2187.000000	7.633788
2186.000000	7.633949
2185.000000	7.614122
2184.000000	7.597815
2183.000000	7.703801
2182.000000	7.651935
2181.000000	7.527993
2180.000000	7.606806
2179.000000	7.599511
2178.000000	7.540915
2177.000000	7.653624
2176.000000	7.630700
2175.000000	7.670052
2174.000000	7.777245
2173.000000	7.595043
2172.000000	7.640503
2171.000000	7.751131
2170.000000	7.618536
2169.000000	7.732638
2168.000000	7.968694
2167.000000	7.849977
2166.000000	7.716030
2165.000000	7.804458
2164.000000	7.969036
2163.000000	8.005176
2162.000000	8.004349
2161.000000	7.740888
2160.000000	8.229849
2159.000000	8.219775
2158.000000	8.227073
2157.000000	8.406090
2156.000000	8.445251
2155.000000	8.430412
2154.000000	8.497634
2153.000000	8.785754
2152.000000	8.606521
2151.000000	8.693302
2150.000000	8.873927
2149.000000	8.920589
2148.000000	8.976317
2147.000000	9.013500
2146.000000	8.796815
2145.000000	8.999857
2144.000000	9.120455
2143.000000	9.191503
2142.000000	9.208164
2141.000000	9.326498
2140.000000	9.311465
2139.000000	9.316185
2138.000000	9.625699
2137.000000	9.565514
2136.000000	9.726477
2135.000000	9.737049
2134.000000	9.886884
2133.000000	9.606362
2132.000000	9.823459
2131.000000	9.980484
2130.000000	10.163421
2129.000000	10.171346
2128.000000	9.969280
2127.000000	9.877931
2126.000000	9.849244
2125.000000	9.898197
2124.000000	10.067126
2123.000000	9.968054
2122.000000	10.157192
2121.000000	10.181332
2120.000000	10.174290
2119.000000	10.305133
2118.000000	10.320416
2117.000000	10.172575
2116.000000	10.200731
2115.000000	10.159531
2114.000000	10.147860
2113.000000	10.190633
2112.000000	10.318040
2111.000000	10.335229
2110.000000	10.225162
2109.000000	10.335882
2108.000000	10.300348
2107.000000	10.290000
2106.000000	10.373096
2105.000000	10.225923
2104.000000	10.419586
2103.000000	10.301573
2102.000000	10.355263
2101.000000	10.442986
2100.000000	10.423043
2099.000000	10.342811
2098.000000	10.311083
2097.000000	10.367059
2096.000000	10.400944
2095.000000	10.329506
2094.000000	10.330482
2093.000000	10.373573
2092.000000	10.422968
2091.000000	10.374048
2090.000000	10.368347
2089.000000	10.392330
2088.000000	10.355022
2087.000000	10.327714
2086.000000	10.320514
2085.000000	10.345204
2084.000000	10.238701
2083.000000	10.210713
2082.000000	10.242885
2081.000000	10.078438
2080.000000	10.059042
2079.000000	10.041178
2078.000000	10.045420
2077.000000	9.953432
2076.000000	9.891608
2075.000000	9.774904
2074.000000	9.744689
2073.000000	9.728248
2072.000000	9.692150
2071.000000	9.605419
2070.000000	9.554518
2069.000000	9.472041
2068.000000	9.362592
2067.000000	9.272847
2066.000000	9.157743
2065.000000	9.087976
2064.000000	9.018073
2063.000000	8.947178
2062.000000	8.870219
2061.000000	8.796317
2060.000000	8.767746
2059.000000	8.717435
2058.000000	8.585975
2057.000000	8.521633
2056.000000	8.480615
2055.000000	8.326049
2054.000000	8.227017
2053.000000	8.172273
2052.000000	8.138137
2051.000000	8.083328
2050.000000	7.998335
2049.000000	7.980188
2048.000000	7.972067
2047.000000	7.928834
2046.000000	7.855407
2045.000000	7.810930
2044.000000	7.858046
2043.000000	7.903808
2042.000000	7.814448
2041.000000	7.792297
2040.000000	7.827102
2039.000000	7.885727
2038.000000	7.912044
2037.000000	7.875362
2036.000000	7.859767
2035.000000	7.922167
2034.000000	7.937936
2033.000000	8.033156
2032.000000	8.125297
2031.000000	8.151148
2030.000000	8.209850
2029.000000	8.277434
2028.000000	8.325018
2027.000000	8.433829
2026.000000	8.476963
2025.000000	8.492368
2024.000000	8.544110
2023.000000	8.604161
2022.000000	8.666050
2021.000000	8.704011
2020.000000	8.707096
2019.000000	8.720610
2018.000000	8.749011
2017.000000	8.755812
2016.000000	8.756826
2015.000000	8.776119
2014.000000	8.764734
2013.000000	8.764482
2012.000000	8.775968
2011.000000	8.751839
2010.000000	8.698283
2009.000000	8.685984
2008.000000	8.656529
2007.000000	8.625120
2006.000000	8.599404
2005.000000	8.522594
2004.000000	8.453994
2003.000000	8.447838
2002.000000	8.406695
2001.000000	8.361428
2000.000000	8.339456
1999.000000	8.270557
1998.000000	8.189992
1997.000000	8.172841
1996.000000	8.136408
1995.000000	8.081165
1994.000000	8.027564
1993.000000	7.973446
1992.000000	7.909855
1991.000000	7.858341
1990.000000	7.782433
1989.000000	7.735460
1988.000000	7.702606
1987.000000	7.669401
1986.000000	7.595373
1985.000000	7.528384
1984.000000	7.477111
1983.000000	7.427030
1982.000000	7.394562
1981.000000	7.356361
1980.000000	7.317656
1979.000000	7.239337
1978.000000	7.206442
1977.000000	7.154468
1976.000000	7.097720
1975.000000	7.047876
1974.000000	6.966916
1973.000000	6.955747
1972.000000	6.918723
1971.000000	6.887469
1970.000000	6.868337
1969.000000	6.796616
1968.000000	6.764628
1967.000000	6.725601
1966.000000	6.648186
1965.000000	6.616632
1964.000000	6.579891
1963.000000	6.518732
1962.000000	6.448773
1961.000000	6.432432
1960.000000	6.391107
1959.000000	6.338941
1958.000000	6.316652
1957.000000	6.277548
1956.000000	6.241125
1955.000000	6.253748
1954.000000	6.170111
1953.000000	6.114831
1952.000000	6.155439
1951.000000	6.204819
1950.000000	6.136640
1949.000000	6.092137
1948.000000	6.083860
1947.000000	6.061776
1946.000000	6.061671
1945.000000	6.076296
1944.000000	6.054307
1943.000000	6.052024
1942.000000	6.132913
1941.000000	6.149020
1940.000000	6.140446
1939.000000	6.213149
1938.000000	6.183964
1937.000000	6.236178
1936.000000	6.228079
1935.000000	6.321776
1934.000000	6.390246
1933.000000	6.391037
1932.000000	6.468750
1931.000000	6.516156
1930.000000	6.649505
1929.000000	6.727039
1928.000000	6.791804
1927.000000	6.912011
1926.000000	7.036363
1925.000000	7.111643
1924.000000	7.195275
1923.000000	7.333387
1922.000000	7.462331
1921.000000	7.650775
1920.000000	7.790564
1919.000000	7.966520
1918.000000	8.029971
1917.000000	8.241825
1916.000000	8.281647
1915.000000	8.531052
1914.000000	8.756292
1913.000000	8.983483
1912.000000	9.161847
1911.000000	9.288040
1910.000000	9.572895
1909.000000	9.792307
1908.000000	9.980056
1907.000000	10.241281
1906.000000	10.489174
1905.000000	10.838516
1904.000000	11.074051
1903.000000	11.331114
1902.000000	11.591782
1901.000000	11.927075
1900.000000	12.211550
1899.000000	12.454627
1898.000000	12.749279
1897.000000	13.047324
1896.000000	13.353529
1895.000000	13.654760
1894.000000	13.925297
1893.000000	14.242831
1892.000000	14.536458
1891.000000	14.809176
1890.000000	15.156958
1889.000000	15.452905
1888.000000	15.653636
1887.000000	15.911915
1886.000000	16.147106
1885.000000	16.456897
1884.000000	16.665619
1883.000000	16.961735
1882.000000	17.170776
1881.000000	17.408001
1880.000000	17.633873
1879.000000	17.805077
1878.000000	18.015958
1877.000000	18.177304
1876.000000	18.360291
1875.000000	18.555081
1874.000000	18.730756
1873.000000	18.847838
1872.000000	18.980744
1871.000000	19.133782
1870.000000	19.200612
1869.000000	19.312656
1868.000000	19.425122
1867.000000	19.502116
1866.000000	19.570898
1865.000000	19.649191
1864.000000	19.678803
1863.000000	19.696968
1862.000000	19.763610
1861.000000	19.774474
1860.000000	19.800989
1859.000000	19.840306
1858.000000	19.868153
1857.000000	19.912800
1856.000000	19.928850
1855.000000	19.966937
1854.000000	19.996271
1853.000000	20.015285
1852.000000	20.043411
1851.000000	20.072452
1850.000000	20.057066
1849.000000	20.039265
1848.000000	20.057784
1847.000000	20.069547
1846.000000	20.047046
1845.000000	20.021928
1844.000000	20.045566
1843.000000	20.018691
1842.000000	19.979833
1841.000000	19.964027
1840.000000	19.969396
1839.000000	19.940362
1838.000000	19.884789
1837.000000	19.850170
1836.000000	19.796904
1835.000000	19.770519
1834.000000	19.762089
1833.000000	19.722722
1832.000000	19.677714
1831.000000	19.661185
1830.000000	19.662357
1829.000000	19.612276
1828.000000	19.559441
1827.000000	19.543224
1826.000000	19.500104
1825.000000	19.464778
1824.000000	19.456710
1823.000000	19.452874
1822.000000	19.423697
1821.000000	19.362849
1820.000000	19.335142
1819.000000	19.315335
1818.000000	19.313409
1817.000000	19.286404
1816.000000	19.249227
1815.000000	19.251967
1814.000000	19.220354
1813.000000	19.183731
1812.000000	19.157222
1811.000000	19.135646
1810.000000	19.128547
1809.000000	19.113513
1808.000000	19.096595
1807.000000	19.071604
1806.000000	19.048181
1805.000000	19.035646
1804.000000	19.017924
1803.000000	18.995595
1802.000000	18.959822
1801.000000	18.934652
1800.000000	18.935492
1799.000000	18.928940
1798.000000	18.910588
1797.000000	18.903764
1796.000000	18.874371
1795.000000	18.843527
1794.000000	18.842418
1793.000000	18.833364
1792.000000	18.824723
1791.000000	18.831880
1790.000000	18.823424
1789.000000	18.796678
1788.000000	18.783083
1787.000000	18.763905
1786.000000	18.750636
1785.000000	18.746547
1784.000000	18.744309
1783.000000	18.724759
1782.000000	18.708824
1781.000000	18.674484
1780.000000	18.655974
1779.000000	18.631714
1778.000000	18.610004
1777.000000	18.581914
1776.000000	18.535274
1775.000000	18.496359
1774.000000	18.497266
1773.000000	18.455568
1772.000000	18.393798
1771.000000	18.344389
1770.000000	18.308244
1769.000000	18.272205
1768.000000	18.237743
1767.000000	18.211588
1766.000000	18.181643
1765.000000	18.131071
1764.000000	18.089070
1763.000000	18.065012
1762.000000	18.022197
1761.000000	17.992652
1760.000000	17.957586
1759.000000	17.884888
1758.000000	17.871188
1757.000000	17.829899
1756.000000	17.810825
1755.000000	17.766652
1754.000000	17.717525
1753.000000	17.699499
1752.000000	17.687522
1751.000000	17.652689
1750.000000	17.611566
1749.000000	17.585540
1748.000000	17.558720
1747.000000	17.521300
1746.000000	17.461453
1745.000000	17.402506
1744.000000	17.393215
1743.000000	17.361478
1742.000000	17.313969
1741.000000	17.296596
1740.000000	17.237489
1739.000000	17.197222
1738.000000	17.184194
1737.000000	17.159230
1736.000000	17.151235
1735.000000	17.150505
1734.000000	17.123869
1733.000000	17.095336
1732.000000	17.107850
1731.000000	17.115666
1730.000000	17.109369
1729.000000	17.158950
1728.000000	17.172136
1727.000000	17.191972
1726.000000	17.228318
1725.000000	17.281636
1724.000000	17.334834
1723.000000	17.365784
1722.000000	17.421809
1721.000000	17.479355
1720.000000	17.539351
1719.000000	17.610437
1718.000000	17.664377
1717.000000	17.727516
1716.000000	17.764061
1715.000000	17.823068
1714.000000	17.854036
1713.000000	17.918309
1712.000000	17.973880
1711.000000	18.004675
1710.000000	18.046068
1709.000000	18.084319
1708.000000	18.106240
1707.000000	18.127140
1706.000000	18.152988
1705.000000	18.197486
1704.000000	18.200916
1703.000000	18.223971
1702.000000	18.235796
1701.000000	18.251206
1700.000000	18.270081
1699.000000	18.215492
1698.000000	18.283785
1697.000000	18.287326
1696.000000	18.304265
1695.000000	18.313435
1694.000000	18.324265
1693.000000	18.362850
1692.000000	18.387371
1691.000000	18.435409
1690.000000	18.514674
1689.000000	18.554696
1688.000000	18.613626
1687.000000	18.669491
1686.000000	18.716132
1685.000000	18.791328
1684.000000	18.904086
1683.000000	18.979472
1682.000000	19.099639
1681.000000	19.198277
1680.000000	19.307225
1679.000000	19.412582
1678.000000	19.521710
1677.000000	19.623172
1676.000000	19.742886
1675.000000	19.839677
1674.000000	19.942290
1673.000000	20.051458
1672.000000	20.170667
1671.000000	20.277971
1670.000000	20.354514
1669.000000	20.471400
1668.000000	20.547505
1667.000000	20.652628
1666.000000	20.690237
1665.000000	20.745918
1664.000000	20.793466
1663.000000	20.839417
1662.000000	20.889545
1661.000000	20.945309
1660.000000	21.001257
1659.000000	21.065861
1658.000000	21.079875
1657.000000	21.109639
1656.000000	21.131136
1655.000000	21.171379
1654.000000	21.195859
1653.000000	21.195241
1652.000000	21.189609
1651.000000	21.181414
1650.000000	21.185748
1649.000000	21.173828
1648.000000	21.171443
1647.000000	21.165416
1646.000000	21.153739
1645.000000	21.133790
1644.000000	21.113326
1643.000000	21.092067
1642.000000	21.074938
1641.000000	21.083427
1640.000000	21.069540
1639.000000	21.040658
1638.000000	21.025254
1637.000000	21.012312
1636.000000	20.971666
1635.000000	20.948907
1634.000000	20.922563
1633.000000	20.890705
1632.000000	20.868793
1631.000000	20.853756
1630.000000	20.813397
1629.000000	20.778079
1628.000000	20.755639
1627.000000	20.725485
1626.000000	20.688436
1625.000000	20.667568
1624.000000	20.635996
1623.000000	20.604288
1622.000000	20.569196
1621.000000	20.533014
1620.000000	20.502873
1619.000000	20.457386
1618.000000	20.423448
1617.000000	20.397647
1616.000000	20.361829
1615.000000	20.326367
1614.000000	20.288936
1613.000000	20.254299
1612.000000	20.221892
1611.000000	20.182921
1610.000000	20.147505
1609.000000	20.105742
1608.000000	20.059325
1607.000000	20.014507
1606.000000	19.971718
1605.000000	19.937346
1604.000000	19.895552
1603.000000	19.847933
1602.000000	19.813750
1601.000000	19.772541
1600.000000	19.732684
1599.000000	19.694976
1598.000000	19.644288
1597.000000	19.604621
1596.000000	19.574226
1595.000000	19.538755
1594.000000	19.509497
1593.000000	19.478729
1592.000000	19.439368
1591.000000	19.405134
1590.000000	19.381213
1589.000000	19.346105
1588.000000	19.302466
1587.000000	19.270910
1586.000000	19.241726
1585.000000	19.212616
1584.000000	19.185042
1583.000000	19.156205
1582.000000	19.123408
1581.000000	19.099476
1580.000000	19.069090
1579.000000	19.027797
1578.000000	19.007736
1577.000000	18.985389
1576.000000	18.947777
1575.000000	18.910439
1574.000000	18.874358
1573.000000	18.840937
1572.000000	18.816008
1571.000000	18.784223
1570.000000	18.742833
1569.000000	18.733811
1568.000000	18.714011
1567.000000	18.682804
1566.000000	18.661934
1565.000000	18.635990
1564.000000	18.605039
1563.000000	18.589099
1562.000000	18.572463
1561.000000	18.553668
1560.000000	18.525996
1559.000000	18.517036
1558.000000	18.507700
1557.000000	18.488641
1556.000000	18.466352
1555.000000	18.439973
1554.000000	18.412374
1553.000000	18.393310
1552.000000	18.384297
1551.000000	18.357675
1550.000000	18.320456
1549.000000	18.299539
1548.000000	18.267515
1547.000000	18.227389
1546.000000	18.179298
1545.000000	18.140930
1544.000000	18.109506
1543.000000	18.064390
1542.000000	18.001708
1541.000000	17.952850
1540.000000	17.908844
1539.000000	17.860244
1538.000000	17.777335
1537.000000	17.721973
1536.000000	17.675336
1535.000000	17.630288
1534.000000	17.622370
1533.000000	17.621948
1532.000000	17.612977
1531.000000	17.559352
1530.000000	17.476090
1529.000000	17.393022
1528.000000	17.333270
1527.000000	17.263045
1526.000000	17.194460
1525.000000	17.152313
1524.000000	17.138801
1523.000000	17.115811
1522.000000	17.070697
1521.000000	17.035764
1520.000000	16.987512
1519.000000	16.959120
1518.000000	16.950158
1517.000000	16.907091
1516.000000	16.868547
1515.000000	16.853757
1514.000000	16.843491
1513.000000	16.838746
1512.000000	16.784107
1511.000000	16.754519
1510.000000	16.761450
1509.000000	16.749123
1508.000000	16.722714
1507.000000	16.695088
1506.000000	16.679688
1505.000000	16.669579
1504.000000	16.644082
1503.000000	16.630519
1502.000000	16.628694
1501.000000	16.614401
1500.000000	16.609485
1499.000000	16.609608
1498.000000	16.609027
1497.000000	16.606038
1496.000000	16.614341
1495.000000	16.626477
1494.000000	16.639835
1493.000000	16.627227
1492.000000	16.648864
1491.000000	16.679276
1490.000000	16.693560
1489.000000	16.714078
1488.000000	16.732421
1487.000000	16.750601
1486.000000	16.782449
1485.000000	16.827226
1484.000000	16.848543
1483.000000	16.889047
1482.000000	16.901622
1481.000000	16.944887
1480.000000	16.976746
1479.000000	17.025836
1478.000000	17.051007
1477.000000	17.078141
1476.000000	17.116552
1475.000000	17.138214
1474.000000	17.151767
1473.000000	17.191368
1472.000000	17.222257
1471.000000	17.259006
1470.000000	17.265639
1469.000000	17.297422
1468.000000	17.371215
1467.000000	17.405244
1466.000000	17.412710
1465.000000	17.423482
1464.000000	17.452719
1463.000000	17.470032
1462.000000	17.518918
1461.000000	17.563210
1460.000000	17.592517
1459.000000	17.607515
1458.000000	17.656581
1457.000000	17.704066
1456.000000	17.731777
1455.000000	17.758008
1454.000000	17.793251
1453.000000	17.812009
1452.000000	17.874712
