PE UV       SUBTECH     SPECTRUM    ASCII       PEDS        4.00        
   -1
TTgVeauUK 62.Sample.asc
18/03/08
10:07:57.00
18/03/08
10:07:57.00
Administrator

200.000000
1
Lambda 750
750N8071901
PerkinElmer UV WinLab 6.0.4.0738 / 1.61.00 Lambda 900

0
0
3350/servo 860.8/2
0
0
UV/VIS
1
1
1
CommonBeamDepol,150mm sphere / downward view
0
0
0
0
Program
Program
3350/servo 860.8/2
3350/0.2 860.8/0.2
3350/0.2 860.8/0.2
0
1
 
 
 
0
 
860.8
319.2
860.8
Front
100
on
 
 
0
0
0
 
0
 
 
 
0
 
 
0
0
0
0
0
 
 
 
 
0
0


0
0
#HDR
-1
-1
#GR
nm
%T
1.0
0.0
2350.000000
-1.000000
2151
8
49.398834
0.069768
#DATA
2350.000000	12.923242
2349.000000	12.986970
2348.000000	12.914635
2347.000000	13.060033
2346.000000	12.902028
2345.000000	12.356660
2344.000000	12.480986
2343.000000	12.559834
2342.000000	12.723098
2341.000000	12.530194
2340.000000	12.908371
2339.000000	13.239245
2338.000000	13.250300
2337.000000	13.314190
2336.000000	13.447807
2335.000000	13.673608
2334.000000	13.508265
2333.000000	13.714807
2332.000000	13.676258
2331.000000	13.666259
2330.000000	13.622663
2329.000000	13.655556
2328.000000	13.214192
2327.000000	13.076454
2326.000000	13.179256
2325.000000	13.416081
2324.000000	13.393867
2323.000000	13.330677
2322.000000	13.118566
2321.000000	13.144230
2320.000000	13.251177
2319.000000	13.048939
2318.000000	12.854441
2317.000000	13.155067
2316.000000	13.038395
2315.000000	12.884767
2314.000000	12.855434
2313.000000	12.628316
2312.000000	12.344338
2311.000000	12.556779
2310.000000	12.550512
2309.000000	12.485882
2308.000000	12.361536
2307.000000	12.592123
2306.000000	12.552644
2305.000000	12.142613
2304.000000	12.072010
2303.000000	12.210604
2302.000000	12.124654
2301.000000	12.065652
2300.000000	11.901001
2299.000000	11.629379
2298.000000	11.382667
2297.000000	11.374372
2296.000000	11.540254
2295.000000	11.320489
2294.000000	11.368573
2293.000000	11.373234
2292.000000	11.266717
2291.000000	11.400502
2290.000000	11.174403
2289.000000	11.089089
2288.000000	11.234045
2287.000000	11.150285
2286.000000	10.888370
2285.000000	10.723917
2284.000000	10.911461
2283.000000	10.886612
2282.000000	10.794247
2281.000000	10.878962
2280.000000	10.883197
2279.000000	10.777580
2278.000000	10.818882
2277.000000	10.813350
2276.000000	10.822061
2275.000000	10.746372
2274.000000	10.885485
2273.000000	11.066108
2272.000000	10.990813
2271.000000	10.922271
2270.000000	11.088453
2269.000000	11.040667
2268.000000	11.135061
2267.000000	11.225182
2266.000000	11.372407
2265.000000	11.501630
2264.000000	11.590179
2263.000000	11.746451
2262.000000	11.817088
2261.000000	11.932886
2260.000000	12.130714
2259.000000	12.312035
2258.000000	12.570856
2257.000000	12.813908
2256.000000	12.868916
2255.000000	12.933057
2254.000000	13.141527
2253.000000	13.272206
2252.000000	13.507110
2251.000000	13.802618
2250.000000	13.993535
2249.000000	14.215354
2248.000000	14.409556
2247.000000	14.551783
2246.000000	14.705948
2245.000000	14.975579
2244.000000	15.272301
2243.000000	15.412702
2242.000000	15.531998
2241.000000	15.575857
2240.000000	15.637734
2239.000000	15.810997
2238.000000	15.852039
2237.000000	16.013597
2236.000000	16.277427
2235.000000	16.380329
2234.000000	16.459884
2233.000000	16.497688
2232.000000	16.420921
2231.000000	16.534289
2230.000000	16.637497
2229.000000	16.801085
2228.000000	16.894973
2227.000000	16.772693
2226.000000	16.658237
2225.000000	16.558997
2224.000000	16.551597
2223.000000	16.558355
2222.000000	16.601502
2221.000000	16.576566
2220.000000	16.564742
2219.000000	16.523413
2218.000000	16.476415
2217.000000	16.411099
2216.000000	16.372642
2215.000000	16.362212
2214.000000	16.400628
2213.000000	16.298875
2212.000000	16.190210
2211.000000	16.138249
2210.000000	15.976383
2209.000000	15.916962
2208.000000	15.803967
2207.000000	15.765834
2206.000000	15.804385
2205.000000	15.741371
2204.000000	15.526609
2203.000000	15.503925
2202.000000	15.476582
2201.000000	15.421504
2200.000000	15.375250
2199.000000	15.384857
2198.000000	15.219596
2197.000000	15.133072
2196.000000	14.958394
2195.000000	14.756584
2194.000000	14.658167
2193.000000	14.648812
2192.000000	14.674408
2191.000000	14.590122
2190.000000	14.583869
2189.000000	14.505940
2188.000000	14.346470
2187.000000	14.311544
2186.000000	14.276147
2185.000000	14.244007
2184.000000	14.215962
2183.000000	14.172851
2182.000000	14.213726
2181.000000	14.165565
2180.000000	14.089440
2179.000000	13.985292
2178.000000	13.808299
2177.000000	13.879711
2176.000000	13.969117
2175.000000	14.001574
2174.000000	13.979715
2173.000000	13.980693
2172.000000	14.064537
2171.000000	14.159279
2170.000000	14.132298
2169.000000	14.220504
2168.000000	14.466583
2167.000000	14.316471
2166.000000	14.434094
2165.000000	14.543354
2164.000000	14.606179
2163.000000	14.712591
2162.000000	14.844808
2161.000000	14.877623
2160.000000	15.057622
2159.000000	15.078160
2158.000000	15.121167
2157.000000	15.502112
2156.000000	15.447191
2155.000000	15.447031
2154.000000	15.779908
2153.000000	15.958244
2152.000000	15.921449
2151.000000	15.912883
2150.000000	16.185065
2149.000000	16.414760
2148.000000	16.489999
2147.000000	16.553506
2146.000000	16.834674
2145.000000	17.002373
2144.000000	17.047123
2143.000000	17.133378
2142.000000	17.317254
2141.000000	17.563926
2140.000000	17.645000
2139.000000	17.633493
2138.000000	17.902101
2137.000000	18.032770
2136.000000	17.975889
2135.000000	18.392944
2134.000000	18.170516
2133.000000	18.151371
2132.000000	18.356823
2131.000000	18.421257
2130.000000	18.557006
2129.000000	18.670335
2128.000000	18.658892
2127.000000	18.647382
2126.000000	18.682821
2125.000000	18.758893
2124.000000	18.891341
2123.000000	18.978955
2122.000000	18.871741
2121.000000	18.972005
2120.000000	19.133930
2119.000000	19.005839
2118.000000	19.102230
2117.000000	19.056259
2116.000000	19.209065
2115.000000	19.414813
2114.000000	19.314965
2113.000000	19.339138
2112.000000	19.337079
2111.000000	19.231022
2110.000000	19.350998
2109.000000	19.388957
2108.000000	19.316539
2107.000000	19.481406
2106.000000	19.427358
2105.000000	19.410734
2104.000000	19.407519
2103.000000	19.452150
2102.000000	19.452963
2101.000000	19.458739
2100.000000	19.486973
2099.000000	19.462431
2098.000000	19.470355
2097.000000	19.465767
2096.000000	19.414764
2095.000000	19.397287
2094.000000	19.453390
2093.000000	19.440531
2092.000000	19.521384
2091.000000	19.479391
2090.000000	19.297581
2089.000000	19.325695
2088.000000	19.355899
2087.000000	19.306220
2086.000000	19.294025
2085.000000	19.230213
2084.000000	19.151105
2083.000000	19.124278
2082.000000	19.006030
2081.000000	18.908427
2080.000000	18.840521
2079.000000	18.788133
2078.000000	18.740672
2077.000000	18.594308
2076.000000	18.447979
2075.000000	18.361279
2074.000000	18.242002
2073.000000	18.129489
2072.000000	18.036638
2071.000000	17.971262
2070.000000	17.849943
2069.000000	17.703006
2068.000000	17.462156
2067.000000	17.392894
2066.000000	17.224312
2065.000000	17.017814
2064.000000	16.892928
2063.000000	16.748970
2062.000000	16.612753
2061.000000	16.492614
2060.000000	16.335775
2059.000000	16.124921
2058.000000	16.025128
2057.000000	15.897163
2056.000000	15.706338
2055.000000	15.561574
2054.000000	15.436824
2053.000000	15.278760
2052.000000	15.172788
2051.000000	15.056857
2050.000000	14.937619
2049.000000	14.842183
2048.000000	14.736881
2047.000000	14.666456
2046.000000	14.594216
2045.000000	14.505319
2044.000000	14.498527
2043.000000	14.530438
2042.000000	14.518480
2041.000000	14.542838
2040.000000	14.608888
2039.000000	14.606813
2038.000000	14.594078
2037.000000	14.672983
2036.000000	14.721028
2035.000000	14.805732
2034.000000	14.914218
2033.000000	14.979554
2032.000000	15.129731
2031.000000	15.215165
2030.000000	15.295453
2029.000000	15.452130
2028.000000	15.594591
2027.000000	15.708767
2026.000000	15.848614
2025.000000	15.937889
2024.000000	15.974030
2023.000000	16.071110
2022.000000	16.154936
2021.000000	16.202301
2020.000000	16.235272
2019.000000	16.238640
2018.000000	16.270558
2017.000000	16.325161
2016.000000	16.323359
2015.000000	16.319900
2014.000000	16.354909
2013.000000	16.295801
2012.000000	16.219870
2011.000000	16.224377
2010.000000	16.181048
2009.000000	16.086088
2008.000000	16.048142
2007.000000	15.979122
2006.000000	15.881979
2005.000000	15.844463
2004.000000	15.737498
2003.000000	15.616719
2002.000000	15.516253
2001.000000	15.425423
2000.000000	15.328157
1999.000000	15.245385
1998.000000	15.139661
1997.000000	15.042773
1996.000000	14.911619
1995.000000	14.829493
1994.000000	14.722842
1993.000000	14.630079
1992.000000	14.528345
1991.000000	14.420202
1990.000000	14.316171
1989.000000	14.205182
1988.000000	14.080731
1987.000000	13.994821
1986.000000	13.901820
1985.000000	13.781948
1984.000000	13.679559
1983.000000	13.579298
1982.000000	13.528617
1981.000000	13.438700
1980.000000	13.270875
1979.000000	13.155203
1978.000000	13.045643
1977.000000	12.965058
1976.000000	12.877207
1975.000000	12.796619
1974.000000	12.691726
1973.000000	12.598008
1972.000000	12.533412
1971.000000	12.460352
1970.000000	12.319512
1969.000000	12.227994
1968.000000	12.143193
1967.000000	12.056046
1966.000000	11.993653
1965.000000	11.929435
1964.000000	11.808621
1963.000000	11.758454
1962.000000	11.678958
1961.000000	11.546237
1960.000000	11.495433
1959.000000	11.437570
1958.000000	11.347791
1957.000000	11.250174
1956.000000	11.201862
1955.000000	11.150543
1954.000000	11.131908
1953.000000	11.082267
1952.000000	11.033250
1951.000000	11.046855
1950.000000	11.020650
1949.000000	10.966335
1948.000000	10.954607
1947.000000	10.936338
1946.000000	10.925228
1945.000000	10.910530
1944.000000	10.937946
1943.000000	10.993416
1942.000000	11.026877
1941.000000	11.095407
1940.000000	11.085589
1939.000000	11.173580
1938.000000	11.233963
1937.000000	11.370041
1936.000000	11.454115
1935.000000	11.566582
1934.000000	11.664457
1933.000000	11.776168
1932.000000	11.866186
1931.000000	12.030677
1930.000000	12.277718
1929.000000	12.395966
1928.000000	12.618045
1927.000000	12.841604
1926.000000	13.023346
1925.000000	13.299190
1924.000000	13.530858
1923.000000	13.681380
1922.000000	13.979315
1921.000000	14.296518
1920.000000	14.529811
1919.000000	14.777702
1918.000000	15.130282
1917.000000	15.503306
1916.000000	15.763881
1915.000000	16.201405
1914.000000	16.570278
1913.000000	16.990511
1912.000000	17.318043
1911.000000	17.724276
1910.000000	18.151517
1909.000000	18.574771
1908.000000	18.962593
1907.000000	19.423591
1906.000000	19.948577
1905.000000	20.509603
1904.000000	20.884638
1903.000000	21.386984
1902.000000	21.912459
1901.000000	22.473559
1900.000000	23.022816
1899.000000	23.475182
1898.000000	24.015136
1897.000000	24.520655
1896.000000	25.011163
1895.000000	25.560102
1894.000000	26.080813
1893.000000	26.552019
1892.000000	27.073143
1891.000000	27.537759
1890.000000	28.083900
1889.000000	28.516485
1888.000000	29.010065
1887.000000	29.360637
1886.000000	29.836149
1885.000000	30.283773
1884.000000	30.723540
1883.000000	31.102394
1882.000000	31.450205
1881.000000	31.838094
1880.000000	32.253741
1879.000000	32.565767
1878.000000	32.928652
1877.000000	33.227324
1876.000000	33.514287
1875.000000	33.792909
1874.000000	33.987882
1873.000000	34.293452
1872.000000	34.542865
1871.000000	34.763897
1870.000000	34.961232
1869.000000	35.182719
1868.000000	35.346425
1867.000000	35.426067
1866.000000	35.530076
1865.000000	35.672737
1864.000000	35.767951
1863.000000	35.868936
1862.000000	35.933633
1861.000000	35.983961
1860.000000	36.103782
1859.000000	36.134023
1858.000000	36.172751
1857.000000	36.225946
1856.000000	36.261683
1855.000000	36.289829
1854.000000	36.337116
1853.000000	36.401435
1852.000000	36.420990
1851.000000	36.417403
1850.000000	36.431800
1849.000000	36.401967
1848.000000	36.382108
1847.000000	36.410243
1846.000000	36.406682
1845.000000	36.370269
1844.000000	36.345624
1843.000000	36.314975
1842.000000	36.245205
1841.000000	36.223216
1840.000000	36.201010
1839.000000	36.142737
1838.000000	36.113941
1837.000000	36.032257
1836.000000	35.992436
1835.000000	35.938314
1834.000000	35.858961
1833.000000	35.816589
1832.000000	35.775899
1831.000000	35.726655
1830.000000	35.657913
1829.000000	35.591743
1828.000000	35.543602
1827.000000	35.489484
1826.000000	35.454965
1825.000000	35.408471
1824.000000	35.348134
1823.000000	35.300341
1822.000000	35.247607
1821.000000	35.203370
1820.000000	35.174563
1819.000000	35.116658
1818.000000	35.071971
1817.000000	35.043237
1816.000000	34.999436
1815.000000	34.966324
1814.000000	34.925483
1813.000000	34.862500
1812.000000	34.807034
1811.000000	34.766200
1810.000000	34.734843
1809.000000	34.699961
1808.000000	34.650262
1807.000000	34.599399
1806.000000	34.553982
1805.000000	34.498073
1804.000000	34.461020
1803.000000	34.430031
1802.000000	34.376738
1801.000000	34.330515
1800.000000	34.298865
1799.000000	34.266799
1798.000000	34.238448
1797.000000	34.219609
1796.000000	34.189549
1795.000000	34.159148
1794.000000	34.159446
1793.000000	34.113641
1792.000000	34.075274
1791.000000	34.058604
1790.000000	34.025527
1789.000000	34.008028
1788.000000	33.980709
1787.000000	33.952279
1786.000000	33.921226
1785.000000	33.885691
1784.000000	33.867933
1783.000000	33.827494
1782.000000	33.776277
1781.000000	33.721747
1780.000000	33.706131
1779.000000	33.673904
1778.000000	33.595765
1777.000000	33.548734
1776.000000	33.485792
1775.000000	33.423930
1774.000000	33.353814
1773.000000	33.317934
1772.000000	33.261135
1771.000000	33.180573
1770.000000	33.128017
1769.000000	33.038837
1768.000000	32.971958
1767.000000	32.924233
1766.000000	32.862954
1765.000000	32.802875
1764.000000	32.731663
1763.000000	32.667235
1762.000000	32.610849
1761.000000	32.549711
1760.000000	32.484464
1759.000000	32.420244
1758.000000	32.357591
1757.000000	32.270896
1756.000000	32.227978
1755.000000	32.184016
1754.000000	32.112963
1753.000000	32.054034
1752.000000	31.976375
1751.000000	31.907090
1750.000000	31.860676
1749.000000	31.818149
1748.000000	31.704179
1747.000000	31.637828
1746.000000	31.585191
1745.000000	31.507670
1744.000000	31.449106
1743.000000	31.401613
1742.000000	31.334075
1741.000000	31.274338
1740.000000	31.217491
1739.000000	31.161980
1738.000000	31.093063
1737.000000	31.022152
1736.000000	30.997523
1735.000000	30.996163
1734.000000	30.993303
1733.000000	30.964896
1732.000000	30.971274
1731.000000	30.966477
1730.000000	30.985838
1729.000000	31.026295
1728.000000	31.082315
1727.000000	31.118288
1726.000000	31.166956
1725.000000	31.260267
1724.000000	31.331118
1723.000000	31.420061
1722.000000	31.507469
1721.000000	31.586815
1720.000000	31.699551
1719.000000	31.809798
1718.000000	31.903065
1717.000000	32.009060
1716.000000	32.108421
1715.000000	32.218220
1714.000000	32.330557
1713.000000	32.395639
1712.000000	32.467507
1711.000000	32.533941
1710.000000	32.597741
1709.000000	32.655626
1708.000000	32.708182
1707.000000	32.750852
1706.000000	32.804102
1705.000000	32.828477
1704.000000	32.859364
1703.000000	32.832407
1702.000000	32.891334
1701.000000	32.897197
1700.000000	32.908434
1699.000000	32.928626
1698.000000	32.957964
1697.000000	32.983105
1696.000000	33.019116
1695.000000	33.026481
1694.000000	33.108748
1693.000000	33.148712
1692.000000	33.190546
1691.000000	33.272478
1690.000000	33.365700
1689.000000	33.458710
1688.000000	33.569777
1687.000000	33.698275
1686.000000	33.829983
1685.000000	33.971543
1684.000000	34.133032
1683.000000	34.293180
1682.000000	34.485490
1681.000000	34.650325
1680.000000	34.854206
1679.000000	35.059701
1678.000000	35.270291
1677.000000	35.464955
1676.000000	35.668619
1675.000000	35.879306
1674.000000	36.072526
1673.000000	36.260355
1672.000000	36.438236
1671.000000	36.617983
1670.000000	36.798292
1669.000000	37.009928
1668.000000	37.157898
1667.000000	37.303020
1666.000000	37.416795
1665.000000	37.531047
1664.000000	37.652936
1663.000000	37.715440
1662.000000	37.820589
1661.000000	37.906170
1660.000000	37.989619
1659.000000	38.071169
1658.000000	38.099651
1657.000000	38.158047
1656.000000	38.207404
1655.000000	38.239415
1654.000000	38.240223
1653.000000	38.261582
1652.000000	38.292865
1651.000000	38.262158
1650.000000	38.267445
1649.000000	38.252425
1648.000000	38.243709
1647.000000	38.237670
1646.000000	38.201249
1645.000000	38.174366
1644.000000	38.148067
1643.000000	38.116365
1642.000000	38.093589
1641.000000	38.060341
1640.000000	38.013749
1639.000000	37.975642
1638.000000	37.958068
1637.000000	37.923634
1636.000000	37.857584
1635.000000	37.809426
1634.000000	37.755775
1633.000000	37.706744
1632.000000	37.645454
1631.000000	37.583955
1630.000000	37.528412
1629.000000	37.480196
1628.000000	37.424863
1627.000000	37.350940
1626.000000	37.284330
1625.000000	37.220843
1624.000000	37.162006
1623.000000	37.107980
1622.000000	37.039487
1621.000000	36.968711
1620.000000	36.922303
1619.000000	36.852314
1618.000000	36.762388
1617.000000	36.698026
1616.000000	36.639547
1615.000000	36.557041
1614.000000	36.479529
1613.000000	36.420513
1612.000000	36.342413
1611.000000	36.261152
1610.000000	36.182805
1609.000000	36.105645
1608.000000	36.024218
1607.000000	35.954634
1606.000000	35.873469
1605.000000	35.785703
1604.000000	35.711405
1603.000000	35.635771
1602.000000	35.565386
1601.000000	35.486313
1600.000000	35.408289
1599.000000	35.328622
1598.000000	35.250732
1597.000000	35.176629
1596.000000	35.106240
1595.000000	35.042660
1594.000000	34.966548
1593.000000	34.899691
1592.000000	34.845426
1591.000000	34.772188
1590.000000	34.705796
1589.000000	34.646385
1588.000000	34.574209
1587.000000	34.518242
1586.000000	34.461560
1585.000000	34.402366
1584.000000	34.344971
1583.000000	34.275376
1582.000000	34.215410
1581.000000	34.160832
1580.000000	34.097546
1579.000000	34.042957
1578.000000	33.992270
1577.000000	33.929275
1576.000000	33.871099
1575.000000	33.817680
1574.000000	33.746400
1573.000000	33.685555
1572.000000	33.638452
1571.000000	33.573314
1570.000000	33.520741
1569.000000	33.470292
1568.000000	33.428542
1567.000000	33.382049
1566.000000	33.321756
1565.000000	33.285162
1564.000000	33.257974
1563.000000	33.229731
1562.000000	33.184964
1561.000000	33.142942
1560.000000	33.117044
1559.000000	33.079564
1558.000000	33.052787
1557.000000	33.018970
1556.000000	32.979611
1555.000000	32.954896
1554.000000	32.922748
1553.000000	32.885807
1552.000000	32.836218
1551.000000	32.784247
1550.000000	32.734488
1549.000000	32.685647
1548.000000	32.637122
1547.000000	32.573791
1546.000000	32.493270
1545.000000	32.429836
1544.000000	32.348885
1543.000000	32.270113
1542.000000	32.185367
1541.000000	32.096956
1540.000000	32.003002
1539.000000	31.899829
1538.000000	31.802165
1537.000000	31.698677
1536.000000	31.596094
1535.000000	31.495878
1534.000000	31.386832
1533.000000	31.280679
1532.000000	31.179854
1531.000000	31.082025
1530.000000	31.011832
1529.000000	30.977756
1528.000000	30.936156
1527.000000	30.898057
1526.000000	30.819283
1525.000000	30.722244
1524.000000	30.623282
1523.000000	30.529509
1522.000000	30.453184
1521.000000	30.393926
1520.000000	30.356390
1519.000000	30.302169
1518.000000	30.240996
1517.000000	30.198467
1516.000000	30.168856
1515.000000	30.111198
1514.000000	30.064461
1513.000000	30.055199
1512.000000	30.032526
1511.000000	29.973385
1510.000000	29.946055
1509.000000	29.906080
1508.000000	29.873336
1507.000000	29.824830
1506.000000	29.833457
1505.000000	29.837802
1504.000000	29.809210
1503.000000	29.784001
1502.000000	29.744159
1501.000000	29.728958
1500.000000	29.716367
1499.000000	29.714732
1498.000000	29.709586
1497.000000	29.701283
1496.000000	29.714681
1495.000000	29.728105
1494.000000	29.718519
1493.000000	29.740836
1492.000000	29.761576
1491.000000	29.793569
1490.000000	29.811560
1489.000000	29.865037
1488.000000	29.893990
1487.000000	29.918157
1486.000000	29.958331
1485.000000	30.007117
1484.000000	30.044767
1483.000000	30.109220
1482.000000	30.148567
1481.000000	30.204010
1480.000000	30.251627
1479.000000	30.303055
1478.000000	30.347054
1477.000000	30.390134
1476.000000	30.460867
1475.000000	30.503506
1474.000000	30.549485
1473.000000	30.592602
1472.000000	30.641595
1471.000000	30.694983
1470.000000	30.722461
