PE UV       SUBTECH     SPECTRUM    ASCII       PEDS        4.00        
   -1
TTgVeauAl 22.Sample.asc
18/03/08
10:29:04.00
18/03/08
10:29:04.00
Administrator

200.000000
1
Lambda 750
750N8071901
PerkinElmer UV WinLab 6.0.4.0738 / 1.61.00 Lambda 900

0
0
3350/servo 860.8/2
0
0
UV/VIS
1
1
1
CommonBeamDepol,150mm sphere / downward view
0
0
0
0
Program
Program
3350/servo 860.8/2
3350/0.2 860.8/0.2
3350/0.2 860.8/0.2
0
1
 
 
 
0
 
860.8
319.2
860.8
Front
100
on
 
 
0
0
0
 
0
 
 
 
0
 
 
0
0
0
0
0
 
 
 
 
0
0


0
0
#HDR
-1
-1
#GR
nm
%T
1.0
0.0
2350.000000
-1.000000
2151
8
35.105279
0.098889
#DATA
2350.000000	7.245080
2349.000000	7.108984
2348.000000	6.999476
2347.000000	7.910937
2346.000000	7.167557
2345.000000	7.491246
2344.000000	6.938218
2343.000000	7.066411
2342.000000	6.677083
2341.000000	7.403097
2340.000000	7.477972
2339.000000	7.934420
2338.000000	7.543558
2337.000000	7.385475
2336.000000	7.436232
2335.000000	7.698446
2334.000000	7.783714
2333.000000	7.952263
2332.000000	7.823226
2331.000000	7.919983
2330.000000	7.616239
2329.000000	7.962051
2328.000000	7.919953
2327.000000	7.973938
2326.000000	7.836883
2325.000000	7.519268
2324.000000	7.837303
2323.000000	7.886625
2322.000000	7.875401
2321.000000	7.600135
2320.000000	7.554775
2319.000000	7.671453
2318.000000	7.514588
2317.000000	7.609183
2316.000000	7.330172
2315.000000	7.534286
2314.000000	7.255878
2313.000000	7.403857
2312.000000	7.333092
2311.000000	7.582729
2310.000000	7.307235
2309.000000	7.293240
2308.000000	7.424697
2307.000000	7.160491
2306.000000	6.905617
2305.000000	6.907580
2304.000000	6.902850
2303.000000	7.148334
2302.000000	6.994766
2301.000000	6.989901
2300.000000	6.914761
2299.000000	6.567663
2298.000000	6.581642
2297.000000	6.609901
2296.000000	6.583740
2295.000000	6.429215
2294.000000	6.668147
2293.000000	6.488710
2292.000000	6.521770
2291.000000	6.568424
2290.000000	6.466836
2289.000000	6.430526
2288.000000	6.551151
2287.000000	6.565089
2286.000000	6.336609
2285.000000	6.259232
2284.000000	6.334525
2283.000000	6.459739
2282.000000	6.266499
2281.000000	6.117584
2280.000000	6.187001
2279.000000	6.275676
2278.000000	6.240344
2277.000000	6.177537
2276.000000	6.242065
2275.000000	6.278700
2274.000000	6.342615
2273.000000	6.434627
2272.000000	6.471901
2271.000000	6.433542
2270.000000	6.604596
2269.000000	6.537743
2268.000000	6.442063
2267.000000	6.476562
2266.000000	6.505446
2265.000000	6.591233
2264.000000	6.878038
2263.000000	6.844535
2262.000000	6.811081
2261.000000	6.928952
2260.000000	7.175532
2259.000000	7.318586
2258.000000	7.337004
2257.000000	7.284148
2256.000000	7.306089
2255.000000	7.472767
2254.000000	7.565283
2253.000000	7.626902
2252.000000	7.728048
2251.000000	7.870927
2250.000000	8.043785
2249.000000	8.325788
2248.000000	8.338455
2247.000000	8.285044
2246.000000	8.386785
2245.000000	8.589855
2244.000000	8.776023
2243.000000	8.803391
2242.000000	8.865102
2241.000000	8.929661
2240.000000	9.031909
2239.000000	9.120036
2238.000000	9.264427
2237.000000	9.459259
2236.000000	9.473357
2235.000000	9.499288
2234.000000	9.624788
2233.000000	9.583544
2232.000000	9.574909
2231.000000	9.599362
2230.000000	9.585725
2229.000000	9.681177
2228.000000	9.681500
2227.000000	9.576263
2226.000000	9.637227
2225.000000	9.747464
2224.000000	9.743534
2223.000000	9.602232
2222.000000	9.520723
2221.000000	9.577533
2220.000000	9.535872
2219.000000	9.480374
2218.000000	9.482054
2217.000000	9.505754
2216.000000	9.473025
2215.000000	9.452590
2214.000000	9.532381
2213.000000	9.509377
2212.000000	9.360774
2211.000000	9.266091
2210.000000	9.299040
2209.000000	9.145710
2208.000000	9.095009
2207.000000	9.123349
2206.000000	9.172775
2205.000000	9.127619
2204.000000	9.004409
2203.000000	8.893614
2202.000000	8.909874
2201.000000	8.920865
2200.000000	8.834681
2199.000000	8.737030
2198.000000	8.800958
2197.000000	8.679877
2196.000000	8.544875
2195.000000	8.405827
2194.000000	8.449776
2193.000000	8.483588
2192.000000	8.514212
2191.000000	8.264936
2190.000000	8.348136
2189.000000	8.387665
2188.000000	8.320884
2187.000000	8.244883
2186.000000	8.187845
2185.000000	8.158761
2184.000000	8.159071
2183.000000	8.139007
2182.000000	8.185986
2181.000000	8.070541
2180.000000	8.206182
2179.000000	8.006783
2178.000000	7.996050
2177.000000	7.939617
2176.000000	7.979362
2175.000000	8.067384
2174.000000	8.100416
2173.000000	8.013628
2172.000000	8.093317
2171.000000	8.041129
2170.000000	8.145305
2169.000000	8.205961
2168.000000	8.270628
2167.000000	8.201331
2166.000000	8.303015
2165.000000	8.375922
2164.000000	8.458548
2163.000000	8.558071
2162.000000	8.545672
2161.000000	8.434985
2160.000000	8.628621
2159.000000	8.826195
2158.000000	8.925261
2157.000000	8.847724
2156.000000	8.920705
2155.000000	8.878779
2154.000000	9.196995
2153.000000	9.227572
2152.000000	9.257008
2151.000000	9.230723
2150.000000	9.383490
2149.000000	9.334405
2148.000000	9.629961
2147.000000	9.400327
2146.000000	9.554159
2145.000000	9.828353
2144.000000	9.886211
2143.000000	9.855847
2142.000000	10.034583
2141.000000	10.290476
2140.000000	10.253485
2139.000000	10.327463
2138.000000	10.373515
2137.000000	10.256609
2136.000000	10.479195
2135.000000	10.429116
2134.000000	10.643577
2133.000000	10.401495
2132.000000	10.762977
2131.000000	10.800668
2130.000000	10.761198
2129.000000	10.814661
2128.000000	10.716559
2127.000000	10.755128
2126.000000	10.938438
2125.000000	10.841142
2124.000000	11.000596
2123.000000	10.953286
2122.000000	10.991759
2121.000000	10.905914
2120.000000	10.960708
2119.000000	10.956840
2118.000000	11.053588
2117.000000	10.998871
2116.000000	11.184876
2115.000000	11.176383
2114.000000	11.166966
2113.000000	11.194286
2112.000000	11.180471
2111.000000	11.134860
2110.000000	11.209763
2109.000000	11.334700
2108.000000	11.217386
2107.000000	11.201467
2106.000000	11.169314
2105.000000	11.305067
2104.000000	11.357959
2103.000000	11.356671
2102.000000	11.295429
2101.000000	11.320022
2100.000000	11.402362
2099.000000	11.397172
2098.000000	11.370372
2097.000000	11.357577
2096.000000	11.228180
2095.000000	11.385441
2094.000000	11.428719
2093.000000	11.293437
2092.000000	11.379775
2091.000000	11.320140
2090.000000	11.295859
2089.000000	11.373433
2088.000000	11.332943
2087.000000	11.317572
2086.000000	11.305760
2085.000000	11.289822
2084.000000	11.245510
2083.000000	11.186155
2082.000000	11.073165
2081.000000	11.118272
2080.000000	11.021666
2079.000000	11.004280
2078.000000	10.962936
2077.000000	10.994959
2076.000000	10.926944
2075.000000	10.849276
2074.000000	10.705960
2073.000000	10.642550
2072.000000	10.561618
2071.000000	10.452244
2070.000000	10.436095
2069.000000	10.263731
2068.000000	10.198704
2067.000000	10.136764
2066.000000	9.973163
2065.000000	9.869306
2064.000000	9.868577
2063.000000	9.838765
2062.000000	9.733043
2061.000000	9.614876
2060.000000	9.529075
2059.000000	9.364310
2058.000000	9.223177
2057.000000	9.149984
2056.000000	9.093026
2055.000000	9.029467
2054.000000	8.924672
2053.000000	8.825670
2052.000000	8.767297
2051.000000	8.628657
2050.000000	8.564168
2049.000000	8.530011
2048.000000	8.462025
2047.000000	8.469417
2046.000000	8.447000
2045.000000	8.411382
2044.000000	8.399557
2043.000000	8.421974
2042.000000	8.443705
2041.000000	8.406508
2040.000000	8.387564
2039.000000	8.357928
2038.000000	8.380571
2037.000000	8.455490
2036.000000	8.542935
2035.000000	8.605242
2034.000000	8.667166
2033.000000	8.730169
2032.000000	8.806032
2031.000000	8.876138
2030.000000	8.933166
2029.000000	8.992522
2028.000000	9.103013
2027.000000	9.169507
2026.000000	9.244848
2025.000000	9.350381
2024.000000	9.424405
2023.000000	9.456208
2022.000000	9.463575
2021.000000	9.451892
2020.000000	9.516480
2019.000000	9.563401
2018.000000	9.567829
2017.000000	9.616757
2016.000000	9.658655
2015.000000	9.657884
2014.000000	9.625353
2013.000000	9.621130
2012.000000	9.618000
2011.000000	9.622271
2010.000000	9.569513
2009.000000	9.508139
2008.000000	9.475088
2007.000000	9.444060
2006.000000	9.374207
2005.000000	9.326564
2004.000000	9.269029
2003.000000	9.239718
2002.000000	9.213671
2001.000000	9.132227
2000.000000	9.075547
1999.000000	9.043991
1998.000000	8.944344
1997.000000	8.892264
1996.000000	8.848701
1995.000000	8.784370
1994.000000	8.702041
1993.000000	8.641762
1992.000000	8.622753
1991.000000	8.540013
1990.000000	8.472458
1989.000000	8.397715
1988.000000	8.377401
1987.000000	8.307179
1986.000000	8.216856
1985.000000	8.160256
1984.000000	8.106718
1983.000000	8.035841
1982.000000	7.977993
1981.000000	7.997694
1980.000000	7.917939
1979.000000	7.821977
1978.000000	7.741325
1977.000000	7.710723
1976.000000	7.684901
1975.000000	7.604357
1974.000000	7.502543
1973.000000	7.479372
1972.000000	7.415895
1971.000000	7.401266
1970.000000	7.363667
1969.000000	7.303283
1968.000000	7.237796
1967.000000	7.234909
1966.000000	7.170696
1965.000000	7.118300
1964.000000	7.084847
1963.000000	7.025454
1962.000000	6.953349
1961.000000	6.926624
1960.000000	6.851006
1959.000000	6.827154
1958.000000	6.802189
1957.000000	6.739149
1956.000000	6.709326
1955.000000	6.677033
1954.000000	6.643844
1953.000000	6.647328
1952.000000	6.599810
1951.000000	6.609456
1950.000000	6.569528
1949.000000	6.558403
1948.000000	6.537317
1947.000000	6.468862
1946.000000	6.462363
1945.000000	6.542640
1944.000000	6.523671
1943.000000	6.503771
1942.000000	6.527147
1941.000000	6.534272
1940.000000	6.573866
1939.000000	6.648109
1938.000000	6.668587
1937.000000	6.694099
1936.000000	6.803054
1935.000000	6.854222
1934.000000	6.940706
1933.000000	6.868518
1932.000000	6.935707
1931.000000	7.122572
1930.000000	7.145089
1929.000000	7.250823
1928.000000	7.435715
1927.000000	7.463973
1926.000000	7.585087
1925.000000	7.689101
1924.000000	7.784547
1923.000000	7.964740
1922.000000	8.182060
1921.000000	8.375201
1920.000000	8.460597
1919.000000	8.661385
1918.000000	8.821519
1917.000000	9.049591
1916.000000	9.202269
1915.000000	9.492229
1914.000000	9.693533
1913.000000	9.948677
1912.000000	10.175809
1911.000000	10.392386
1910.000000	10.702077
1909.000000	10.908341
1908.000000	11.137372
1907.000000	11.480601
1906.000000	11.771999
1905.000000	12.084268
1904.000000	12.421712
1903.000000	12.872771
1902.000000	13.063005
1901.000000	13.436990
1900.000000	13.821948
1899.000000	14.144886
1898.000000	14.581361
1897.000000	14.862955
1896.000000	15.209767
1895.000000	15.644498
1894.000000	16.030743
1893.000000	16.437993
1892.000000	16.755733
1891.000000	17.120889
1890.000000	17.477035
1889.000000	17.746408
1888.000000	18.127459
1887.000000	18.432308
1886.000000	18.766546
1885.000000	19.127688
1884.000000	19.392152
1883.000000	19.776321
1882.000000	20.021674
1881.000000	20.343229
1880.000000	20.609959
1879.000000	20.866188
1878.000000	21.109392
1877.000000	21.341478
1876.000000	21.574590
1875.000000	21.796864
1874.000000	22.022575
1873.000000	22.222098
1872.000000	22.379007
1871.000000	22.560976
1870.000000	22.695693
1869.000000	22.882663
1868.000000	23.041210
1867.000000	23.096795
1866.000000	23.163468
1865.000000	23.240988
1864.000000	23.305344
1863.000000	23.428415
1862.000000	23.477185
1861.000000	23.518617
1860.000000	23.579969
1859.000000	23.629335
1858.000000	23.673448
1857.000000	23.721285
1856.000000	23.756018
1855.000000	23.774169
1854.000000	23.791733
1853.000000	23.847245
1852.000000	23.863647
1851.000000	23.871006
1850.000000	23.871322
1849.000000	23.881645
1848.000000	23.882653
1847.000000	23.903527
1846.000000	23.871942
1845.000000	23.857033
1844.000000	23.850362
1843.000000	23.852592
1842.000000	23.814687
1841.000000	23.795226
1840.000000	23.753287
1839.000000	23.739164
1838.000000	23.732242
1837.000000	23.665163
1836.000000	23.633110
1835.000000	23.579585
1834.000000	23.519902
1833.000000	23.463788
1832.000000	23.436132
1831.000000	23.376405
1830.000000	23.354926
1829.000000	23.327780
1828.000000	23.273005
1827.000000	23.250062
1826.000000	23.221924
1825.000000	23.190078
1824.000000	23.159952
1823.000000	23.120212
1822.000000	23.072127
1821.000000	23.047267
1820.000000	23.011744
1819.000000	22.963700
1818.000000	22.914167
1817.000000	22.891467
1816.000000	22.874855
1815.000000	22.844866
1814.000000	22.809883
1813.000000	22.785248
1812.000000	22.740544
1811.000000	22.701301
1810.000000	22.681488
1809.000000	22.651351
1808.000000	22.614514
1807.000000	22.575863
1806.000000	22.534233
1805.000000	22.503226
1804.000000	22.480091
1803.000000	22.442879
1802.000000	22.409290
1801.000000	22.399418
1800.000000	22.378281
1799.000000	22.359749
1798.000000	22.347277
1797.000000	22.314833
1796.000000	22.271677
1795.000000	22.253178
1794.000000	22.261525
1793.000000	22.223194
1792.000000	22.204093
1791.000000	22.192114
1790.000000	22.149065
1789.000000	22.119765
1788.000000	22.115118
1787.000000	22.086133
1786.000000	22.074238
1785.000000	22.036780
1784.000000	22.012549
1783.000000	21.996635
1782.000000	21.979740
1781.000000	21.934884
1780.000000	21.898249
1779.000000	21.852185
1778.000000	21.810850
1777.000000	21.786787
1776.000000	21.740170
1775.000000	21.706183
1774.000000	21.645128
1773.000000	21.593399
1772.000000	21.544448
1771.000000	21.478421
1770.000000	21.425520
1769.000000	21.390959
1768.000000	21.325496
1767.000000	21.274142
1766.000000	21.232545
1765.000000	21.174188
1764.000000	21.150175
1763.000000	21.088698
1762.000000	21.031610
1761.000000	20.981982
1760.000000	20.928697
1759.000000	20.884333
1758.000000	20.845108
1757.000000	20.794870
1756.000000	20.780363
1755.000000	20.745290
1754.000000	20.678109
1753.000000	20.619771
1752.000000	20.600420
1751.000000	20.559492
1750.000000	20.486797
1749.000000	20.467547
1748.000000	20.397188
1747.000000	20.338037
1746.000000	20.286628
1745.000000	20.233404
1744.000000	20.164893
1743.000000	20.126584
1742.000000	20.069757
1741.000000	20.025839
1740.000000	19.953469
1739.000000	19.917729
1738.000000	19.892697
1737.000000	19.866618
1736.000000	19.845947
1735.000000	19.816370
1734.000000	19.815526
1733.000000	19.804025
1732.000000	19.784335
1731.000000	19.764596
1730.000000	19.769143
1729.000000	19.798335
1728.000000	19.810240
1727.000000	19.893908
1726.000000	19.940535
1725.000000	19.988201
1724.000000	20.047877
1723.000000	20.130898
1722.000000	20.175805
1721.000000	20.281405
1720.000000	20.367649
1719.000000	20.428632
1718.000000	20.508779
1717.000000	20.572596
1716.000000	20.669419
1715.000000	20.738952
1714.000000	20.822995
1713.000000	20.888187
1712.000000	20.987373
1711.000000	21.021434
1710.000000	21.071018
1709.000000	21.132373
1708.000000	21.168269
1707.000000	21.219226
1706.000000	21.254456
1705.000000	21.275222
1704.000000	21.298630
1703.000000	21.334751
1702.000000	21.344402
1701.000000	21.351747
1700.000000	21.368627
1699.000000	21.363302
1698.000000	21.405719
1697.000000	21.434301
1696.000000	21.469177
1695.000000	21.488770
1694.000000	21.522440
1693.000000	21.559444
1692.000000	21.596381
1691.000000	21.660996
1690.000000	21.719870
1689.000000	21.822229
1688.000000	21.894730
1687.000000	21.981832
1686.000000	22.080458
1685.000000	22.196188
1684.000000	22.331092
1683.000000	22.461791
1682.000000	22.616091
1681.000000	22.754703
1680.000000	22.897172
1679.000000	23.038950
1678.000000	23.191543
1677.000000	23.357492
1676.000000	23.520692
1675.000000	23.684360
1674.000000	23.836598
1673.000000	23.975241
1672.000000	24.130803
1671.000000	24.282628
1670.000000	24.442660
1669.000000	24.595311
1668.000000	24.699723
1667.000000	24.826377
1666.000000	24.925356
1665.000000	25.012703
1664.000000	25.107852
1663.000000	25.168892
1662.000000	25.251700
1661.000000	25.323417
1660.000000	25.387055
1659.000000	25.457957
1658.000000	25.482617
1657.000000	25.535167
1656.000000	25.576908
1655.000000	25.605356
1654.000000	25.621317
1653.000000	25.648792
1652.000000	25.665859
1651.000000	25.650883
1650.000000	25.661562
1649.000000	25.669254
1648.000000	25.642792
1647.000000	25.638915
1646.000000	25.625215
1645.000000	25.608922
1644.000000	25.584672
1643.000000	25.566114
1642.000000	25.552407
1641.000000	25.508348
1640.000000	25.485554
1639.000000	25.474918
1638.000000	25.460138
1637.000000	25.431154
1636.000000	25.388678
1635.000000	25.353122
1634.000000	25.312723
1633.000000	25.262422
1632.000000	25.231253
1631.000000	25.192148
1630.000000	25.152184
1629.000000	25.121314
1628.000000	25.068671
1627.000000	25.022706
1626.000000	24.975010
1625.000000	24.926322
1624.000000	24.889554
1623.000000	24.851616
1622.000000	24.796716
1621.000000	24.718818
1620.000000	24.676039
1619.000000	24.643909
1618.000000	24.583954
1617.000000	24.520314
1616.000000	24.480787
1615.000000	24.430697
1614.000000	24.363710
1613.000000	24.303777
1612.000000	24.247171
1611.000000	24.194351
1610.000000	24.141343
1609.000000	24.084281
1608.000000	24.020175
1607.000000	23.960782
1606.000000	23.901389
1605.000000	23.845623
1604.000000	23.789454
1603.000000	23.724471
1602.000000	23.660880
1601.000000	23.601696
1600.000000	23.550999
1599.000000	23.498123
1598.000000	23.437400
1597.000000	23.377209
1596.000000	23.318234
1595.000000	23.268656
1594.000000	23.210410
1593.000000	23.159272
1592.000000	23.114269
1591.000000	23.062011
1590.000000	23.016289
1589.000000	22.964135
1588.000000	22.906650
1587.000000	22.860992
1586.000000	22.823808
1585.000000	22.785539
1584.000000	22.745684
1583.000000	22.699023
1582.000000	22.644605
1581.000000	22.601176
1580.000000	22.561729
1579.000000	22.516087
1578.000000	22.484826
1577.000000	22.440971
1576.000000	22.384729
1575.000000	22.337601
1574.000000	22.292624
1573.000000	22.250525
1572.000000	22.218126
1571.000000	22.174088
1570.000000	22.122170
1569.000000	22.079632
1568.000000	22.050009
1567.000000	22.019821
1566.000000	21.983944
1565.000000	21.943088
1564.000000	21.919938
1563.000000	21.913007
1562.000000	21.880203
1561.000000	21.849374
1560.000000	21.829241
1559.000000	21.804894
1558.000000	21.778073
1557.000000	21.759694
1556.000000	21.741656
1555.000000	21.716737
1554.000000	21.676005
1553.000000	21.649642
1552.000000	21.626954
1551.000000	21.612288
1550.000000	21.582309
1549.000000	21.539460
1548.000000	21.497544
1547.000000	21.446025
1546.000000	21.387744
1545.000000	21.335515
1544.000000	21.265237
1543.000000	21.192208
1542.000000	21.127200
1541.000000	21.066334
1540.000000	20.996261
1539.000000	20.914659
1538.000000	20.827452
1537.000000	20.748384
1536.000000	20.690632
1535.000000	20.658068
1534.000000	20.620144
1533.000000	20.570854
1532.000000	20.496129
1531.000000	20.408085
1530.000000	20.303360
1529.000000	20.207446
1528.000000	20.158656
1527.000000	20.110633
1526.000000	20.033697
1525.000000	19.981599
1524.000000	19.934332
1523.000000	19.876782
1522.000000	19.825810
1521.000000	19.778735
1520.000000	19.734639
1519.000000	19.699101
1518.000000	19.671875
1517.000000	19.641171
1516.000000	19.588746
1515.000000	19.545561
1514.000000	19.529460
1513.000000	19.523847
1512.000000	19.481924
1511.000000	19.448374
1510.000000	19.405562
1509.000000	19.369383
1508.000000	19.354911
1507.000000	19.371027
1506.000000	19.368167
1505.000000	19.339121
1504.000000	19.320747
1503.000000	19.302297
1502.000000	19.287461
1501.000000	19.274838
1500.000000	19.271833
1499.000000	19.251757
1498.000000	19.260767
1497.000000	19.241823
1496.000000	19.281659
1495.000000	19.271587
1494.000000	19.291731
1493.000000	19.307432
1492.000000	19.303999
1491.000000	19.348241
1490.000000	19.369314
1489.000000	19.412315
1488.000000	19.427088
1487.000000	19.456318
1486.000000	19.498872
1485.000000	19.537601
1484.000000	19.572023
1483.000000	19.632757
1482.000000	19.652959
1481.000000	19.704615
1480.000000	19.765885
1479.000000	19.806234
1478.000000	19.839923
1477.000000	19.887199
1476.000000	19.924770
1475.000000	19.968515
1474.000000	20.003898
1473.000000	20.039425
1472.000000	20.073837
1471.000000	20.107982
1470.000000	20.145800
1469.000000	20.189039
1468.000000	20.226728
1467.000000	20.261410
1466.000000	20.340003
1465.000000	20.384933
1464.000000	20.402243
1463.000000	20.430458
1462.000000	20.477169
1461.000000	20.541926
1460.000000	20.591795
1459.000000	20.627408
1458.000000	20.646828
1457.000000	20.686649
1456.000000	20.776184
1455.000000	20.828500
1454.000000	20.867940
1453.000000	20.893026
