PE UV       SUBTECH     SPECTRUM    ASCII       PEDS        4.00        
   -1
TTgVeauAl 42.Sample.asc
18/03/08
10:48:55.00
18/03/08
10:48:55.00
Administrator

200.000000
1
Lambda 750
750N8071901
PerkinElmer UV WinLab 6.0.4.0738 / 1.61.00 Lambda 900

0
0
3350/servo 860.8/2
0
0
UV/VIS
1
1
1
CommonBeamDepol,150mm sphere / downward view
0
0
0
0
Program
Program
3350/servo 860.8/2
3350/0.2 860.8/0.2
3350/0.2 860.8/0.2
0
1
 
 
 
0
 
860.8
319.2
860.8
Front
100
on
 
 
0
0
0
 
0
 
 
 
0
 
 
0
0
0
0
0
 
 
 
 
0
0


0
0
#HDR
-1
-1
#GR
nm
%T
1.0
0.0
2350.000000
-1.000000
2151
8
39.110660
0.153782
#DATA
2350.000000	12.381282
2349.000000	12.102785
2348.000000	11.881323
2347.000000	12.693845
2346.000000	12.270239
2345.000000	11.764510
2344.000000	12.154264
2343.000000	11.911925
2342.000000	12.062037
2341.000000	12.152328
2340.000000	12.210392
2339.000000	12.452835
2338.000000	12.305106
2337.000000	12.621034
2336.000000	12.730025
2335.000000	12.946269
2334.000000	12.575077
2333.000000	12.880089
2332.000000	13.022825
2331.000000	12.800783
2330.000000	12.592184
2329.000000	12.604600
2328.000000	12.702113
2327.000000	12.660954
2326.000000	12.561996
2325.000000	12.354913
2324.000000	12.634230
2323.000000	12.491102
2322.000000	12.249170
2321.000000	12.516861
2320.000000	12.497499
2319.000000	12.545577
2318.000000	12.457904
2317.000000	12.360960
2316.000000	12.325170
2315.000000	12.034559
2314.000000	12.154870
2313.000000	11.917339
2312.000000	12.074163
2311.000000	11.944501
2310.000000	12.026589
2309.000000	11.899097
2308.000000	11.931668
2307.000000	11.794484
2306.000000	11.733151
2305.000000	11.738291
2304.000000	11.683391
2303.000000	11.712440
2302.000000	11.853389
2301.000000	11.652234
2300.000000	11.493718
2299.000000	11.551480
2298.000000	11.454743
2297.000000	11.297860
2296.000000	11.295739
2295.000000	11.223879
2294.000000	11.214948
2293.000000	11.032213
2292.000000	11.123502
2291.000000	11.053395
2290.000000	10.967025
2289.000000	10.846200
2288.000000	10.916221
2287.000000	10.894279
2286.000000	11.003603
2285.000000	10.952262
2284.000000	10.873722
2283.000000	10.672727
2282.000000	10.704191
2281.000000	10.769605
2280.000000	10.878626
2279.000000	10.984515
2278.000000	10.933916
2277.000000	10.932038
2276.000000	10.972338
2275.000000	10.940954
2274.000000	10.874558
2273.000000	10.915297
2272.000000	10.893741
2271.000000	11.033299
2270.000000	11.090076
2269.000000	10.978160
2268.000000	11.082339
2267.000000	11.205299
2266.000000	11.292060
2265.000000	11.261641
2264.000000	11.371967
2263.000000	11.516411
2262.000000	11.586519
2261.000000	11.732951
2260.000000	11.878943
2259.000000	11.934104
2258.000000	11.968927
2257.000000	12.265295
2256.000000	12.404587
2255.000000	12.269774
2254.000000	12.379065
2253.000000	12.650835
2252.000000	12.863427
2251.000000	12.962448
2250.000000	13.094440
2249.000000	13.297507
2248.000000	13.438733
2247.000000	13.543594
2246.000000	13.639488
2245.000000	13.788311
2244.000000	13.888810
2243.000000	14.115357
2242.000000	14.274346
2241.000000	14.290883
2240.000000	14.408613
2239.000000	14.502339
2238.000000	14.518450
2237.000000	14.655200
2236.000000	14.866830
2235.000000	15.014270
2234.000000	15.067422
2233.000000	15.000193
2232.000000	15.025507
2231.000000	15.027718
2230.000000	14.978328
2229.000000	15.065489
2228.000000	15.079103
2227.000000	15.097717
2226.000000	14.967072
2225.000000	14.900907
2224.000000	15.110123
2223.000000	15.109217
2222.000000	15.097595
2221.000000	15.136511
2220.000000	15.088640
2219.000000	15.123930
2218.000000	15.084870
2217.000000	15.035731
2216.000000	15.029690
2215.000000	14.938949
2214.000000	14.880308
2213.000000	14.896573
2212.000000	14.875835
2211.000000	14.736328
2210.000000	14.572638
2209.000000	14.513851
2208.000000	14.405195
2207.000000	14.407333
2206.000000	14.362285
2205.000000	14.379985
2204.000000	14.303506
2203.000000	14.274720
2202.000000	14.220600
2201.000000	14.121133
2200.000000	14.082836
2199.000000	14.077548
2198.000000	13.919679
2197.000000	13.849465
2196.000000	13.811115
2195.000000	13.790290
2194.000000	13.694188
2193.000000	13.654764
2192.000000	13.603673
2191.000000	13.554130
2190.000000	13.497892
2189.000000	13.426245
2188.000000	13.350646
2187.000000	13.320726
2186.000000	13.390014
2185.000000	13.265134
2184.000000	13.292886
2183.000000	13.244210
2182.000000	13.213568
2181.000000	13.158278
2180.000000	13.027907
2179.000000	13.040381
2178.000000	12.979393
2177.000000	13.103777
2176.000000	12.999197
2175.000000	13.147345
2174.000000	13.224301
2173.000000	13.141401
2172.000000	13.210075
2171.000000	13.109021
2170.000000	13.231456
2169.000000	13.317859
2168.000000	13.360704
2167.000000	13.405538
2166.000000	13.496817
2165.000000	13.469712
2164.000000	13.529798
2163.000000	13.564410
2162.000000	13.736091
2161.000000	13.763105
2160.000000	13.958367
2159.000000	13.852080
2158.000000	13.868621
2157.000000	14.068920
2156.000000	14.280453
2155.000000	14.301147
2154.000000	14.341749
2153.000000	14.534531
2152.000000	14.599192
2151.000000	14.767059
2150.000000	14.951359
2149.000000	15.047746
2148.000000	14.991376
2147.000000	15.320418
2146.000000	15.178615
2145.000000	15.211514
2144.000000	15.354267
2143.000000	15.496317
2142.000000	15.435040
2141.000000	15.543691
2140.000000	15.897839
2139.000000	15.934618
2138.000000	16.026056
2137.000000	16.205130
2136.000000	16.072536
2135.000000	16.197490
2134.000000	16.237226
2133.000000	16.092124
2132.000000	16.386661
2131.000000	16.436759
2130.000000	16.682902
2129.000000	16.415409
2128.000000	16.504724
2127.000000	16.559384
2126.000000	16.624456
2125.000000	16.701852
2124.000000	16.854138
2123.000000	16.883054
2122.000000	16.876787
2121.000000	16.874446
2120.000000	16.869546
2119.000000	16.996896
2118.000000	16.861843
2117.000000	16.891018
2116.000000	16.978843
2115.000000	17.157218
2114.000000	17.046653
2113.000000	16.994250
2112.000000	17.056195
2111.000000	17.076158
2110.000000	17.078156
2109.000000	16.998207
2108.000000	17.111705
2107.000000	17.083243
2106.000000	17.258172
2105.000000	17.220079
2104.000000	17.257313
2103.000000	17.350646
2102.000000	17.286671
2101.000000	17.360440
2100.000000	17.421050
2099.000000	17.238896
2098.000000	17.150354
2097.000000	17.210339
2096.000000	17.260086
2095.000000	17.169483
2094.000000	17.232744
2093.000000	17.149778
2092.000000	17.191249
2091.000000	17.152641
2090.000000	17.228337
2089.000000	17.194630
2088.000000	17.181966
2087.000000	17.115425
2086.000000	17.216228
2085.000000	17.148394
2084.000000	16.990234
2083.000000	16.950357
2082.000000	16.911217
2081.000000	16.907571
2080.000000	16.769387
2079.000000	16.793012
2078.000000	16.736769
2077.000000	16.695685
2076.000000	16.586723
2075.000000	16.445909
2074.000000	16.394500
2073.000000	16.384620
2072.000000	16.274632
2071.000000	16.204343
2070.000000	16.170849
2069.000000	15.972158
2068.000000	15.803501
2067.000000	15.684104
2066.000000	15.575763
2065.000000	15.521309
2064.000000	15.420341
2063.000000	15.223748
2062.000000	15.145689
2061.000000	15.114474
2060.000000	14.979802
2059.000000	14.758687
2058.000000	14.620813
2057.000000	14.596707
2056.000000	14.498119
2055.000000	14.370778
2054.000000	14.252391
2053.000000	14.209934
2052.000000	14.125540
2051.000000	14.024529
2050.000000	13.888290
2049.000000	13.809833
2048.000000	13.808474
2047.000000	13.788438
2046.000000	13.713566
2045.000000	13.626061
2044.000000	13.601512
2043.000000	13.551658
2042.000000	13.548866
2041.000000	13.703150
2040.000000	13.710427
2039.000000	13.675182
2038.000000	13.683380
2037.000000	13.735229
2036.000000	13.836721
2035.000000	13.920817
2034.000000	13.984419
2033.000000	14.048715
2032.000000	14.157775
2031.000000	14.201963
2030.000000	14.251676
2029.000000	14.380918
2028.000000	14.493005
2027.000000	14.593486
2026.000000	14.690954
2025.000000	14.808043
2024.000000	14.885706
2023.000000	14.915536
2022.000000	14.984467
2021.000000	15.002262
2020.000000	15.001258
2019.000000	15.035350
2018.000000	15.095989
2017.000000	15.129766
2016.000000	15.146871
2015.000000	15.176196
2014.000000	15.134777
2013.000000	15.096433
2012.000000	15.089583
2011.000000	15.090064
2010.000000	15.068279
2009.000000	14.997192
2008.000000	14.914878
2007.000000	14.878840
2006.000000	14.835605
2005.000000	14.794071
2004.000000	14.724978
2003.000000	14.658417
2002.000000	14.562046
2001.000000	14.499570
2000.000000	14.445030
1999.000000	14.370560
1998.000000	14.331064
1997.000000	14.241257
1996.000000	14.147926
1995.000000	14.066333
1994.000000	13.971436
1993.000000	13.878122
1992.000000	13.789841
1991.000000	13.715868
1990.000000	13.665390
1989.000000	13.571500
1988.000000	13.528331
1987.000000	13.415605
1986.000000	13.335957
1985.000000	13.270515
1984.000000	13.195512
1983.000000	13.106625
1982.000000	13.043102
1981.000000	12.972674
1980.000000	12.900845
1979.000000	12.841771
1978.000000	12.753455
1977.000000	12.675952
1976.000000	12.620982
1975.000000	12.565099
1974.000000	12.462941
1973.000000	12.414318
1972.000000	12.322647
1971.000000	12.298507
1970.000000	12.200357
1969.000000	12.123937
1968.000000	12.074276
1967.000000	11.994340
1966.000000	11.932456
1965.000000	11.863156
1964.000000	11.741714
1963.000000	11.721431
1962.000000	11.648865
1961.000000	11.574393
1960.000000	11.527252
1959.000000	11.496550
1958.000000	11.443556
1957.000000	11.350381
1956.000000	11.338277
1955.000000	11.278698
1954.000000	11.214421
1953.000000	11.203682
1952.000000	11.145130
1951.000000	11.210763
1950.000000	11.118303
1949.000000	11.109903
1948.000000	11.055826
1947.000000	10.989993
1946.000000	10.979364
1945.000000	11.040273
1944.000000	11.000298
1943.000000	10.999915
1942.000000	11.027993
1941.000000	11.055532
1940.000000	11.099799
1939.000000	11.132581
1938.000000	11.163572
1937.000000	11.235788
1936.000000	11.301134
1935.000000	11.442375
1934.000000	11.503864
1933.000000	11.626479
1932.000000	11.605379
1931.000000	11.665469
1930.000000	11.824126
1929.000000	11.958483
1928.000000	12.166963
1927.000000	12.247042
1926.000000	12.468944
1925.000000	12.598614
1924.000000	12.729222
1923.000000	12.915425
1922.000000	13.107756
1921.000000	13.334671
1920.000000	13.511637
1919.000000	13.758012
1918.000000	14.048215
1917.000000	14.250362
1916.000000	14.355382
1915.000000	14.681874
1914.000000	14.989368
1913.000000	15.349256
1912.000000	15.572220
1911.000000	15.854198
1910.000000	16.194720
1909.000000	16.455987
1908.000000	16.821344
1907.000000	17.153803
1906.000000	17.511788
1905.000000	17.899601
1904.000000	18.301815
1903.000000	18.686650
1902.000000	19.025392
1901.000000	19.447541
1900.000000	19.761743
1899.000000	20.183914
1898.000000	20.681467
1897.000000	21.075136
1896.000000	21.374495
1895.000000	21.751428
1894.000000	22.183561
1893.000000	22.545398
1892.000000	22.926350
1891.000000	23.325416
1890.000000	23.708042
1889.000000	24.066104
1888.000000	24.417984
1887.000000	24.731414
1886.000000	25.055736
1885.000000	25.405680
1884.000000	25.713269
1883.000000	26.042404
1882.000000	26.311756
1881.000000	26.606326
1880.000000	26.903295
1879.000000	27.176213
1878.000000	27.438044
1877.000000	27.653306
1876.000000	27.906211
1875.000000	28.094236
1874.000000	28.255356
1873.000000	28.528790
1872.000000	28.679013
1871.000000	28.813710
1870.000000	28.966483
1869.000000	29.095233
1868.000000	29.193564
1867.000000	29.291722
1866.000000	29.399303
1865.000000	29.467757
1864.000000	29.510503
1863.000000	29.556347
1862.000000	29.647391
1861.000000	29.689375
1860.000000	29.726005
1859.000000	29.770493
1858.000000	29.831066
1857.000000	29.856788
1856.000000	29.922676
1855.000000	29.968700
1854.000000	29.983007
1853.000000	30.006051
1852.000000	30.008040
1851.000000	30.019684
1850.000000	30.026273
1849.000000	29.998845
1848.000000	30.013002
1847.000000	30.009530
1846.000000	29.994271
1845.000000	29.982987
1844.000000	30.005716
1843.000000	30.001125
1842.000000	29.948063
1841.000000	29.900035
1840.000000	29.887264
1839.000000	29.862653
1838.000000	29.805944
1837.000000	29.772112
1836.000000	29.751124
1835.000000	29.700089
1834.000000	29.671227
1833.000000	29.630144
1832.000000	29.582018
1831.000000	29.542907
1830.000000	29.505253
1829.000000	29.455246
1828.000000	29.413275
1827.000000	29.360896
1826.000000	29.329464
1825.000000	29.303233
1824.000000	29.282720
1823.000000	29.250075
1822.000000	29.204499
1821.000000	29.171783
1820.000000	29.144493
1819.000000	29.108828
1818.000000	29.077885
1817.000000	29.059252
1816.000000	29.027174
1815.000000	28.984461
1814.000000	28.964247
1813.000000	28.941316
1812.000000	28.911589
1811.000000	28.872658
1810.000000	28.844946
1809.000000	28.821554
1808.000000	28.780658
1807.000000	28.755035
1806.000000	28.734642
1805.000000	28.707962
1804.000000	28.665830
1803.000000	28.635077
1802.000000	28.611865
1801.000000	28.588918
1800.000000	28.571661
1799.000000	28.544072
1798.000000	28.527480
1797.000000	28.509917
1796.000000	28.476190
1795.000000	28.440842
1794.000000	28.433473
1793.000000	28.429780
1792.000000	28.402233
1791.000000	28.385901
1790.000000	28.371886
1789.000000	28.341651
1788.000000	28.325142
1787.000000	28.309436
1786.000000	28.293085
1785.000000	28.274640
1784.000000	28.244712
1783.000000	28.224929
1782.000000	28.188246
1781.000000	28.149271
1780.000000	28.131453
1779.000000	28.108092
1778.000000	28.062426
1777.000000	27.993201
1776.000000	27.954234
1775.000000	27.909882
1774.000000	27.860593
1773.000000	27.814722
1772.000000	27.756425
1771.000000	27.715365
1770.000000	27.656408
1769.000000	27.608125
1768.000000	27.560587
1767.000000	27.521491
1766.000000	27.449072
1765.000000	27.421715
1764.000000	27.394943
1763.000000	27.332684
1762.000000	27.266061
1761.000000	27.228338
1760.000000	27.179861
1759.000000	27.148483
1758.000000	27.095680
1757.000000	27.060152
1756.000000	27.027929
1755.000000	26.980452
1754.000000	26.918871
1753.000000	26.869345
1752.000000	26.836517
1751.000000	26.789925
1750.000000	26.750827
1749.000000	26.730867
1748.000000	26.656544
1747.000000	26.588018
1746.000000	26.538637
1745.000000	26.467932
1744.000000	26.442104
1743.000000	26.401089
1742.000000	26.343285
1741.000000	26.301703
1740.000000	26.233752
1739.000000	26.193254
1738.000000	26.183584
1737.000000	26.117292
1736.000000	26.071520
1735.000000	26.066148
1734.000000	26.067108
1733.000000	26.039693
1732.000000	26.029944
1731.000000	26.055971
1730.000000	26.061123
1729.000000	26.062145
1728.000000	26.080200
1727.000000	26.129935
1726.000000	26.188915
1725.000000	26.231304
1724.000000	26.281193
1723.000000	26.349990
1722.000000	26.460036
1721.000000	26.518395
1720.000000	26.578149
1719.000000	26.678848
1718.000000	26.752328
1717.000000	26.844730
1716.000000	26.901331
1715.000000	26.973025
1714.000000	27.058275
1713.000000	27.113370
1712.000000	27.204012
1711.000000	27.235219
1710.000000	27.304384
1709.000000	27.378279
1708.000000	27.409581
1707.000000	27.438370
1706.000000	27.471729
1705.000000	27.480211
1704.000000	27.520496
1703.000000	27.532014
1702.000000	27.546057
1701.000000	27.596148
1700.000000	27.615132
1699.000000	27.596494
1698.000000	27.615023
1697.000000	27.660035
1696.000000	27.716540
1695.000000	27.714702
1694.000000	27.769543
1693.000000	27.805294
1692.000000	27.819386
1691.000000	27.887318
1690.000000	27.949992
1689.000000	28.031701
1688.000000	28.135059
1687.000000	28.221910
1686.000000	28.308394
1685.000000	28.417541
1684.000000	28.555063
1683.000000	28.652604
1682.000000	28.789606
1681.000000	28.949043
1680.000000	29.085789
1679.000000	29.212265
1678.000000	29.360697
1677.000000	29.500027
1676.000000	29.643917
1675.000000	29.800796
1674.000000	29.939768
1673.000000	30.079728
1672.000000	30.221890
1671.000000	30.338822
1670.000000	30.470415
1669.000000	30.610920
1668.000000	30.705577
1667.000000	30.846953
1666.000000	30.913609
1665.000000	30.978784
1664.000000	31.073886
1663.000000	31.149545
1662.000000	31.217397
1661.000000	31.263559
1660.000000	31.339776
1659.000000	31.395565
1658.000000	31.411808
1657.000000	31.467473
1656.000000	31.503182
1655.000000	31.525453
1654.000000	31.548280
1653.000000	31.553871
1652.000000	31.579049
1651.000000	31.569028
1650.000000	31.562055
1649.000000	31.566536
1648.000000	31.559648
1647.000000	31.551656
1646.000000	31.543463
1645.000000	31.528521
1644.000000	31.515617
1643.000000	31.475090
1642.000000	31.459924
1641.000000	31.444142
1640.000000	31.424171
1639.000000	31.406094
1638.000000	31.386526
1637.000000	31.365486
1636.000000	31.319861
1635.000000	31.292070
1634.000000	31.247771
1633.000000	31.208823
1632.000000	31.190281
1631.000000	31.147199
1630.000000	31.093847
1629.000000	31.059956
1628.000000	31.021065
1627.000000	30.981557
1626.000000	30.943765
1625.000000	30.906620
1624.000000	30.879669
1623.000000	30.842972
1622.000000	30.781562
1621.000000	30.718552
1620.000000	30.686433
1619.000000	30.654224
1618.000000	30.596917
1617.000000	30.535310
1616.000000	30.483055
1615.000000	30.440985
1614.000000	30.395408
1613.000000	30.348429
1612.000000	30.305662
1611.000000	30.256247
1610.000000	30.203070
1609.000000	30.149520
1608.000000	30.081165
1607.000000	30.023996
1606.000000	29.972459
1605.000000	29.913383
1604.000000	29.854197
1603.000000	29.805726
1602.000000	29.762889
1601.000000	29.698435
1600.000000	29.652317
1599.000000	29.606222
1598.000000	29.550957
1597.000000	29.500073
1596.000000	29.452446
1595.000000	29.412356
1594.000000	29.362210
1593.000000	29.311893
1592.000000	29.263689
1591.000000	29.222305
1590.000000	29.177843
1589.000000	29.122323
1588.000000	29.071583
1587.000000	29.036505
1586.000000	28.998931
1585.000000	28.958153
1584.000000	28.910392
1583.000000	28.872414
1582.000000	28.840167
1581.000000	28.804573
1580.000000	28.762853
1579.000000	28.721082
1578.000000	28.683533
1577.000000	28.632537
1576.000000	28.578597
1575.000000	28.548951
1574.000000	28.502953
1573.000000	28.460928
1572.000000	28.426850
1571.000000	28.386234
1570.000000	28.354273
1569.000000	28.324947
1568.000000	28.285033
1567.000000	28.251248
1566.000000	28.205909
1565.000000	28.180609
1564.000000	28.159027
1563.000000	28.140013
1562.000000	28.113550
1561.000000	28.090746
1560.000000	28.065543
1559.000000	28.045150
1558.000000	28.027641
1557.000000	28.007987
1556.000000	27.983430
1555.000000	27.954246
1554.000000	27.917539
1553.000000	27.888345
1552.000000	27.857584
1551.000000	27.837796
1550.000000	27.811145
1549.000000	27.771037
1548.000000	27.733588
1547.000000	27.678862
1546.000000	27.622570
1545.000000	27.572459
1544.000000	27.510287
1543.000000	27.449368
1542.000000	27.374426
1541.000000	27.316963
1540.000000	27.251021
1539.000000	27.178363
1538.000000	27.097571
1537.000000	27.015949
1536.000000	26.929547
1535.000000	26.874759
1534.000000	26.838037
1533.000000	26.814824
1532.000000	26.798873
1531.000000	26.732115
1530.000000	26.616486
1529.000000	26.534009
1528.000000	26.440622
1527.000000	26.370656
1526.000000	26.300187
1525.000000	26.250589
1524.000000	26.230217
1523.000000	26.190998
1522.000000	26.120674
1521.000000	26.061930
1520.000000	26.021301
1519.000000	25.981832
1518.000000	25.957353
1517.000000	25.921600
1516.000000	25.865707
1515.000000	25.848202
1514.000000	25.844246
1513.000000	25.808385
1512.000000	25.765492
1511.000000	25.728145
1510.000000	25.725551
1509.000000	25.711918
1508.000000	25.712057
1507.000000	25.692345
1506.000000	25.663230
1505.000000	25.640341
1504.000000	25.625182
1503.000000	25.605114
1502.000000	25.568651
1501.000000	25.576323
1500.000000	25.569125
1499.000000	25.556821
1498.000000	25.578202
1497.000000	25.571202
1496.000000	25.583847
1495.000000	25.588728
1494.000000	25.615693
1493.000000	25.618966
1492.000000	25.633983
1491.000000	25.676330
1490.000000	25.680337
1489.000000	25.715818
1488.000000	25.749678
1487.000000	25.763868
1486.000000	25.802266
1485.000000	25.847189
1484.000000	25.886712
1483.000000	25.931917
1482.000000	25.966486
1481.000000	26.001470
1480.000000	26.055279
1479.000000	26.100733
1478.000000	26.131757
1477.000000	26.185631
1476.000000	26.225398
1475.000000	26.251915
1474.000000	26.312552
1473.000000	26.342849
1472.000000	26.362804
1471.000000	26.400050
1470.000000	26.438203
