PE UV       SUBTECH     SPECTRUM    ASCII       PEDS        4.00        
   -1
TTgVeauUK 22.Sample.asc
18/03/08
09:25:17.00
18/03/08
09:25:17.00
Administrator

200.000000
1
Lambda 750
750N8071901
PerkinElmer UV WinLab 6.0.4.0738 / 1.61.00 Lambda 900

0
0
3350/servo 860.8/2
0
0
UV/VIS
1
1
1
CommonBeamDepol,150mm sphere / downward view
0
0
0
0
Program
Program
3350/servo 860.8/2
3350/0.2 860.8/0.2
3350/0.2 860.8/0.2
0
1
 
 
 
0
 
860.8
319.2
860.8
Front
100
on
 
 
0
0
0
 
0
 
 
 
0
 
 
0
0
0
0
0
 
 
 
 
0
0


0
0
#HDR
-1
-1
#GR
nm
%T
1.0
0.0
2350.000000
-1.000000
2151
8
51.593514
0.119512
#DATA
2350.000000	14.470170
2349.000000	14.671207
2348.000000	14.516466
2347.000000	15.410861
2346.000000	14.846981
2345.000000	14.669190
2344.000000	14.671402
2343.000000	14.882092
2342.000000	14.898095
2341.000000	14.925302
2340.000000	14.769581
2339.000000	15.079698
2338.000000	15.199212
2337.000000	15.140471
2336.000000	15.537635
2335.000000	15.382935
2334.000000	15.360075
2333.000000	15.123090
2332.000000	15.332759
2331.000000	15.635432
2330.000000	15.364007
2329.000000	15.247360
2328.000000	15.647978
2327.000000	15.213475
2326.000000	15.143834
2325.000000	15.452816
2324.000000	15.332287
2323.000000	15.271939
2322.000000	15.302052
2321.000000	15.223393
2320.000000	15.200108
2319.000000	14.980312
2318.000000	14.928955
2317.000000	15.169855
2316.000000	14.978220
2315.000000	14.853339
2314.000000	14.628619
2313.000000	14.583072
2312.000000	14.577610
2311.000000	14.693460
2310.000000	14.760758
2309.000000	14.550926
2308.000000	14.442161
2307.000000	14.295220
2306.000000	14.144992
2305.000000	13.924463
2304.000000	13.960297
2303.000000	14.055394
2302.000000	13.886300
2301.000000	13.790678
2300.000000	13.812861
2299.000000	13.552817
2298.000000	13.401003
2297.000000	13.326758
2296.000000	13.162606
2295.000000	13.270848
2294.000000	13.275148
2293.000000	13.016593
2292.000000	12.946510
2291.000000	12.900653
2290.000000	12.832112
2289.000000	12.735504
2288.000000	12.626882
2287.000000	12.628612
2286.000000	12.568423
2285.000000	12.470140
2284.000000	12.374851
2283.000000	12.288879
2282.000000	12.317999
2281.000000	12.401029
2280.000000	12.441248
2279.000000	12.588211
2278.000000	12.479572
2277.000000	12.399569
2276.000000	12.568192
2275.000000	12.647900
2274.000000	12.570394
2273.000000	12.649064
2272.000000	12.800424
2271.000000	12.863943
2270.000000	12.970465
2269.000000	12.904506
2268.000000	13.034688
2267.000000	13.152163
2266.000000	13.200193
2265.000000	13.340532
2264.000000	13.522755
2263.000000	13.485389
2262.000000	13.555966
2261.000000	13.817249
2260.000000	14.042656
2259.000000	14.335434
2258.000000	14.543727
2257.000000	14.788939
2256.000000	14.871818
2255.000000	14.928081
2254.000000	15.151260
2253.000000	15.367849
2252.000000	15.553885
2251.000000	15.786068
2250.000000	16.057246
2249.000000	16.368872
2248.000000	16.573286
2247.000000	16.688275
2246.000000	16.859247
2245.000000	17.079859
2244.000000	17.367548
2243.000000	17.606578
2242.000000	17.740443
2241.000000	17.877056
2240.000000	17.989465
2239.000000	18.065827
2238.000000	18.225276
2237.000000	18.480670
2236.000000	18.659745
2235.000000	18.737644
2234.000000	18.804021
2233.000000	18.723809
2232.000000	18.789182
2231.000000	18.936131
2230.000000	18.996837
2229.000000	18.982366
2228.000000	19.058478
2227.000000	19.140451
2226.000000	19.087740
2225.000000	18.993911
2224.000000	18.884764
2223.000000	18.918042
2222.000000	18.946717
2221.000000	18.950982
2220.000000	18.974635
2219.000000	18.912896
2218.000000	18.818389
2217.000000	18.789871
2216.000000	18.775787
2215.000000	18.731414
2214.000000	18.712780
2213.000000	18.687051
2212.000000	18.543352
2211.000000	18.362727
2210.000000	18.242506
2209.000000	18.222516
2208.000000	18.105693
2207.000000	18.078725
2206.000000	18.045916
2205.000000	17.984848
2204.000000	17.889854
2203.000000	17.708039
2202.000000	17.647303
2201.000000	17.654835
2200.000000	17.614156
2199.000000	17.526612
2198.000000	17.452787
2197.000000	17.310919
2196.000000	17.206960
2195.000000	16.991936
2194.000000	16.847904
2193.000000	16.770798
2192.000000	16.724092
2191.000000	16.698484
2190.000000	16.647053
2189.000000	16.675470
2188.000000	16.547168
2187.000000	16.396226
2186.000000	16.473216
2185.000000	16.481460
2184.000000	16.358435
2183.000000	16.246776
2182.000000	16.172182
2181.000000	16.127727
2180.000000	16.028330
2179.000000	15.925139
2178.000000	15.959756
2177.000000	16.148028
2176.000000	15.951946
2175.000000	16.081169
2174.000000	16.117560
2173.000000	16.006448
2172.000000	16.061246
2171.000000	16.194923
2170.000000	16.291618
2169.000000	16.429281
2168.000000	16.494921
2167.000000	16.521735
2166.000000	16.489804
2165.000000	16.781539
2164.000000	16.862155
2163.000000	16.805378
2162.000000	16.930373
2161.000000	17.060878
2160.000000	17.267556
2159.000000	17.300422
2158.000000	17.466303
2157.000000	17.453639
2156.000000	17.742626
2155.000000	17.850359
2154.000000	18.100690
2153.000000	18.353753
2152.000000	18.497172
2151.000000	18.543218
2150.000000	18.662767
2149.000000	18.859026
2148.000000	18.889853
2147.000000	18.996286
2146.000000	19.244853
2145.000000	19.354299
2144.000000	19.532676
2143.000000	19.511120
2142.000000	19.683382
2141.000000	19.954891
2140.000000	19.946741
2139.000000	20.235552
2138.000000	20.274942
2137.000000	20.275934
2136.000000	20.470714
2135.000000	20.619829
2134.000000	20.809423
2133.000000	20.529115
2132.000000	20.930456
2131.000000	21.139705
2130.000000	21.098567
2129.000000	21.255582
2128.000000	21.218832
2127.000000	21.210256
2126.000000	21.107611
2125.000000	21.269242
2124.000000	21.373228
2123.000000	21.427035
2122.000000	21.487982
2121.000000	21.707956
2120.000000	21.694736
2119.000000	21.516032
2118.000000	21.688364
2117.000000	21.762810
2116.000000	21.850030
2115.000000	22.103729
2114.000000	21.985348
2113.000000	21.849635
2112.000000	21.873134
2111.000000	21.844361
2110.000000	21.850154
2109.000000	21.887215
2108.000000	21.944707
2107.000000	21.978944
2106.000000	22.058956
2105.000000	22.092562
2104.000000	22.020497
2103.000000	22.029413
2102.000000	21.970112
2101.000000	22.067919
2100.000000	22.191146
2099.000000	22.056201
2098.000000	21.968118
2097.000000	22.009448
2096.000000	22.007034
2095.000000	22.005034
2094.000000	22.035126
2093.000000	21.955683
2092.000000	22.084877
2091.000000	21.983224
2090.000000	21.955121
2089.000000	21.861012
2088.000000	21.800398
2087.000000	21.857983
2086.000000	21.921281
2085.000000	21.915763
2084.000000	21.727240
2083.000000	21.659374
2082.000000	21.594461
2081.000000	21.492735
2080.000000	21.393625
2079.000000	21.271837
2078.000000	21.197465
2077.000000	21.113801
2076.000000	21.031611
2075.000000	20.862008
2074.000000	20.734530
2073.000000	20.626045
2072.000000	20.463420
2071.000000	20.415195
2070.000000	20.307434
2069.000000	20.060465
2068.000000	19.929279
2067.000000	19.864512
2066.000000	19.621697
2065.000000	19.368684
2064.000000	19.289526
2063.000000	19.158585
2062.000000	19.011590
2061.000000	18.821081
2060.000000	18.635663
2059.000000	18.443753
2058.000000	18.256600
2057.000000	18.044434
2056.000000	17.950766
2055.000000	17.879559
2054.000000	17.683033
2053.000000	17.552524
2052.000000	17.393340
2051.000000	17.268959
2050.000000	17.115576
2049.000000	17.008638
2048.000000	16.973634
2047.000000	16.881835
2046.000000	16.728897
2045.000000	16.643104
2044.000000	16.680479
2043.000000	16.646774
2042.000000	16.657972
2041.000000	16.706813
2040.000000	16.703676
2039.000000	16.728830
2038.000000	16.798243
2037.000000	16.836170
2036.000000	16.909453
2035.000000	17.009049
2034.000000	17.106372
2033.000000	17.226513
2032.000000	17.364459
2031.000000	17.493373
2030.000000	17.591073
2029.000000	17.720459
2028.000000	17.851609
2027.000000	17.981418
2026.000000	18.142630
2025.000000	18.272060
2024.000000	18.329599
2023.000000	18.389460
2022.000000	18.458436
2021.000000	18.509858
2020.000000	18.557090
2019.000000	18.583616
2018.000000	18.651271
2017.000000	18.678193
2016.000000	18.671566
2015.000000	18.678277
2014.000000	18.643431
2013.000000	18.618118
2012.000000	18.616250
2011.000000	18.561944
2010.000000	18.470145
2009.000000	18.392630
2008.000000	18.315077
2007.000000	18.269674
2006.000000	18.180895
2005.000000	18.066936
2004.000000	17.967543
2003.000000	17.879684
2002.000000	17.787309
2001.000000	17.691892
2000.000000	17.603700
1999.000000	17.489797
1998.000000	17.375594
1997.000000	17.256111
1996.000000	17.172223
1995.000000	17.087980
1994.000000	16.920455
1993.000000	16.777815
1992.000000	16.635946
1991.000000	16.524770
1990.000000	16.418476
1989.000000	16.336946
1988.000000	16.241845
1987.000000	16.093907
1986.000000	15.967295
1985.000000	15.867316
1984.000000	15.767304
1983.000000	15.660318
1982.000000	15.527919
1981.000000	15.447809
1980.000000	15.294759
1979.000000	15.181380
1978.000000	15.087814
1977.000000	14.970607
1976.000000	14.868843
1975.000000	14.783091
1974.000000	14.639803
1973.000000	14.504650
1972.000000	14.415243
1971.000000	14.327976
1970.000000	14.229564
1969.000000	14.139936
1968.000000	14.051417
1967.000000	13.976267
1966.000000	13.883840
1965.000000	13.789826
1964.000000	13.669110
1963.000000	13.578666
1962.000000	13.469121
1961.000000	13.387211
1960.000000	13.311951
1959.000000	13.222430
1958.000000	13.198035
1957.000000	13.104606
1956.000000	13.041021
1955.000000	12.977022
1954.000000	12.888541
1953.000000	12.882660
1952.000000	12.824043
1951.000000	12.821592
1950.000000	12.756570
1949.000000	12.685899
1948.000000	12.707153
1947.000000	12.607665
1946.000000	12.689999
1945.000000	12.710681
1944.000000	12.659522
1943.000000	12.729935
1942.000000	12.788391
1941.000000	12.831325
1940.000000	12.931224
1939.000000	13.004553
1938.000000	13.084314
1937.000000	13.176373
1936.000000	13.248576
1935.000000	13.417207
1934.000000	13.567937
1933.000000	13.673304
1932.000000	13.827304
1931.000000	13.975243
1930.000000	14.206498
1929.000000	14.318296
1928.000000	14.550084
1927.000000	14.839706
1926.000000	15.069475
1925.000000	15.285205
1924.000000	15.568689
1923.000000	15.875355
1922.000000	16.244823
1921.000000	16.576950
1920.000000	16.801903
1919.000000	17.185501
1918.000000	17.447636
1917.000000	17.858200
1916.000000	18.158776
1915.000000	18.545845
1914.000000	19.058950
1913.000000	19.503423
1912.000000	19.822894
1911.000000	20.246336
1910.000000	20.692481
1909.000000	21.173447
1908.000000	21.514692
1907.000000	22.105607
1906.000000	22.639436
1905.000000	23.124778
1904.000000	23.668722
1903.000000	24.233204
1902.000000	24.752565
1901.000000	25.275413
1900.000000	25.794774
1899.000000	26.317770
1898.000000	26.858185
1897.000000	27.368674
1896.000000	27.877976
1895.000000	28.494169
1894.000000	28.983351
1893.000000	29.498150
1892.000000	30.023686
1891.000000	30.496346
1890.000000	31.005878
1889.000000	31.488346
1888.000000	31.958717
1887.000000	32.346447
1886.000000	32.817188
1885.000000	33.241075
1884.000000	33.639076
1883.000000	34.023335
1882.000000	34.405318
1881.000000	34.750613
1880.000000	35.151354
1879.000000	35.489040
1878.000000	35.790506
1877.000000	36.132453
1876.000000	36.435622
1875.000000	36.709410
1874.000000	36.964497
1873.000000	37.213826
1872.000000	37.434985
1871.000000	37.637955
1870.000000	37.793953
1869.000000	37.988853
1868.000000	38.156574
1867.000000	38.266211
1866.000000	38.389138
1865.000000	38.495486
1864.000000	38.589270
1863.000000	38.682470
1862.000000	38.773641
1861.000000	38.829789
1860.000000	38.869569
1859.000000	38.915996
1858.000000	38.955138
1857.000000	38.982479
1856.000000	39.038433
1855.000000	39.109727
1854.000000	39.130338
1853.000000	39.169102
1852.000000	39.174293
1851.000000	39.200435
1850.000000	39.184176
1849.000000	39.191570
1848.000000	39.188410
1847.000000	39.219072
1846.000000	39.186434
1845.000000	39.143951
1844.000000	39.129747
1843.000000	39.101636
1842.000000	39.049622
1841.000000	39.000654
1840.000000	38.976505
1839.000000	38.944910
1838.000000	38.905296
1837.000000	38.832568
1836.000000	38.774329
1835.000000	38.714858
1834.000000	38.663934
1833.000000	38.620917
1832.000000	38.552603
1831.000000	38.492527
1830.000000	38.450675
1829.000000	38.403180
1828.000000	38.351678
1827.000000	38.300199
1826.000000	38.268022
1825.000000	38.221096
1824.000000	38.160815
1823.000000	38.101658
1822.000000	38.058138
1821.000000	38.011625
1820.000000	37.959766
1819.000000	37.932600
1818.000000	37.901059
1817.000000	37.841474
1816.000000	37.771927
1815.000000	37.740169
1814.000000	37.720140
1813.000000	37.676328
1812.000000	37.609994
1811.000000	37.563852
1810.000000	37.538438
1809.000000	37.508563
1808.000000	37.460429
1807.000000	37.400183
1806.000000	37.360861
1805.000000	37.339750
1804.000000	37.301929
1803.000000	37.257099
1802.000000	37.214946
1801.000000	37.163336
1800.000000	37.118188
1799.000000	37.094043
1798.000000	37.065761
1797.000000	37.031794
1796.000000	37.004180
1795.000000	36.983425
1794.000000	36.964258
1793.000000	36.927344
1792.000000	36.894145
1791.000000	36.867635
1790.000000	36.846700
1789.000000	36.825043
1788.000000	36.809561
1787.000000	36.759561
1786.000000	36.740280
1785.000000	36.739092
1784.000000	36.687887
1783.000000	36.646681
1782.000000	36.593230
1781.000000	36.547088
1780.000000	36.538379
1779.000000	36.494398
1778.000000	36.430271
1777.000000	36.378071
1776.000000	36.326089
1775.000000	36.254141
1774.000000	36.199250
1773.000000	36.158731
1772.000000	36.088876
1771.000000	35.998100
1770.000000	35.959241
1769.000000	35.893542
1768.000000	35.815473
1767.000000	35.763355
1766.000000	35.713196
1765.000000	35.653681
1764.000000	35.603896
1763.000000	35.529498
1762.000000	35.474714
1761.000000	35.397409
1760.000000	35.313870
1759.000000	35.262851
1758.000000	35.206491
1757.000000	35.125918
1756.000000	35.088686
1755.000000	35.024625
1754.000000	34.961047
1753.000000	34.893862
1752.000000	34.842791
1751.000000	34.791210
1750.000000	34.725125
1749.000000	34.648679
1748.000000	34.575191
1747.000000	34.514354
1746.000000	34.443735
1745.000000	34.380270
1744.000000	34.304889
1743.000000	34.246662
1742.000000	34.177541
1741.000000	34.124229
1740.000000	34.050663
1739.000000	34.005263
1738.000000	33.950163
1737.000000	33.889785
1736.000000	33.863857
1735.000000	33.858106
1734.000000	33.852248
1733.000000	33.814525
1732.000000	33.794193
1731.000000	33.834210
1730.000000	33.847909
1729.000000	33.887154
1728.000000	33.912437
1727.000000	33.958255
1726.000000	34.021124
1725.000000	34.097023
1724.000000	34.195682
1723.000000	34.264089
1722.000000	34.348188
1721.000000	34.484652
1720.000000	34.550424
1719.000000	34.642024
1718.000000	34.758348
1717.000000	34.847021
1716.000000	34.955308
1715.000000	35.028546
1714.000000	35.154343
1713.000000	35.224686
1712.000000	35.301110
1711.000000	35.376533
1710.000000	35.428445
1709.000000	35.496219
1708.000000	35.563669
1707.000000	35.582468
1706.000000	35.620466
1705.000000	35.650600
1704.000000	35.705723
1703.000000	35.705092
1702.000000	35.720444
1701.000000	35.721963
1700.000000	35.743031
1699.000000	35.737548
1698.000000	35.808258
1697.000000	35.816246
1696.000000	35.842189
1695.000000	35.870091
1694.000000	35.927498
1693.000000	35.957794
1692.000000	36.027725
1691.000000	36.085667
1690.000000	36.188599
1689.000000	36.270697
1688.000000	36.390532
1687.000000	36.525134
1686.000000	36.664014
1685.000000	36.788037
1684.000000	36.961814
1683.000000	37.107675
1682.000000	37.280107
1681.000000	37.468485
1680.000000	37.640151
1679.000000	37.838882
1678.000000	38.042898
1677.000000	38.209576
1676.000000	38.425413
1675.000000	38.627310
1674.000000	38.820971
1673.000000	38.996095
1672.000000	39.166917
1671.000000	39.356721
1670.000000	39.532635
1669.000000	39.718115
1668.000000	39.849092
1667.000000	40.021134
1666.000000	40.118596
1665.000000	40.237257
1664.000000	40.340269
1663.000000	40.421781
1662.000000	40.531337
1661.000000	40.608738
1660.000000	40.686836
1659.000000	40.755843
1658.000000	40.795477
1657.000000	40.833220
1656.000000	40.871392
1655.000000	40.894030
1654.000000	40.919479
1653.000000	40.933164
1652.000000	40.956707
1651.000000	40.945444
1650.000000	40.935540
1649.000000	40.916438
1648.000000	40.924100
1647.000000	40.895960
1646.000000	40.878791
1645.000000	40.841605
1644.000000	40.814904
1643.000000	40.794413
1642.000000	40.756807
1641.000000	40.717956
1640.000000	40.684754
1639.000000	40.659078
1638.000000	40.624139
1637.000000	40.580467
1636.000000	40.519904
1635.000000	40.469576
1634.000000	40.428284
1633.000000	40.369428
1632.000000	40.336041
1631.000000	40.283840
1630.000000	40.215248
1629.000000	40.155872
1628.000000	40.093655
1627.000000	40.029197
1626.000000	39.960848
1625.000000	39.912064
1624.000000	39.865859
1623.000000	39.818372
1622.000000	39.744762
1621.000000	39.674519
1620.000000	39.612354
1619.000000	39.539078
1618.000000	39.476553
1617.000000	39.410336
1616.000000	39.343966
1615.000000	39.276022
1614.000000	39.197907
1613.000000	39.127683
1612.000000	39.061456
1611.000000	38.986166
1610.000000	38.914250
1609.000000	38.848662
1608.000000	38.773885
1607.000000	38.697369
1606.000000	38.619627
1605.000000	38.528456
1604.000000	38.445730
1603.000000	38.367287
1602.000000	38.294221
1601.000000	38.226126
1600.000000	38.156122
1599.000000	38.087758
1598.000000	38.007308
1597.000000	37.924457
1596.000000	37.854575
1595.000000	37.797268
1594.000000	37.734132
1593.000000	37.664490
1592.000000	37.602567
1591.000000	37.547485
1590.000000	37.485064
1589.000000	37.416442
1588.000000	37.348480
1587.000000	37.287354
1586.000000	37.228433
1585.000000	37.172220
1584.000000	37.112902
1583.000000	37.056602
1582.000000	37.011869
1581.000000	36.950187
1580.000000	36.890540
1579.000000	36.843260
1578.000000	36.793222
1577.000000	36.734638
1576.000000	36.665597
1575.000000	36.605728
1574.000000	36.544964
1573.000000	36.480887
1572.000000	36.437949
1571.000000	36.378531
1570.000000	36.327798
1569.000000	36.274508
1568.000000	36.231479
1567.000000	36.194601
1566.000000	36.137727
1565.000000	36.094834
1564.000000	36.065975
1563.000000	36.035525
1562.000000	35.987665
1561.000000	35.963972
1560.000000	35.930768
1559.000000	35.887441
1558.000000	35.853338
1557.000000	35.829245
1556.000000	35.800145
1555.000000	35.778044
1554.000000	35.736769
1553.000000	35.702057
1552.000000	35.658463
1551.000000	35.610137
1550.000000	35.567743
1549.000000	35.523065
1548.000000	35.481473
1547.000000	35.408136
1546.000000	35.327328
1545.000000	35.262494
1544.000000	35.179559
1543.000000	35.103133
1542.000000	35.014788
1541.000000	34.933840
1540.000000	34.844136
1539.000000	34.741584
1538.000000	34.651019
1537.000000	34.544155
1536.000000	34.444590
1535.000000	34.340089
1534.000000	34.227342
1533.000000	34.139110
1532.000000	34.048283
1531.000000	33.972082
1530.000000	33.914343
1529.000000	33.857483
1528.000000	33.795666
1527.000000	33.741887
1526.000000	33.651309
1525.000000	33.547062
1524.000000	33.471725
1523.000000	33.381873
1522.000000	33.324364
1521.000000	33.299353
1520.000000	33.266690
1519.000000	33.197626
1518.000000	33.134128
1517.000000	33.074831
1516.000000	33.003603
1515.000000	32.975435
1514.000000	32.957278
1513.000000	32.931477
1512.000000	32.872104
1511.000000	32.832147
1510.000000	32.823884
1509.000000	32.805246
1508.000000	32.756605
1507.000000	32.733658
1506.000000	32.707549
1505.000000	32.678196
1504.000000	32.652570
1503.000000	32.637208
1502.000000	32.624058
1501.000000	32.619183
1500.000000	32.599418
1499.000000	32.592192
1498.000000	32.590464
1497.000000	32.584358
1496.000000	32.592146
1495.000000	32.592921
1494.000000	32.604229
1493.000000	32.618680
1492.000000	32.636229
1491.000000	32.665948
1490.000000	32.688884
1489.000000	32.725262
1488.000000	32.769723
1487.000000	32.795501
1486.000000	32.836192
1485.000000	32.877899
1484.000000	32.916354
1483.000000	32.984531
1482.000000	33.021628
1481.000000	33.082323
1480.000000	33.126140
1479.000000	33.172691
1478.000000	33.211491
1477.000000	33.269223
1476.000000	33.311105
1475.000000	33.371666
1474.000000	33.411868
1473.000000	33.461874
1472.000000	33.498657
1471.000000	33.536244
1470.000000	33.574810
