PE UV       SUBTECH     SPECTRUM    ASCII       PEDS        4.00        
   -1
TTgVeauUK 42.Sample.asc
18/03/08
09:47:58.00
18/03/08
09:47:58.00
Administrator

200.000000
1
Lambda 750
750N8071901
PerkinElmer UV WinLab 6.0.4.0738 / 1.61.00 Lambda 900

0
0
3350/servo 860.8/2
0
0
UV/VIS
1
1
1
CommonBeamDepol,150mm sphere / downward view
0
0
0
0
Program
Program
3350/servo 860.8/2
3350/0.2 860.8/0.2
3350/0.2 860.8/0.2
0
1
 
 
 
0
 
860.8
319.2
860.8
Front
100
on
 
 
0
0
0
 
0
 
 
 
0
 
 
0
0
0
0
0
 
 
 
 
0
0


0
0
#HDR
-1
-1
#GR
nm
%T
1.0
0.0
2350.000000
-1.000000
2151
8
56.074767
0.134041
#DATA
2350.000000	17.225807
2349.000000	17.156608
2348.000000	17.413498
2347.000000	17.937043
2346.000000	17.498510
2345.000000	17.371906
2344.000000	17.238774
2343.000000	17.217803
2342.000000	17.037120
2341.000000	17.260502
2340.000000	17.333720
2339.000000	17.836787
2338.000000	17.754601
2337.000000	17.707209
2336.000000	17.578587
2335.000000	17.955320
2334.000000	18.130205
2333.000000	18.096164
2332.000000	18.286939
2331.000000	18.131315
2330.000000	17.992159
2329.000000	17.917016
2328.000000	17.731427
2327.000000	17.970614
2326.000000	17.747705
2325.000000	17.850865
2324.000000	17.792151
2323.000000	17.777683
2322.000000	17.750851
2321.000000	17.829927
2320.000000	17.740097
2319.000000	17.742322
2318.000000	17.645250
2317.000000	17.637044
2316.000000	17.312988
2315.000000	17.240235
2314.000000	17.174065
2313.000000	17.290817
2312.000000	17.028317
2311.000000	16.962706
2310.000000	17.029499
2309.000000	16.881355
2308.000000	16.868304
2307.000000	16.837947
2306.000000	16.778764
2305.000000	16.490971
2304.000000	16.461804
2303.000000	16.326545
2302.000000	16.239151
2301.000000	16.090678
2300.000000	15.928516
2299.000000	15.668771
2298.000000	15.718694
2297.000000	15.565710
2296.000000	15.658328
2295.000000	15.454411
2294.000000	15.352385
2293.000000	15.165864
2292.000000	15.157132
2291.000000	15.061219
2290.000000	14.944106
2289.000000	15.018072
2288.000000	15.034973
2287.000000	14.857005
2286.000000	14.666032
2285.000000	14.662011
2284.000000	14.728550
2283.000000	14.620008
2282.000000	14.714929
2281.000000	14.886002
2280.000000	14.782896
2279.000000	14.780423
2278.000000	14.830467
2277.000000	14.792276
2276.000000	14.826097
2275.000000	14.806336
2274.000000	14.842942
2273.000000	14.960044
2272.000000	14.991129
2271.000000	15.063026
2270.000000	15.122148
2269.000000	15.117002
2268.000000	15.196000
2267.000000	15.276458
2266.000000	15.432959
2265.000000	15.596956
2264.000000	15.679727
2263.000000	15.796741
2262.000000	16.024000
2261.000000	16.198669
2260.000000	16.363005
2259.000000	16.649324
2258.000000	16.888787
2257.000000	17.115780
2256.000000	17.182211
2255.000000	17.381224
2254.000000	17.614859
2253.000000	17.842797
2252.000000	18.201173
2251.000000	18.451187
2250.000000	18.661225
2249.000000	19.007707
2248.000000	19.199568
2247.000000	19.461352
2246.000000	19.703444
2245.000000	19.956795
2244.000000	20.223182
2243.000000	20.376073
2242.000000	20.539596
2241.000000	20.770377
2240.000000	21.043550
2239.000000	21.097252
2238.000000	21.161342
2237.000000	21.264231
2236.000000	21.371651
2235.000000	21.593682
2234.000000	21.723768
2233.000000	21.732383
2232.000000	21.791546
2231.000000	21.912801
2230.000000	21.936663
2229.000000	22.038998
2228.000000	22.096798
2227.000000	22.048776
2226.000000	21.972269
2225.000000	21.962999
2224.000000	21.938263
2223.000000	21.934393
2222.000000	21.798035
2221.000000	21.801358
2220.000000	21.809457
2219.000000	21.819734
2218.000000	21.771757
2217.000000	21.718019
2216.000000	21.626379
2215.000000	21.527787
2214.000000	21.474511
2213.000000	21.458476
2212.000000	21.428550
2211.000000	21.305232
2210.000000	21.219877
2209.000000	21.196845
2208.000000	20.978340
2207.000000	20.913593
2206.000000	20.887730
2205.000000	20.815574
2204.000000	20.736762
2203.000000	20.541406
2202.000000	20.605333
2201.000000	20.344112
2200.000000	20.302505
2199.000000	20.304860
2198.000000	20.123336
2197.000000	19.994346
2196.000000	19.925075
2195.000000	19.853568
2194.000000	19.847388
2193.000000	19.611354
2192.000000	19.487093
2191.000000	19.472479
2190.000000	19.354247
2189.000000	19.214123
2188.000000	19.179742
2187.000000	19.095644
2186.000000	19.039954
2185.000000	19.006919
2184.000000	19.033210
2183.000000	18.878635
2182.000000	18.781268
2181.000000	18.750013
2180.000000	18.804607
2179.000000	18.671748
2178.000000	18.564327
2177.000000	18.665717
2176.000000	18.615509
2175.000000	18.718587
2174.000000	18.693617
2173.000000	18.493517
2172.000000	18.728076
2171.000000	18.936465
2170.000000	18.847805
2169.000000	19.142164
2168.000000	19.085537
2167.000000	19.114337
2166.000000	19.039901
2165.000000	19.256066
2164.000000	19.498773
2163.000000	19.648480
2162.000000	19.725913
2161.000000	19.822413
2160.000000	19.959071
2159.000000	19.963884
2158.000000	20.209971
2157.000000	20.370585
2156.000000	20.459228
2155.000000	20.641231
2154.000000	20.914475
2153.000000	21.076560
2152.000000	21.286328
2151.000000	21.460412
2150.000000	21.477118
2149.000000	21.607275
2148.000000	21.944259
2147.000000	22.010433
2146.000000	22.268283
2145.000000	22.380897
2144.000000	22.499740
2143.000000	22.642149
2142.000000	22.837180
2141.000000	23.105285
2140.000000	23.055740
2139.000000	23.336644
2138.000000	23.433620
2137.000000	23.557203
2136.000000	23.624257
2135.000000	23.777386
2134.000000	23.997086
2133.000000	23.843109
2132.000000	24.294050
2131.000000	24.293459
2130.000000	24.388357
2129.000000	24.210338
2128.000000	24.403170
2127.000000	24.544171
2126.000000	24.704403
2125.000000	24.646850
2124.000000	24.751140
2123.000000	24.715313
2122.000000	24.746484
2121.000000	24.821305
2120.000000	24.919032
2119.000000	24.909979
2118.000000	24.991119
2117.000000	25.187173
2116.000000	25.241512
2115.000000	25.262948
2114.000000	25.193340
2113.000000	25.222916
2112.000000	25.168338
2111.000000	25.292870
2110.000000	25.185023
2109.000000	25.356681
2108.000000	25.294069
2107.000000	25.297369
2106.000000	25.316782
2105.000000	25.309765
2104.000000	25.326471
2103.000000	25.439152
2102.000000	25.420552
2101.000000	25.471061
2100.000000	25.569971
2099.000000	25.549966
2098.000000	25.398169
2097.000000	25.359101
2096.000000	25.399937
2095.000000	25.329405
2094.000000	25.316383
2093.000000	25.358209
2092.000000	25.312214
2091.000000	25.365391
2090.000000	25.276642
2089.000000	25.445581
2088.000000	25.329083
2087.000000	25.257503
2086.000000	25.204796
2085.000000	25.149037
2084.000000	25.084954
2083.000000	24.980267
2082.000000	24.877253
2081.000000	24.810735
2080.000000	24.706306
2079.000000	24.659038
2078.000000	24.574607
2077.000000	24.447293
2076.000000	24.293489
2075.000000	24.100001
2074.000000	23.990716
2073.000000	23.880256
2072.000000	23.732755
2071.000000	23.646754
2070.000000	23.509234
2069.000000	23.279754
2068.000000	23.072421
2067.000000	22.886954
2066.000000	22.750814
2065.000000	22.563197
2064.000000	22.387080
2063.000000	22.162220
2062.000000	22.002719
2061.000000	21.784989
2060.000000	21.636221
2059.000000	21.492572
2058.000000	21.289612
2057.000000	21.093214
2056.000000	20.937802
2055.000000	20.817909
2054.000000	20.613831
2053.000000	20.406207
2052.000000	20.212246
2051.000000	20.036112
2050.000000	19.926817
2049.000000	19.832955
2048.000000	19.752060
2047.000000	19.655852
2046.000000	19.515374
2045.000000	19.432078
2044.000000	19.441833
2043.000000	19.431537
2042.000000	19.434925
2041.000000	19.481149
2040.000000	19.503652
2039.000000	19.523218
2038.000000	19.549902
2037.000000	19.623784
2036.000000	19.715789
2035.000000	19.822855
2034.000000	19.956335
2033.000000	20.100286
2032.000000	20.282255
2031.000000	20.364027
2030.000000	20.498933
2029.000000	20.699111
2028.000000	20.814522
2027.000000	20.924942
2026.000000	21.075079
2025.000000	21.223461
2024.000000	21.344756
2023.000000	21.465005
2022.000000	21.515734
2021.000000	21.544093
2020.000000	21.600424
2019.000000	21.662380
2018.000000	21.721456
2017.000000	21.714845
2016.000000	21.722153
2015.000000	21.738817
2014.000000	21.714113
2013.000000	21.666876
2012.000000	21.611472
2011.000000	21.611858
2010.000000	21.572193
2009.000000	21.480508
2008.000000	21.412151
2007.000000	21.311624
2006.000000	21.189716
2005.000000	21.120703
2004.000000	21.023797
2003.000000	20.904657
2002.000000	20.801327
2001.000000	20.671650
2000.000000	20.521747
1999.000000	20.407168
1998.000000	20.297820
1997.000000	20.204926
1996.000000	20.062839
1995.000000	19.929151
1994.000000	19.789700
1993.000000	19.664399
1992.000000	19.524321
1991.000000	19.384889
1990.000000	19.252288
1989.000000	19.118356
1988.000000	18.982806
1987.000000	18.851410
1986.000000	18.684351
1985.000000	18.579677
1984.000000	18.460463
1983.000000	18.338458
1982.000000	18.234090
1981.000000	18.081676
1980.000000	17.941289
1979.000000	17.809818
1978.000000	17.672186
1977.000000	17.552944
1976.000000	17.439627
1975.000000	17.276935
1974.000000	17.155829
1973.000000	17.069610
1972.000000	16.978069
1971.000000	16.853758
1970.000000	16.684865
1969.000000	16.623377
1968.000000	16.510469
1967.000000	16.391868
1966.000000	16.289829
1965.000000	16.196817
1964.000000	16.041979
1963.000000	15.912008
1962.000000	15.846820
1961.000000	15.715161
1960.000000	15.617442
1959.000000	15.570348
1958.000000	15.464991
1957.000000	15.342486
1956.000000	15.302740
1955.000000	15.194366
1954.000000	15.114943
1953.000000	15.093728
1952.000000	15.029128
1951.000000	15.029825
1950.000000	14.986043
1949.000000	14.912777
1948.000000	14.890696
1947.000000	14.861473
1946.000000	14.857696
1945.000000	14.858913
1944.000000	14.869656
1943.000000	14.886723
1942.000000	14.996426
1941.000000	14.953206
1940.000000	15.054167
1939.000000	15.173771
1938.000000	15.272116
1937.000000	15.407773
1936.000000	15.583497
1935.000000	15.713414
1934.000000	15.720270
1933.000000	16.005602
1932.000000	16.199304
1931.000000	16.356091
1930.000000	16.612098
1929.000000	16.771001
1928.000000	17.035046
1927.000000	17.342606
1926.000000	17.599528
1925.000000	17.907195
1924.000000	18.190624
1923.000000	18.571960
1922.000000	18.850178
1921.000000	19.247371
1920.000000	19.501494
1919.000000	19.959488
1918.000000	20.320980
1917.000000	20.738532
1916.000000	21.028575
1915.000000	21.580142
1914.000000	22.024347
1913.000000	22.493758
1912.000000	22.889513
1911.000000	23.410038
1910.000000	23.909211
1909.000000	24.403807
1908.000000	24.957135
1907.000000	25.507297
1906.000000	26.016200
1905.000000	26.647458
1904.000000	27.168583
1903.000000	27.754889
1902.000000	28.297093
1901.000000	28.886085
1900.000000	29.434885
1899.000000	30.052545
1898.000000	30.701853
1897.000000	31.266427
1896.000000	31.796566
1895.000000	32.363126
1894.000000	32.880197
1893.000000	33.470977
1892.000000	34.037438
1891.000000	34.536744
1890.000000	35.101093
1889.000000	35.562043
1888.000000	36.042067
1887.000000	36.495649
1886.000000	36.957373
1885.000000	37.404868
1884.000000	37.847407
1883.000000	38.304273
1882.000000	38.685010
1881.000000	39.067130
1880.000000	39.427514
1879.000000	39.774879
1878.000000	40.131934
1877.000000	40.429896
1876.000000	40.720950
1875.000000	41.051439
1874.000000	41.320232
1873.000000	41.594438
1872.000000	41.770986
1871.000000	42.022830
1870.000000	42.214574
1869.000000	42.402543
1868.000000	42.583261
1867.000000	42.716225
1866.000000	42.807615
1865.000000	42.912068
1864.000000	43.014447
1863.000000	43.117883
1862.000000	43.170058
1861.000000	43.265326
1860.000000	43.320870
1859.000000	43.378727
1858.000000	43.425039
1857.000000	43.501248
1856.000000	43.548206
1855.000000	43.563120
1854.000000	43.585550
1853.000000	43.636292
1852.000000	43.649449
1851.000000	43.629243
1850.000000	43.611445
1849.000000	43.652420
1848.000000	43.640369
1847.000000	43.680491
1846.000000	43.643811
1845.000000	43.601724
1844.000000	43.622391
1843.000000	43.572476
1842.000000	43.541167
1841.000000	43.492544
1840.000000	43.452826
1839.000000	43.433435
1838.000000	43.357797
1837.000000	43.279000
1836.000000	43.231988
1835.000000	43.183915
1834.000000	43.134222
1833.000000	43.101694
1832.000000	43.052051
1831.000000	42.999242
1830.000000	42.940075
1829.000000	42.882118
1828.000000	42.808299
1827.000000	42.747836
1826.000000	42.708734
1825.000000	42.655668
1824.000000	42.607526
1823.000000	42.574203
1822.000000	42.535835
1821.000000	42.479888
1820.000000	42.437784
1819.000000	42.393891
1818.000000	42.346115
1817.000000	42.298779
1816.000000	42.252013
1815.000000	42.217572
1814.000000	42.180064
1813.000000	42.126313
1812.000000	42.068288
1811.000000	42.014874
1810.000000	41.977810
1809.000000	41.941913
1808.000000	41.896434
1807.000000	41.844408
1806.000000	41.797045
1805.000000	41.754419
1804.000000	41.705542
1803.000000	41.662769
1802.000000	41.630615
1801.000000	41.590000
1800.000000	41.539184
1799.000000	41.512013
1798.000000	41.482313
1797.000000	41.450157
1796.000000	41.416030
1795.000000	41.357922
1794.000000	41.331253
1793.000000	41.318378
1792.000000	41.280887
1791.000000	41.268917
1790.000000	41.246090
1789.000000	41.193434
1788.000000	41.147045
1787.000000	41.129383
1786.000000	41.113665
1785.000000	41.085334
1784.000000	41.038080
1783.000000	40.990667
1782.000000	40.947739
1781.000000	40.909373
1780.000000	40.869245
1779.000000	40.826607
1778.000000	40.767259
1777.000000	40.697244
1776.000000	40.662322
1775.000000	40.624062
1774.000000	40.545019
1773.000000	40.499350
1772.000000	40.421185
1771.000000	40.343335
1770.000000	40.291016
1769.000000	40.225032
1768.000000	40.145668
1767.000000	40.102533
1766.000000	40.041698
1765.000000	39.969958
1764.000000	39.929638
1763.000000	39.838049
1762.000000	39.769442
1761.000000	39.727358
1760.000000	39.661944
1759.000000	39.585143
1758.000000	39.519514
1757.000000	39.463374
1756.000000	39.402431
1755.000000	39.339398
1754.000000	39.281083
1753.000000	39.221234
1752.000000	39.152179
1751.000000	39.076451
1750.000000	39.001608
1749.000000	38.950477
1748.000000	38.869453
1747.000000	38.801232
1746.000000	38.735213
1745.000000	38.631347
1744.000000	38.572647
1743.000000	38.518252
1742.000000	38.453878
1741.000000	38.387927
1740.000000	38.324329
1739.000000	38.272120
1738.000000	38.235151
1737.000000	38.165866
1736.000000	38.144346
1735.000000	38.130325
1734.000000	38.121596
1733.000000	38.095427
1732.000000	38.083181
1731.000000	38.107634
1730.000000	38.113962
1729.000000	38.132988
1728.000000	38.180960
1727.000000	38.246076
1726.000000	38.278429
1725.000000	38.385419
1724.000000	38.490951
1723.000000	38.560282
1722.000000	38.643986
1721.000000	38.787582
1720.000000	38.881494
1719.000000	38.997379
1718.000000	39.076002
1717.000000	39.191787
1716.000000	39.300989
1715.000000	39.371915
1714.000000	39.484176
1713.000000	39.553466
1712.000000	39.649595
1711.000000	39.735181
1710.000000	39.806201
1709.000000	39.836431
1708.000000	39.903898
1707.000000	39.949045
1706.000000	40.014967
1705.000000	40.014845
1704.000000	40.063673
1703.000000	40.070086
1702.000000	40.080727
1701.000000	40.087593
1700.000000	40.111497
1699.000000	40.114122
1698.000000	40.147288
1697.000000	40.181855
1696.000000	40.226517
1695.000000	40.231934
1694.000000	40.239652
1693.000000	40.332888
1692.000000	40.392085
1691.000000	40.444153
1690.000000	40.531739
1689.000000	40.657676
1688.000000	40.740564
1687.000000	40.869759
1686.000000	41.006797
1685.000000	41.143451
1684.000000	41.317516
1683.000000	41.464538
1682.000000	41.677401
1681.000000	41.855486
1680.000000	42.058704
1679.000000	42.260173
1678.000000	42.460403
1677.000000	42.646190
1676.000000	42.838478
1675.000000	43.044736
1674.000000	43.251201
1673.000000	43.437608
1672.000000	43.629722
1671.000000	43.817072
1670.000000	43.999593
1669.000000	44.169537
1668.000000	44.299935
1667.000000	44.473493
1666.000000	44.595482
1665.000000	44.701604
1664.000000	44.800998
1663.000000	44.881311
1662.000000	45.009446
1661.000000	45.086124
1660.000000	45.140730
1659.000000	45.228031
1658.000000	45.285912
1657.000000	45.323783
1656.000000	45.365634
1655.000000	45.392426
1654.000000	45.409058
1653.000000	45.440264
1652.000000	45.441797
1651.000000	45.420704
1650.000000	45.423954
1649.000000	45.413287
1648.000000	45.405610
1647.000000	45.401975
1646.000000	45.365406
1645.000000	45.346201
1644.000000	45.330342
1643.000000	45.306660
1642.000000	45.265565
1641.000000	45.231980
1640.000000	45.176259
1639.000000	45.145968
1638.000000	45.132084
1637.000000	45.086800
1636.000000	45.027863
1635.000000	44.982217
1634.000000	44.937750
1633.000000	44.883725
1632.000000	44.831024
1631.000000	44.776602
1630.000000	44.718844
1629.000000	44.678983
1628.000000	44.599158
1627.000000	44.526350
1626.000000	44.464310
1625.000000	44.409960
1624.000000	44.364999
1623.000000	44.308460
1622.000000	44.232965
1621.000000	44.159918
1620.000000	44.105493
1619.000000	44.046078
1618.000000	43.966056
1617.000000	43.889809
1616.000000	43.825525
1615.000000	43.767660
1614.000000	43.678249
1613.000000	43.597470
1612.000000	43.523773
1611.000000	43.445501
1610.000000	43.383175
1609.000000	43.311514
1608.000000	43.233510
1607.000000	43.151595
1606.000000	43.065168
1605.000000	42.979779
1604.000000	42.906672
1603.000000	42.829440
1602.000000	42.752671
1601.000000	42.672393
1600.000000	42.602136
1599.000000	42.525033
1598.000000	42.440140
1597.000000	42.364373
1596.000000	42.285082
1595.000000	42.226766
1594.000000	42.156802
1593.000000	42.088617
1592.000000	42.025777
1591.000000	41.950612
1590.000000	41.882879
1589.000000	41.816207
1588.000000	41.747940
1587.000000	41.690075
1586.000000	41.638728
1585.000000	41.580823
1584.000000	41.517964
1583.000000	41.458127
1582.000000	41.403359
1581.000000	41.348389
1580.000000	41.287193
1579.000000	41.225234
1578.000000	41.171051
1577.000000	41.108818
1576.000000	41.043021
1575.000000	40.982115
1574.000000	40.927268
1573.000000	40.876452
1572.000000	40.819616
1571.000000	40.756691
1570.000000	40.704410
1569.000000	40.650210
1568.000000	40.596423
1567.000000	40.549774
1566.000000	40.506548
1565.000000	40.463302
1564.000000	40.431539
1563.000000	40.407035
1562.000000	40.358403
1561.000000	40.319545
1560.000000	40.290036
1559.000000	40.257743
1558.000000	40.227375
1557.000000	40.197453
1556.000000	40.159667
1555.000000	40.133150
1554.000000	40.095892
1553.000000	40.057879
1552.000000	40.013384
1551.000000	39.978594
1550.000000	39.929471
1549.000000	39.876366
1548.000000	39.835229
1547.000000	39.774666
1546.000000	39.702195
1545.000000	39.621561
1544.000000	39.546666
1543.000000	39.467516
1542.000000	39.373602
1541.000000	39.285326
1540.000000	39.192316
1539.000000	39.085666
1538.000000	38.976545
1537.000000	38.877404
1536.000000	38.775709
1535.000000	38.678442
1534.000000	38.578567
1533.000000	38.461179
1532.000000	38.355139
1531.000000	38.269093
1530.000000	38.189264
1529.000000	38.143102
1528.000000	38.091026
1527.000000	38.041197
1526.000000	37.961197
1525.000000	37.874009
1524.000000	37.772472
1523.000000	37.663923
1522.000000	37.587519
1521.000000	37.512045
1520.000000	37.471303
1519.000000	37.441290
1518.000000	37.400914
1517.000000	37.332503
1516.000000	37.278216
1515.000000	37.208880
1514.000000	37.166221
1513.000000	37.140605
1512.000000	37.094152
1511.000000	37.075357
1510.000000	37.041849
1509.000000	37.009362
1508.000000	36.956784
1507.000000	36.929013
1506.000000	36.925626
1505.000000	36.922281
1504.000000	36.889116
1503.000000	36.877756
1502.000000	36.842635
1501.000000	36.816618
1500.000000	36.793076
1499.000000	36.769502
1498.000000	36.779438
1497.000000	36.781161
1496.000000	36.786766
1495.000000	36.795376
1494.000000	36.811875
1493.000000	36.834392
1492.000000	36.850330
1491.000000	36.876821
1490.000000	36.886925
1489.000000	36.931558
1488.000000	36.963491
1487.000000	36.993154
1486.000000	37.040993
1485.000000	37.093259
1484.000000	37.131662
1483.000000	37.197070
1482.000000	37.239749
1481.000000	37.312072
1480.000000	37.366444
1479.000000	37.407602
1478.000000	37.461909
1477.000000	37.506508
1476.000000	37.559059
1475.000000	37.618589
1474.000000	37.657227
1473.000000	37.711120
1472.000000	37.764354
1471.000000	37.813515
1470.000000	37.853283
