PE UV       SUBTECH     SPECTRUM    ASCII       PEDS        4.00        
   -1
TTgVeauAl 12.Sample.asc
18/03/08
10:18:52.00
18/03/08
10:18:52.00
Administrator

200.000000
1
Lambda 750
750N8071901
PerkinElmer UV WinLab 6.0.4.0738 / 1.61.00 Lambda 900

0
0
3350/servo 860.8/2
0
0
UV/VIS
1
1
1
CommonBeamDepol,150mm sphere / downward view
0
0
0
0
Program
Program
3350/servo 860.8/2
3350/0.2 860.8/0.2
3350/0.2 860.8/0.2
0
1
 
 
 
0
 
860.8
319.2
860.8
Front
100
on
 
 
0
0
0
 
0
 
 
 
0
 
 
0
0
0
0
0
 
 
 
 
0
0


0
0
#HDR
-1
-1
#GR
nm
%T
1.0
0.0
2350.000000
-1.000000
2151
8
38.302370
0.123481
#DATA
2350.000000	10.994781
2349.000000	10.971251
2348.000000	10.555924
2347.000000	11.156847
2346.000000	11.196411
2345.000000	10.791669
2344.000000	10.482527
2343.000000	10.700774
2342.000000	10.873768
2341.000000	10.692070
2340.000000	10.867060
2339.000000	11.245192
2338.000000	10.669641
2337.000000	11.090694
2336.000000	11.303651
2335.000000	11.360423
2334.000000	11.400551
2333.000000	11.547635
2332.000000	11.555831
2331.000000	11.475053
2330.000000	11.239863
2329.000000	11.336961
2328.000000	11.254219
2327.000000	11.340991
2326.000000	11.252581
2325.000000	11.199909
2324.000000	11.103285
2323.000000	11.291870
2322.000000	11.209018
2321.000000	11.260702
2320.000000	11.374207
2319.000000	11.262279
2318.000000	11.070378
2317.000000	11.202867
2316.000000	10.886282
2315.000000	10.969016
2314.000000	10.870096
2313.000000	10.790487
2312.000000	10.754263
2311.000000	10.722279
2310.000000	10.566846
2309.000000	10.607318
2308.000000	10.520562
2307.000000	10.558570
2306.000000	10.483585
2305.000000	10.517836
2304.000000	10.574875
2303.000000	10.506582
2302.000000	10.608007
2301.000000	10.311437
2300.000000	10.160932
2299.000000	10.198998
2298.000000	10.152911
2297.000000	10.173005
2296.000000	10.001574
2295.000000	9.887377
2294.000000	9.779591
2293.000000	9.687868
2292.000000	9.853199
2291.000000	9.698057
2290.000000	9.663563
2289.000000	9.542889
2288.000000	9.676828
2287.000000	9.773793
2286.000000	9.621109
2285.000000	9.475009
2284.000000	9.395420
2283.000000	9.380293
2282.000000	9.275161
2281.000000	9.393111
2280.000000	9.546897
2279.000000	9.692847
2278.000000	9.603315
2277.000000	9.635595
2276.000000	9.609605
2275.000000	9.643541
2274.000000	9.605286
2273.000000	9.567318
2272.000000	9.592997
2271.000000	9.670675
2270.000000	9.770029
2269.000000	9.848979
2268.000000	9.945260
2267.000000	9.889940
2266.000000	9.900196
2265.000000	9.870475
2264.000000	10.051541
2263.000000	10.316328
2262.000000	10.367685
2261.000000	10.443336
2260.000000	10.526673
2259.000000	10.631003
2258.000000	10.688827
2257.000000	10.715724
2256.000000	10.910116
2255.000000	11.069736
2254.000000	11.113332
2253.000000	11.182639
2252.000000	11.435407
2251.000000	11.630853
2250.000000	11.740675
2249.000000	11.858411
2248.000000	12.002918
2247.000000	12.109832
2246.000000	12.253639
2245.000000	12.541943
2244.000000	12.702280
2243.000000	12.699583
2242.000000	12.795494
2241.000000	12.945814
2240.000000	13.030988
2239.000000	13.104429
2238.000000	13.196932
2237.000000	13.277220
2236.000000	13.313255
2235.000000	13.374085
2234.000000	13.393647
2233.000000	13.458805
2232.000000	13.545458
2231.000000	13.526111
2230.000000	13.542212
2229.000000	13.584266
2228.000000	13.693539
2227.000000	13.771010
2226.000000	13.638792
2225.000000	13.590821
2224.000000	13.704342
2223.000000	13.683999
2222.000000	13.626041
2221.000000	13.594769
2220.000000	13.543203
2219.000000	13.474742
2218.000000	13.505187
2217.000000	13.495022
2216.000000	13.354724
2215.000000	13.345566
2214.000000	13.429310
2213.000000	13.477731
2212.000000	13.323765
2211.000000	13.153305
2210.000000	13.233865
2209.000000	13.238110
2208.000000	13.204770
2207.000000	13.050049
2206.000000	12.990557
2205.000000	12.952548
2204.000000	12.872598
2203.000000	12.807542
2202.000000	12.835766
2201.000000	12.755323
2200.000000	12.651448
2199.000000	12.521150
2198.000000	12.479143
2197.000000	12.518035
2196.000000	12.461732
2195.000000	12.410289
2194.000000	12.351160
2193.000000	12.221269
2192.000000	12.177546
2191.000000	12.012301
2190.000000	12.051071
2189.000000	12.081440
2188.000000	11.986452
2187.000000	11.989422
2186.000000	11.961823
2185.000000	12.119691
2184.000000	11.902096
2183.000000	11.872073
2182.000000	11.851546
2181.000000	11.663081
2180.000000	11.713793
2179.000000	11.677485
2178.000000	11.764284
2177.000000	11.810891
2176.000000	11.668477
2175.000000	11.703036
2174.000000	11.716508
2173.000000	11.719988
2172.000000	11.717548
2171.000000	11.801908
2170.000000	11.841160
2169.000000	12.024141
2168.000000	12.060298
2167.000000	12.175293
2166.000000	12.059092
2165.000000	12.025901
2164.000000	12.060050
2163.000000	12.217799
2162.000000	12.406782
2161.000000	12.285773
2160.000000	12.602903
2159.000000	12.637218
2158.000000	12.815543
2157.000000	12.806689
2156.000000	12.883052
2155.000000	12.905510
2154.000000	13.075455
2153.000000	13.161312
2152.000000	13.222670
2151.000000	13.256837
2150.000000	13.410462
2149.000000	13.313915
2148.000000	13.602533
2147.000000	13.697881
2146.000000	13.741213
2145.000000	13.849268
2144.000000	13.972294
2143.000000	14.125981
2142.000000	13.992556
2141.000000	14.102974
2140.000000	14.161674
2139.000000	14.331033
2138.000000	14.547165
2137.000000	14.539407
2136.000000	14.619501
2135.000000	14.606483
2134.000000	14.706813
2133.000000	14.665337
2132.000000	14.814307
2131.000000	15.064373
2130.000000	15.112124
2129.000000	15.072668
2128.000000	15.212647
2127.000000	15.051811
2126.000000	15.108622
2125.000000	15.213565
2124.000000	15.385353
2123.000000	15.340720
2122.000000	15.217435
2121.000000	15.381429
2120.000000	15.366247
2119.000000	15.408221
2118.000000	15.496316
2117.000000	15.617870
2116.000000	15.512281
2115.000000	15.403454
2114.000000	15.479947
2113.000000	15.286959
2112.000000	15.514048
2111.000000	15.363514
2110.000000	15.324046
2109.000000	15.472977
2108.000000	15.534440
2107.000000	15.547517
2106.000000	15.597538
2105.000000	15.646222
2104.000000	15.789899
2103.000000	15.704488
2102.000000	15.738597
2101.000000	15.761096
2100.000000	15.768495
2099.000000	15.742175
2098.000000	15.792065
2097.000000	15.775149
2096.000000	15.787690
2095.000000	15.711268
2094.000000	15.652752
2093.000000	15.626151
2092.000000	15.761048
2091.000000	15.769151
2090.000000	15.741226
2089.000000	15.585815
2088.000000	15.673731
2087.000000	15.650411
2086.000000	15.611334
2085.000000	15.566179
2084.000000	15.566038
2083.000000	15.575995
2082.000000	15.527551
2081.000000	15.344178
2080.000000	15.391261
2079.000000	15.327057
2078.000000	15.291085
2077.000000	15.169462
2076.000000	15.112618
2075.000000	15.036352
2074.000000	14.951835
2073.000000	14.926348
2072.000000	14.854220
2071.000000	14.731608
2070.000000	14.563172
2069.000000	14.431693
2068.000000	14.380885
2067.000000	14.270477
2066.000000	14.122113
2065.000000	14.011653
2064.000000	13.942895
2063.000000	13.883328
2062.000000	13.747270
2061.000000	13.620467
2060.000000	13.506967
2059.000000	13.402070
2058.000000	13.336081
2057.000000	13.224138
2056.000000	13.159704
2055.000000	13.032209
2054.000000	12.877846
2053.000000	12.800778
2052.000000	12.678341
2051.000000	12.535077
2050.000000	12.477808
2049.000000	12.431880
2048.000000	12.379462
2047.000000	12.374096
2046.000000	12.345007
2045.000000	12.266969
2044.000000	12.228738
2043.000000	12.266476
2042.000000	12.312740
2041.000000	12.361838
2040.000000	12.315152
2039.000000	12.280167
2038.000000	12.318752
2037.000000	12.346390
2036.000000	12.380912
2035.000000	12.479851
2034.000000	12.580438
2033.000000	12.685425
2032.000000	12.769629
2031.000000	12.832706
2030.000000	12.902235
2029.000000	12.994942
2028.000000	13.082635
2027.000000	13.149816
2026.000000	13.263231
2025.000000	13.359586
2024.000000	13.396029
2023.000000	13.433001
2022.000000	13.501726
2021.000000	13.584108
2020.000000	13.615960
2019.000000	13.620854
2018.000000	13.651662
2017.000000	13.664780
2016.000000	13.679889
2015.000000	13.689938
2014.000000	13.681702
2013.000000	13.698962
2012.000000	13.702301
2011.000000	13.665979
2010.000000	13.619547
2009.000000	13.550679
2008.000000	13.501650
2007.000000	13.430689
2006.000000	13.389896
2005.000000	13.352714
2004.000000	13.292902
2003.000000	13.217203
2002.000000	13.152632
2001.000000	13.092502
2000.000000	13.032089
1999.000000	12.959116
1998.000000	12.869595
1997.000000	12.831061
1996.000000	12.770983
1995.000000	12.702807
1994.000000	12.608458
1993.000000	12.493216
1992.000000	12.382132
1991.000000	12.326914
1990.000000	12.279036
1989.000000	12.211706
1988.000000	12.136045
1987.000000	12.077420
1986.000000	12.013068
1985.000000	11.913878
1984.000000	11.855794
1983.000000	11.765878
1982.000000	11.718233
1981.000000	11.686958
1980.000000	11.615904
1979.000000	11.513116
1978.000000	11.432558
1977.000000	11.374058
1976.000000	11.299190
1975.000000	11.221736
1974.000000	11.144098
1973.000000	11.102662
1972.000000	11.030712
1971.000000	10.969384
1970.000000	10.878662
1969.000000	10.824447
1968.000000	10.780001
1967.000000	10.704399
1966.000000	10.657794
1965.000000	10.619507
1964.000000	10.544196
1963.000000	10.475171
1962.000000	10.422551
1961.000000	10.340842
1960.000000	10.318849
1959.000000	10.236510
1958.000000	10.171971
1957.000000	10.119648
1956.000000	10.075069
1955.000000	10.045123
1954.000000	10.034560
1953.000000	9.954279
1952.000000	9.924407
1951.000000	9.914337
1950.000000	9.865673
1949.000000	9.862193
1948.000000	9.831229
1947.000000	9.806741
1946.000000	9.800345
1945.000000	9.771796
1944.000000	9.822115
1943.000000	9.828663
1942.000000	9.827016
1941.000000	9.839913
1940.000000	9.849481
1939.000000	9.949481
1938.000000	9.943799
1937.000000	10.012604
1936.000000	10.143165
1935.000000	10.222731
1934.000000	10.264568
1933.000000	10.310743
1932.000000	10.394738
1931.000000	10.505461
1930.000000	10.593991
1929.000000	10.689335
1928.000000	10.908252
1927.000000	10.989354
1926.000000	11.072339
1925.000000	11.259730
1924.000000	11.434769
1923.000000	11.654847
1922.000000	11.793372
1921.000000	12.146961
1920.000000	12.252754
1919.000000	12.419681
1918.000000	12.697532
1917.000000	12.842675
1916.000000	13.089476
1915.000000	13.454548
1914.000000	13.595765
1913.000000	13.963147
1912.000000	14.209458
1911.000000	14.479570
1910.000000	14.785778
1909.000000	15.053699
1908.000000	15.330338
1907.000000	15.782517
1906.000000	16.086607
1905.000000	16.479045
1904.000000	16.807164
1903.000000	17.234677
1902.000000	17.642005
1901.000000	17.986921
1900.000000	18.416853
1899.000000	18.795176
1898.000000	19.185157
1897.000000	19.529547
1896.000000	19.905113
1895.000000	20.338943
1894.000000	20.735033
1893.000000	21.129924
1892.000000	21.495679
1891.000000	21.870077
1890.000000	22.241164
1889.000000	22.616614
1888.000000	22.978778
1887.000000	23.326440
1886.000000	23.649100
1885.000000	24.018053
1884.000000	24.313398
1883.000000	24.652397
1882.000000	24.939935
1881.000000	25.221488
1880.000000	25.527283
1879.000000	25.753344
1878.000000	26.054750
1877.000000	26.320281
1876.000000	26.521546
1875.000000	26.747520
1874.000000	26.968812
1873.000000	27.159735
1872.000000	27.340674
1871.000000	27.479033
1870.000000	27.573818
1869.000000	27.749188
1868.000000	27.920922
1867.000000	27.966625
1866.000000	28.047682
1865.000000	28.150372
1864.000000	28.185118
1863.000000	28.271553
1862.000000	28.313021
1861.000000	28.360599
1860.000000	28.410445
1859.000000	28.457550
1858.000000	28.522632
1857.000000	28.551019
1856.000000	28.571255
1855.000000	28.610292
1854.000000	28.635237
1853.000000	28.664739
1852.000000	28.703267
1851.000000	28.737687
1850.000000	28.733171
1849.000000	28.708287
1848.000000	28.726696
1847.000000	28.733158
1846.000000	28.692099
1845.000000	28.686177
1844.000000	28.677960
1843.000000	28.671296
1842.000000	28.628194
1841.000000	28.592129
1840.000000	28.575062
1839.000000	28.538445
1838.000000	28.497912
1837.000000	28.466652
1836.000000	28.447378
1835.000000	28.386496
1834.000000	28.362503
1833.000000	28.337096
1832.000000	28.246684
1831.000000	28.184724
1830.000000	28.157723
1829.000000	28.130498
1828.000000	28.085531
1827.000000	28.048620
1826.000000	28.027258
1825.000000	27.996744
1824.000000	27.961446
1823.000000	27.936120
1822.000000	27.906370
1821.000000	27.866626
1820.000000	27.826335
1819.000000	27.789767
1818.000000	27.754963
1817.000000	27.710884
1816.000000	27.686603
1815.000000	27.670562
1814.000000	27.640714
1813.000000	27.615966
1812.000000	27.577688
1811.000000	27.539271
1810.000000	27.503765
1809.000000	27.485654
1808.000000	27.466813
1807.000000	27.434609
1806.000000	27.396731
1805.000000	27.369835
1804.000000	27.347258
1803.000000	27.307916
1802.000000	27.266220
1801.000000	27.232499
1800.000000	27.210956
1799.000000	27.189281
1798.000000	27.171436
1797.000000	27.160113
1796.000000	27.120685
1795.000000	27.111776
1794.000000	27.112940
1793.000000	27.074295
1792.000000	27.041675
1791.000000	27.037351
1790.000000	27.019245
1789.000000	26.993313
1788.000000	26.955785
1787.000000	26.941908
1786.000000	26.933860
1785.000000	26.905837
1784.000000	26.885506
1783.000000	26.857807
1782.000000	26.828492
1781.000000	26.801483
1780.000000	26.774224
1779.000000	26.751403
1778.000000	26.687482
1777.000000	26.624407
1776.000000	26.582916
1775.000000	26.548789
1774.000000	26.513558
1773.000000	26.452580
1772.000000	26.393473
1771.000000	26.336452
1770.000000	26.304680
1769.000000	26.248310
1768.000000	26.184128
1767.000000	26.140220
1766.000000	26.109026
1765.000000	26.065976
1764.000000	26.020767
1763.000000	25.949867
1762.000000	25.898969
1761.000000	25.871438
1760.000000	25.833212
1759.000000	25.769898
1758.000000	25.723618
1757.000000	25.676072
1756.000000	25.647311
1755.000000	25.609225
1754.000000	25.538466
1753.000000	25.503535
1752.000000	25.446536
1751.000000	25.383312
1750.000000	25.365647
1749.000000	25.323690
1748.000000	25.243361
1747.000000	25.195970
1746.000000	25.147515
1745.000000	25.079283
1744.000000	25.032569
1743.000000	24.976073
1742.000000	24.949269
1741.000000	24.923705
1740.000000	24.856230
1739.000000	24.794093
1738.000000	24.765867
1737.000000	24.702540
1736.000000	24.654926
1735.000000	24.656584
1734.000000	24.662399
1733.000000	24.635064
1732.000000	24.621738
1731.000000	24.647840
1730.000000	24.662735
1729.000000	24.685508
1728.000000	24.695091
1727.000000	24.741992
1726.000000	24.795946
1725.000000	24.835709
1724.000000	24.892486
1723.000000	24.965959
1722.000000	25.049182
1721.000000	25.131708
1720.000000	25.219777
1719.000000	25.297152
1718.000000	25.378228
1717.000000	25.457330
1716.000000	25.525478
1715.000000	25.587845
1714.000000	25.694959
1713.000000	25.757010
1712.000000	25.784516
1711.000000	25.861100
1710.000000	25.915473
1709.000000	25.990119
1708.000000	26.033041
1707.000000	26.062110
1706.000000	26.099388
1705.000000	26.115108
1704.000000	26.188982
1703.000000	26.193521
1702.000000	26.201757
1701.000000	26.186154
1700.000000	26.239977
1699.000000	26.253446
1698.000000	26.270951
1697.000000	26.277521
1696.000000	26.337185
1695.000000	26.341847
1694.000000	26.376790
1693.000000	26.426581
1692.000000	26.446754
1691.000000	26.517470
1690.000000	26.606055
1689.000000	26.658349
1688.000000	26.737441
1687.000000	26.846921
1686.000000	26.935036
1685.000000	27.049193
1684.000000	27.176148
1683.000000	27.298560
1682.000000	27.448620
1681.000000	27.588303
1680.000000	27.731145
1679.000000	27.877937
1678.000000	28.040631
1677.000000	28.165484
1676.000000	28.320831
1675.000000	28.473718
1674.000000	28.624720
1673.000000	28.766243
1672.000000	28.914790
1671.000000	29.053790
1670.000000	29.186356
1669.000000	29.342641
1668.000000	29.446246
1667.000000	29.559174
1666.000000	29.660674
1665.000000	29.719531
1664.000000	29.799784
1663.000000	29.877963
1662.000000	29.958059
1661.000000	30.034824
1660.000000	30.102663
1659.000000	30.144499
1658.000000	30.171911
1657.000000	30.216770
1656.000000	30.259946
1655.000000	30.278010
1654.000000	30.316977
1653.000000	30.323959
1652.000000	30.337921
1651.000000	30.332894
1650.000000	30.335503
1649.000000	30.333233
1648.000000	30.319786
1647.000000	30.329052
1646.000000	30.302125
1645.000000	30.284921
1644.000000	30.263270
1643.000000	30.250056
1642.000000	30.227160
1641.000000	30.211955
1640.000000	30.188491
1639.000000	30.153126
1638.000000	30.128228
1637.000000	30.108606
1636.000000	30.070602
1635.000000	30.025811
1634.000000	29.990579
1633.000000	29.959136
1632.000000	29.926950
1631.000000	29.885722
1630.000000	29.829328
1629.000000	29.813427
1628.000000	29.764613
1627.000000	29.717454
1626.000000	29.685303
1625.000000	29.635221
1624.000000	29.602982
1623.000000	29.560990
1622.000000	29.517258
1621.000000	29.459417
1620.000000	29.419953
1619.000000	29.370792
1618.000000	29.311415
1617.000000	29.273182
1616.000000	29.229953
1615.000000	29.173597
1614.000000	29.119171
1613.000000	29.060578
1612.000000	28.998917
1611.000000	28.952052
1610.000000	28.905827
1609.000000	28.852127
1608.000000	28.804563
1607.000000	28.748123
1606.000000	28.685629
1605.000000	28.621391
1604.000000	28.564086
1603.000000	28.510669
1602.000000	28.457551
1601.000000	28.390859
1600.000000	28.340937
1599.000000	28.288889
1598.000000	28.226410
1597.000000	28.178011
1596.000000	28.131043
1595.000000	28.088738
1594.000000	28.039056
1593.000000	27.982258
1592.000000	27.930427
1591.000000	27.892264
1590.000000	27.857706
1589.000000	27.806833
1588.000000	27.747783
1587.000000	27.701070
1586.000000	27.665378
1585.000000	27.622954
1584.000000	27.579253
1583.000000	27.549864
1582.000000	27.506183
1581.000000	27.451490
1580.000000	27.415061
1579.000000	27.378627
1578.000000	27.326788
1577.000000	27.273891
1576.000000	27.232846
1575.000000	27.205918
1574.000000	27.162280
1573.000000	27.109829
1572.000000	27.074433
1571.000000	27.032685
1570.000000	26.992035
1569.000000	26.956206
1568.000000	26.928003
1567.000000	26.886155
1566.000000	26.842455
1565.000000	26.821473
1564.000000	26.794940
1563.000000	26.778557
1562.000000	26.754050
1561.000000	26.718526
1560.000000	26.690824
1559.000000	26.670817
1558.000000	26.658393
1557.000000	26.626259
1556.000000	26.604697
1555.000000	26.580499
1554.000000	26.551448
1553.000000	26.527792
1552.000000	26.506883
1551.000000	26.480650
1550.000000	26.440464
1549.000000	26.390100
1548.000000	26.368990
1547.000000	26.326330
1546.000000	26.261795
1545.000000	26.217467
1544.000000	26.156235
1543.000000	26.086983
1542.000000	26.016117
1541.000000	25.954369
1540.000000	25.891644
1539.000000	25.806638
1538.000000	25.711477
1537.000000	25.631945
1536.000000	25.546415
1535.000000	25.490576
1534.000000	25.462758
1533.000000	25.447144
1532.000000	25.395781
1531.000000	25.329122
1530.000000	25.226713
1529.000000	25.145687
1528.000000	25.050678
1527.000000	24.981390
1526.000000	24.914844
1525.000000	24.861587
1524.000000	24.797719
1523.000000	24.749432
1522.000000	24.714177
1521.000000	24.652826
1520.000000	24.597729
1519.000000	24.572592
1518.000000	24.548665
1517.000000	24.500582
1516.000000	24.464836
1515.000000	24.456145
1514.000000	24.440385
1513.000000	24.418954
1512.000000	24.358142
1511.000000	24.318108
1510.000000	24.314214
1509.000000	24.300118
1508.000000	24.283017
1507.000000	24.273986
1506.000000	24.238071
1505.000000	24.228930
1504.000000	24.194004
1503.000000	24.194205
1502.000000	24.171567
1501.000000	24.167832
1500.000000	24.160304
1499.000000	24.159272
1498.000000	24.159092
1497.000000	24.147488
1496.000000	24.182086
1495.000000	24.179783
1494.000000	24.176951
1493.000000	24.205333
1492.000000	24.239809
1491.000000	24.258624
1490.000000	24.272799
1489.000000	24.301092
1488.000000	24.336793
1487.000000	24.372774
1486.000000	24.407705
1485.000000	24.455808
1484.000000	24.491118
1483.000000	24.548994
1482.000000	24.575437
1481.000000	24.617443
1480.000000	24.653959
1479.000000	24.715052
1478.000000	24.761204
1477.000000	24.789475
1476.000000	24.849302
1475.000000	24.875182
1474.000000	24.909072
1473.000000	24.964803
1472.000000	24.992133
1471.000000	25.017535
1470.000000	25.063338
1469.000000	25.115700
1468.000000	25.157464
1467.000000	25.213038
