PE UV       SUBTECH     SPECTRUM    ASCII       PEDS        4.00        
   -1
GGRAD1_2.Sample.asc
23/09/07
14:45:33.00
23/09/07
14:45:33.00
Administrator

250.000000
1
Lambda 750
750N8071901
PerkinElmer UV WinLab 6.0.4.0738 / 1.61.00 Lambda 900

0
0
3350/servo 860.8/2
0
0
UV/VIS
1
1
1
CommonBeamDepol,150mm sphere / downward view
0
0
0
0
Program
Program
3350/servo 860.8/2
3350/0.2 860.8/0.2
3350/0.2 860.8/0.2
0
1
 
 
 
0
 
860.8
319.2
860.8
Front
100
on
 
 
0
0
0
 
0
 
 
 
0
 
 
0
0
0
0
0
 
 
 
 
0
0


0
0
#HDR
-1
-1
#GR
nm
%R
1.0
0.0
2500.000000
-10.000000
226
8
75.963633
2.816626
#DATA
2500.000000	5.126148
2490.000000	2.816626
2480.000000	6.062366
2470.000000	6.796896
2460.000000	5.137851
2450.000000	3.398051
2440.000000	7.634985
2430.000000	5.170088
2420.000000	6.441389
2410.000000	5.945480
2400.000000	6.626864
2390.000000	5.662176
2380.000000	6.664669
2370.000000	6.026659
2360.000000	7.427863
2350.000000	6.562598
2340.000000	7.672108
2330.000000	6.913896
2320.000000	7.000990
2310.000000	7.074806
2300.000000	6.062305
2290.000000	7.312506
2280.000000	8.205360
2270.000000	8.323900
2260.000000	9.064884
2250.000000	10.466853
2240.000000	10.713021
2230.000000	10.072710
2220.000000	10.628278
2210.000000	9.097817
2200.000000	9.018309
2190.000000	9.414505
2180.000000	10.614456
2170.000000	10.545746
2160.000000	11.661726
2150.000000	12.196651
2140.000000	12.433636
2130.000000	12.895571
2120.000000	13.075178
2110.000000	12.961471
2100.000000	12.719917
2090.000000	12.134717
2080.000000	11.191217
2070.000000	9.646045
2060.000000	9.789804
2050.000000	10.107169
2040.000000	10.573139
2030.000000	10.590537
2020.000000	9.887537
2010.000000	9.263256
2000.000000	8.707470
1990.000000	8.076354
1980.000000	7.265564
1970.000000	7.040878
1960.000000	6.869482
1950.000000	7.362403
1940.000000	8.275439
1930.000000	10.206866
1920.000000	13.559979
1910.000000	19.205246
1900.000000	24.603869
1890.000000	30.630673
1880.000000	34.692108
1870.000000	35.943614
1860.000000	36.317934
1850.000000	35.881460
1840.000000	35.293902
1830.000000	34.666670
1820.000000	33.959091
1810.000000	33.479536
1800.000000	32.988524
1790.000000	32.034703
1780.000000	31.231293
1770.000000	30.726265
1760.000000	29.917208
1750.000000	29.265517
1740.000000	29.509804
1730.000000	31.156570
1720.000000	32.624727
1710.000000	33.474095
1700.000000	35.341111
1690.000000	38.639416
1680.000000	41.313182
1670.000000	42.474848
1660.000000	42.587897
1650.000000	42.103497
1640.000000	41.119086
1630.000000	40.014625
1620.000000	38.637804
1610.000000	37.297464
1600.000000	36.194214
1590.000000	35.149743
1580.000000	34.235102
1570.000000	33.664853
1560.000000	32.798952
1550.000000	31.324305
1540.000000	30.074488
1530.000000	29.299450
1520.000000	28.788186
1510.000000	28.332029
1500.000000	28.228465
1490.000000	28.389377
1480.000000	28.744775
1470.000000	29.237604
1460.000000	30.257801
1450.000000	31.908320
1440.000000	34.392223
1430.000000	38.098289
1420.000000	43.199895
1410.000000	48.844176
1400.000000	53.779172
1390.000000	57.119579
1380.000000	59.157171
1370.000000	61.301697
1360.000000	63.354224
1350.000000	65.203184
1340.000000	66.438998
1330.000000	67.515732
1320.000000	68.347043
1310.000000	68.796059
1300.000000	68.815267
1290.000000	68.855188
1280.000000	68.945114
1270.000000	68.872214
1260.000000	68.550232
1250.000000	67.854520
1240.000000	67.001597
1230.000000	66.102813
1220.000000	64.993854
1210.000000	64.110307
1200.000000	64.033621
1190.000000	65.086824
1180.000000	67.253133
1170.000000	69.691251
1160.000000	71.701024
1150.000000	73.409644
1140.000000	74.684731
1130.000000	75.188666
1120.000000	75.421231
1110.000000	75.490825
1100.000000	75.524712
1090.000000	75.302798
1080.000000	75.205870
1070.000000	74.921005
1060.000000	74.729312
1050.000000	74.592450
1040.000000	74.446757
1030.000000	74.279189
1020.000000	74.363753
1010.000000	74.602557
1000.000000	74.776731
990.000000	74.922266
980.000000	75.189907
970.000000	75.533571
960.000000	75.879552
950.000000	75.871278
940.000000	75.848421
930.000000	75.603292
920.000000	75.570884
910.000000	75.726227
900.000000	75.963633
890.000000	75.758602
880.000000	75.842860
870.000000	75.877047
860.000000	75.421434
850.000000	75.259866
840.000000	74.994570
830.000000	74.779984
820.000000	74.421504
810.000000	74.386273
800.000000	73.590318
790.000000	73.012524
780.000000	72.640684
770.000000	71.958268
760.000000	70.923658
750.000000	70.139170
740.000000	69.381338
730.000000	68.470439
720.000000	67.292084
710.000000	66.152453
700.000000	64.848740
690.000000	63.376269
680.000000	61.956211
670.000000	60.324880
660.000000	58.746346
650.000000	57.017860
640.000000	55.298927
630.000000	53.685852
620.000000	51.943587
610.000000	50.241986
600.000000	48.559985
590.000000	46.907055
580.000000	45.362823
570.000000	43.732586
560.000000	42.262243
550.000000	40.692611
540.000000	39.207558
530.000000	37.735662
520.000000	36.323015
510.000000	34.851309
500.000000	33.387739
490.000000	32.013870
480.000000	30.514143
470.000000	29.069676
460.000000	27.574460
450.000000	26.027418
440.000000	24.568277
430.000000	22.967241
420.000000	21.788384
410.000000	20.641634
400.000000	19.720185
390.000000	19.011627
380.000000	18.143128
370.000000	17.469142
360.000000	16.131903
350.000000	15.247274
340.000000	14.501140
330.000000	13.503062
320.000000	12.847542
310.000000	11.788678
300.000000	16.150740
290.000000	11.256672
280.000000	7.581572
270.000000	5.867353
260.000000	5.190296
250.000000	4.930467
