PE UV       SUBTECH     SPECTRUM    ASCII       PEDS        4.00        
   -1
Empty Chamber.Sample.asc
18/03/13
12:40:31.00
18/03/13
12:40:31.00
Administrator

200.000000
1
Lambda 750
750N8071901
PerkinElmer UV WinLab 6.0.4.0738 / 1.61.00 Lambda 900

0
0
3350/servo 860.8/2
0
0
UV/VIS
1
1
1
CommonBeamDepol,150mm sphere / downward view
0
0
0
0
Program
Program
3350/servo 860.8/2
3350/0.2 860.8/0.2
3350/0.2 860.8/0.2
0
1
 
 
 
0
 
860.8
319.2
860.8
Front
100
on
 
 
0
0
0
 
0
 
 
 
0
 
 
0
0
0
0
0
 
 
 
 
0
0


0
0
#HDR
-1
-1
#GR
nm
%T
1.0
0.0
2350.000000
-1.000000
2151
8
100.761872
99.323527
#DATA
2350.000000	100.032996
2349.000000	100.280527
2348.000000	100.016071
2347.000000	100.424010
2346.000000	99.632645
2345.000000	99.974496
2344.000000	99.936227
2343.000000	99.554528
2342.000000	99.896646
2341.000000	99.873990
2340.000000	100.218223
2339.000000	100.390003
2338.000000	99.963792
2337.000000	99.914543
2336.000000	100.055571
2335.000000	100.069462
2334.000000	99.837924
2333.000000	99.926909
2332.000000	100.482358
2331.000000	99.919642
2330.000000	100.028143
2329.000000	100.102551
2328.000000	99.706095
2327.000000	99.748582
2326.000000	100.094583
2325.000000	100.058299
2324.000000	100.199904
2323.000000	100.251081
2322.000000	99.656126
2321.000000	100.131706
2320.000000	100.085182
2319.000000	99.701715
2318.000000	100.173991
2317.000000	100.469912
2316.000000	100.099540
2315.000000	100.052528
2314.000000	100.081232
2313.000000	99.855011
2312.000000	100.069366
2311.000000	100.194816
2310.000000	100.151424
2309.000000	99.932735
2308.000000	99.693470
2307.000000	99.725306
2306.000000	100.017438
2305.000000	99.987395
2304.000000	100.084646
2303.000000	100.072578
2302.000000	100.337625
2301.000000	99.983641
2300.000000	99.744383
2299.000000	99.965936
2298.000000	99.983965
2297.000000	100.107408
2296.000000	100.372915
2295.000000	100.135251
2294.000000	100.071657
2293.000000	100.018678
2292.000000	100.035410
2291.000000	99.871526
2290.000000	100.009778
2289.000000	100.020165
2288.000000	100.026799
2287.000000	100.177252
2286.000000	99.981855
2285.000000	100.031780
2284.000000	99.845815
2283.000000	99.664996
2282.000000	99.991832
2281.000000	100.106570
2280.000000	100.011210
2279.000000	100.143263
2278.000000	100.049663
2277.000000	99.777815
2276.000000	99.916974
2275.000000	99.996473
2274.000000	99.992336
2273.000000	100.088179
2272.000000	100.140162
2271.000000	99.895806
2270.000000	99.900424
2269.000000	99.993742
2268.000000	99.795861
2267.000000	99.951064
2266.000000	100.163928
2265.000000	100.083437
2264.000000	100.088704
2263.000000	100.178354
2262.000000	100.127340
2261.000000	100.064980
2260.000000	100.081245
2259.000000	100.070953
2258.000000	100.131880
2257.000000	100.154783
2256.000000	99.968797
2255.000000	99.994044
2254.000000	100.097227
2253.000000	100.101625
2252.000000	100.037961
2251.000000	99.991921
2250.000000	100.098499
2249.000000	100.126153
2248.000000	100.061136
2247.000000	99.973574
2246.000000	99.936638
2245.000000	100.041389
2244.000000	100.166157
2243.000000	100.198820
2242.000000	100.190645
2241.000000	100.047376
2240.000000	99.991723
2239.000000	99.919164
2238.000000	99.939437
2237.000000	100.020903
2236.000000	100.020909
2235.000000	100.049289
2234.000000	99.932140
2233.000000	99.849027
2232.000000	99.975574
2231.000000	99.908231
2230.000000	99.897900
2229.000000	99.966117
2228.000000	100.066613
2227.000000	100.066431
2226.000000	99.960228
2225.000000	99.902801
2224.000000	99.890770
2223.000000	99.925295
2222.000000	100.029774
2221.000000	100.088255
2220.000000	100.021620
2219.000000	99.986270
2218.000000	100.052912
2217.000000	100.009081
2216.000000	100.028964
2215.000000	99.953889
2214.000000	99.923463
2213.000000	99.969717
2212.000000	99.864076
2211.000000	99.907153
2210.000000	100.100027
2209.000000	100.019278
2208.000000	100.172720
2207.000000	100.174846
2206.000000	100.163958
2205.000000	100.072793
2204.000000	99.987690
2203.000000	99.872921
2202.000000	99.812141
2201.000000	99.783527
2200.000000	100.047705
2199.000000	100.055240
2198.000000	100.140791
2197.000000	99.918937
2196.000000	99.958254
2195.000000	100.084945
2194.000000	99.970850
2193.000000	99.956270
2192.000000	100.112068
2191.000000	100.025834
2190.000000	100.175772
2189.000000	100.179682
2188.000000	100.106639
2187.000000	99.939549
2186.000000	99.874443
2185.000000	99.959027
2184.000000	99.897455
2183.000000	100.153505
2182.000000	99.990032
2181.000000	100.166411
2180.000000	100.055695
2179.000000	99.947352
2178.000000	100.120543
2177.000000	100.100396
2176.000000	100.026584
2175.000000	99.787296
2174.000000	99.859252
2173.000000	100.079025
2172.000000	99.874621
2171.000000	99.895695
2170.000000	99.967627
2169.000000	99.978396
2168.000000	100.123668
2167.000000	100.006033
2166.000000	100.030187
2165.000000	100.138588
2164.000000	99.972966
2163.000000	99.890744
2162.000000	99.991250
2161.000000	100.114332
2160.000000	99.762043
2159.000000	99.808546
2158.000000	100.203720
2157.000000	99.880227
2156.000000	99.750543
2155.000000	99.961163
2154.000000	99.765956
2153.000000	99.998292
2152.000000	99.890356
2151.000000	99.831124
2150.000000	99.935878
2149.000000	99.807169
2148.000000	100.143989
2147.000000	100.086536
2146.000000	99.957015
2145.000000	99.807621
2144.000000	100.123617
2143.000000	100.089863
2142.000000	99.801757
2141.000000	99.975541
2140.000000	100.027019
2139.000000	99.851340
2138.000000	100.160065
2137.000000	99.884797
2136.000000	100.018190
2135.000000	100.045986
2134.000000	100.018769
2133.000000	99.911530
2132.000000	99.650147
2131.000000	99.892944
2130.000000	100.170871
2129.000000	99.905168
2128.000000	100.272264
2127.000000	100.102301
2126.000000	99.886139
2125.000000	100.112038
2124.000000	100.291062
2123.000000	100.040683
2122.000000	100.161940
2121.000000	100.059691
2120.000000	99.878363
2119.000000	99.903525
2118.000000	100.051045
2117.000000	99.939128
2116.000000	99.871831
2115.000000	99.979293
2114.000000	99.873275
2113.000000	100.212124
2112.000000	100.083448
2111.000000	99.971844
2110.000000	99.864017
2109.000000	100.098341
2108.000000	100.079968
2107.000000	100.146472
2106.000000	100.022670
2105.000000	100.107521
2104.000000	99.827531
2103.000000	99.875118
2102.000000	99.929031
2101.000000	99.994670
2100.000000	99.934998
2099.000000	99.932459
2098.000000	100.014901
2097.000000	100.054831
2096.000000	100.086826
2095.000000	100.047923
2094.000000	100.073895
2093.000000	99.970122
2092.000000	100.035834
2091.000000	100.039881
2090.000000	100.118373
2089.000000	99.945913
2088.000000	99.955401
2087.000000	100.015613
2086.000000	100.059667
2085.000000	99.990124
2084.000000	99.930613
2083.000000	99.944745
2082.000000	99.913240
2081.000000	99.925698
2080.000000	100.024689
2079.000000	99.976316
2078.000000	99.938427
2077.000000	100.010177
2076.000000	100.101895
2075.000000	100.020456
2074.000000	99.992547
2073.000000	100.093246
2072.000000	100.032144
2071.000000	99.985089
2070.000000	100.005844
2069.000000	100.072089
2068.000000	99.945793
2067.000000	99.973198
2066.000000	100.026714
2065.000000	99.971785
2064.000000	99.931465
2063.000000	100.132173
2062.000000	100.057486
2061.000000	100.031553
2060.000000	99.967450
2059.000000	99.880838
2058.000000	100.040323
2057.000000	100.048390
2056.000000	100.003729
2055.000000	99.987298
2054.000000	100.005447
2053.000000	100.051553
2052.000000	99.997378
2051.000000	99.963105
2050.000000	100.005547
2049.000000	100.042699
2048.000000	100.008375
2047.000000	100.054483
2046.000000	100.050054
2045.000000	99.977815
2044.000000	99.934557
2043.000000	99.979724
2042.000000	99.976398
2041.000000	99.979518
2040.000000	100.044021
2039.000000	100.044941
2038.000000	100.095254
2037.000000	100.041883
2036.000000	100.047743
2035.000000	100.003332
2034.000000	99.944390
2033.000000	99.980322
2032.000000	100.005450
2031.000000	99.959935
2030.000000	99.918554
2029.000000	99.908454
2028.000000	99.900494
2027.000000	99.927436
2026.000000	100.002019
2025.000000	100.033539
2024.000000	100.003031
2023.000000	99.994645
2022.000000	99.954445
2021.000000	99.954656
2020.000000	100.009800
2019.000000	100.024963
2018.000000	100.019808
2017.000000	100.033345
2016.000000	99.980202
2015.000000	99.921935
2014.000000	100.006871
2013.000000	100.028499
2012.000000	100.006872
2011.000000	100.019911
2010.000000	100.048215
2009.000000	100.076321
2008.000000	100.019715
2007.000000	99.967047
2006.000000	99.963418
2005.000000	100.008997
2004.000000	100.042478
2003.000000	100.001416
2002.000000	100.005562
2001.000000	99.976641
2000.000000	99.950761
1999.000000	99.959859
1998.000000	99.961691
1997.000000	99.952884
1996.000000	100.004147
1995.000000	99.993728
1994.000000	100.032477
1993.000000	100.036732
1992.000000	99.960347
1991.000000	99.959431
1990.000000	100.003643
1989.000000	100.015580
1988.000000	100.017504
1987.000000	99.991804
1986.000000	99.993524
1985.000000	99.987046
1984.000000	100.004757
1983.000000	100.033809
1982.000000	100.054250
1981.000000	99.981180
1980.000000	99.998482
1979.000000	100.006984
1978.000000	99.989777
1977.000000	100.006579
1976.000000	100.027935
1975.000000	99.995446
1974.000000	100.010222
1973.000000	99.979557
1972.000000	100.004453
1971.000000	99.930804
1970.000000	99.960748
1969.000000	99.969445
1968.000000	99.938296
1967.000000	99.906651
1966.000000	99.979766
1965.000000	99.954369
1964.000000	100.001923
1963.000000	99.956594
1962.000000	99.960953
1961.000000	100.003238
1960.000000	100.007791
1959.000000	100.022061
1958.000000	99.999696
1957.000000	99.974606
1956.000000	99.927604
1955.000000	99.968957
1954.000000	100.010420
1953.000000	99.960576
1952.000000	99.951993
1951.000000	100.019013
1950.000000	99.937021
1949.000000	99.988979
1948.000000	99.963503
1947.000000	100.062706
1946.000000	99.987667
1945.000000	100.058529
1944.000000	100.058340
1943.000000	99.983831
1942.000000	99.953306
1941.000000	99.949805
1940.000000	100.027374
1939.000000	99.970713
1938.000000	100.004342
1937.000000	99.948617
1936.000000	99.983848
1935.000000	99.991218
1934.000000	99.991324
1933.000000	100.061188
1932.000000	99.962148
1931.000000	100.016146
1930.000000	100.120867
1929.000000	100.053394
1928.000000	100.024019
1927.000000	99.988396
1926.000000	99.966206
1925.000000	99.868155
1924.000000	99.915699
1923.000000	99.971060
1922.000000	99.953118
1921.000000	100.062172
1920.000000	99.943314
1919.000000	100.002826
1918.000000	99.981538
1917.000000	99.917613
1916.000000	99.943535
1915.000000	99.913580
1914.000000	99.935844
1913.000000	100.004844
1912.000000	100.062368
1911.000000	100.068844
1910.000000	99.943999
1909.000000	99.962143
1908.000000	99.987183
1907.000000	100.034043
1906.000000	100.089201
1905.000000	99.896950
1904.000000	99.982735
1903.000000	100.040597
1902.000000	100.016559
1901.000000	99.990609
1900.000000	99.920469
1899.000000	99.944264
1898.000000	100.001314
1897.000000	99.904572
1896.000000	99.930610
1895.000000	100.072152
1894.000000	99.947590
1893.000000	99.992525
1892.000000	100.013842
1891.000000	99.970491
1890.000000	99.981415
1889.000000	100.037991
1888.000000	99.970701
1887.000000	99.998586
1886.000000	99.901510
1885.000000	99.939253
1884.000000	100.062397
1883.000000	100.029470
1882.000000	99.960771
1881.000000	99.989106
1880.000000	100.022396
1879.000000	100.011298
1878.000000	99.936392
1877.000000	100.048606
1876.000000	100.025416
1875.000000	99.999092
1874.000000	100.033778
1873.000000	100.018346
1872.000000	99.956283
1871.000000	99.964630
1870.000000	100.030337
1869.000000	99.952542
1868.000000	100.002117
1867.000000	99.950320
1866.000000	100.013510
1865.000000	100.050928
1864.000000	99.970869
1863.000000	99.979938
1862.000000	100.021081
1861.000000	100.005749
1860.000000	100.006554
1859.000000	99.995159
1858.000000	99.969742
1857.000000	99.900600
1856.000000	99.929413
1855.000000	99.998386
1854.000000	100.035411
1853.000000	100.037119
1852.000000	99.970564
1851.000000	99.998992
1850.000000	100.046697
1849.000000	100.011393
1848.000000	99.982055
1847.000000	99.971669
1846.000000	99.972678
1845.000000	99.981953
1844.000000	99.996370
1843.000000	99.966526
1842.000000	99.983569
1841.000000	99.923702
1840.000000	99.962299
1839.000000	99.979838
1838.000000	99.964612
1837.000000	99.952502
1836.000000	99.990921
1835.000000	100.010091
1834.000000	99.994955
1833.000000	100.011407
1832.000000	100.014943
1831.000000	99.992831
1830.000000	100.003938
1829.000000	100.028886
1828.000000	100.004343
1827.000000	100.010707
1826.000000	99.979495
1825.000000	99.993029
1824.000000	100.007074
1823.000000	100.020819
1822.000000	99.981307
1821.000000	99.986355
1820.000000	100.017288
1819.000000	100.011020
1818.000000	100.028922
1817.000000	100.026904
1816.000000	99.996561
1815.000000	100.002124
1814.000000	99.999494
1813.000000	99.974314
1812.000000	99.968548
1811.000000	99.985939
1810.000000	99.991805
1809.000000	99.988162
1808.000000	100.005060
1807.000000	100.008298
1806.000000	100.011033
1805.000000	99.993118
1804.000000	99.980570
1803.000000	100.005770
1802.000000	100.023487
1801.000000	100.020243
1800.000000	99.989879
1799.000000	99.981677
1798.000000	100.000911
1797.000000	99.991094
1796.000000	99.970039
1795.000000	99.986942
1794.000000	99.981677
1793.000000	99.959612
1792.000000	99.983092
1791.000000	100.000810
1790.000000	99.985317
1789.000000	99.991595
1788.000000	100.015396
1787.000000	100.027855
1786.000000	100.034846
1785.000000	100.043860
1784.000000	100.013573
1783.000000	99.988557
1782.000000	99.976712
1781.000000	99.995848
1780.000000	99.994532
1779.000000	99.996861
1778.000000	99.989469
1777.000000	100.004861
1776.000000	100.015192
1775.000000	99.971245
1774.000000	99.987142
1773.000000	100.001013
1772.000000	99.981570
1771.000000	100.012760
1770.000000	100.009621
1769.000000	99.974278
1768.000000	99.983898
1767.000000	99.964766
1766.000000	99.985418
1765.000000	100.014987
1764.000000	99.976511
1763.000000	99.984711
1762.000000	100.019038
1761.000000	99.999291
1760.000000	99.974891
1759.000000	99.986331
1758.000000	99.981669
1757.000000	100.007799
1756.000000	100.018024
1755.000000	100.014685
1754.000000	100.010634
1753.000000	99.954138
1752.000000	99.967900
1751.000000	99.931776
1750.000000	99.966596
1749.000000	99.977926
1748.000000	99.968309
1747.000000	99.954351
1746.000000	99.977321
1745.000000	99.981573
1744.000000	100.010327
1743.000000	100.011440
1742.000000	99.995241
1741.000000	100.033825
1740.000000	100.021875
1739.000000	100.032907
1738.000000	100.011339
1737.000000	99.991092
1736.000000	99.988361
1735.000000	100.016400
1734.000000	100.009010
1733.000000	100.002835
1732.000000	99.980364
1731.000000	100.021568
1730.000000	100.000101
1729.000000	100.040601
1728.000000	99.989371
1727.000000	99.994330
1726.000000	99.999393
1725.000000	100.012655
1724.000000	99.968422
1723.000000	100.011338
1722.000000	99.991699
1721.000000	99.981987
1720.000000	100.027641
1719.000000	99.992104
1718.000000	99.962053
1717.000000	100.016501
1716.000000	100.011034
1715.000000	100.013970
1714.000000	100.024098
1713.000000	99.944348
1712.000000	99.982690
1711.000000	100.028754
1710.000000	100.030578
1709.000000	100.014071
1708.000000	99.990284
1707.000000	99.952133
1706.000000	99.982186
1705.000000	99.982288
1704.000000	100.005770
1703.000000	100.009819
1702.000000	100.019434
1701.000000	99.979350
1700.000000	100.002429
1699.000000	99.999798
1698.000000	99.999696
1697.000000	100.004858
1696.000000	99.964783
1695.000000	99.994029
1694.000000	100.015992
1693.000000	100.027028
1692.000000	99.995951
1691.000000	99.985831
1690.000000	99.975204
1689.000000	99.982186
1688.000000	100.008705
1687.000000	100.005568
1686.000000	99.956281
1685.000000	99.995345
1684.000000	99.982289
1683.000000	99.994232
1682.000000	99.977735
1681.000000	100.006376
1680.000000	100.017309
1679.000000	99.992207
1678.000000	100.011134
1677.000000	100.003037
1676.000000	99.984213
1675.000000	100.006984
1674.000000	100.017615
1673.000000	100.001316
1672.000000	99.990790
1671.000000	99.990284
1670.000000	100.005567
1669.000000	100.008094
1668.000000	100.002934
1667.000000	99.978757
1666.000000	99.991806
1665.000000	99.975722
1664.000000	99.997572
1663.000000	99.963085
1662.000000	99.988468
1661.000000	99.998685
1660.000000	99.971373
1659.000000	99.980478
1658.000000	99.994234
1657.000000	99.980277
1656.000000	99.964903
1655.000000	99.981693
1654.000000	99.998786
1653.000000	99.995954
1652.000000	100.014769
1651.000000	99.987154
1650.000000	100.003844
1649.000000	99.999595
1648.000000	99.991705
1647.000000	99.986750
1646.000000	99.986850
1645.000000	100.000202
1644.000000	100.000303
1643.000000	99.994741
1642.000000	99.992919
1641.000000	99.986145
1640.000000	99.996359
1639.000000	99.999090
1638.000000	99.988167
1637.000000	99.982301
1636.000000	99.994741
1635.000000	100.011835
1634.000000	99.998685
1633.000000	99.995853
1632.000000	100.012037
1631.000000	100.013353
1630.000000	100.018412
1629.000000	99.984523
1628.000000	100.009610
1627.000000	100.019321
1626.000000	99.988470
1625.000000	99.992920
1624.000000	99.992818
1623.000000	99.985537
1622.000000	100.009204
1621.000000	100.002933
1620.000000	99.998483
1619.000000	99.999697
1618.000000	99.984729
1617.000000	99.996966
1616.000000	100.016081
1615.000000	100.019623
1614.000000	100.023264
1613.000000	100.017295
1612.000000	99.999798
1611.000000	99.995145
1610.000000	100.016386
1609.000000	100.014667
1608.000000	100.006676
1607.000000	100.011329
1606.000000	100.021343
1605.000000	100.007586
1604.000000	99.986752
1603.000000	99.988977
1602.000000	100.004754
1601.000000	100.001821
1600.000000	100.001113
1599.000000	100.000607
1598.000000	99.988369
1597.000000	99.986954
1596.000000	99.997269
1595.000000	100.001517
1594.000000	99.991707
1593.000000	99.991403
1592.000000	100.006878
1591.000000	100.012542
1590.000000	100.011632
1589.000000	99.988572
1588.000000	99.997067
1587.000000	100.005158
1586.000000	99.989179
1585.000000	100.002023
1584.000000	100.006776
1583.000000	99.994034
1582.000000	99.994034
1581.000000	99.984530
1580.000000	99.978665
1579.000000	99.989686
1578.000000	100.010922
1577.000000	100.009809
1576.000000	100.004450
1575.000000	100.007990
1574.000000	99.992214
1573.000000	100.000910
1572.000000	100.024271
1571.000000	100.009101
1570.000000	100.002832
1569.000000	99.987563
1568.000000	99.989788
1567.000000	99.993731
1566.000000	99.995855
1565.000000	99.993732
1564.000000	99.990193
1563.000000	100.014357
1562.000000	100.009706
1561.000000	99.992216
1560.000000	100.000000
1559.000000	100.002831
1558.000000	99.987972
1557.000000	99.991610
1556.000000	100.006167
1555.000000	100.000101
1554.000000	100.003841
1553.000000	100.003437
1552.000000	99.996967
1551.000000	99.991813
1550.000000	99.987467
1549.000000	99.981505
1548.000000	100.004043
1547.000000	100.009805
1546.000000	100.009199
1545.000000	100.005156
1544.000000	99.984941
1543.000000	99.984032
1542.000000	99.997271
1541.000000	99.988780
1540.000000	100.001415
1539.000000	100.004548
1538.000000	99.981609
1537.000000	99.978880
1536.000000	99.991309
1535.000000	99.990096
1534.000000	99.977970
1533.000000	100.001314
1532.000000	100.007277
1531.000000	100.005255
1530.000000	100.009402
1529.000000	100.016378
1528.000000	99.996664
1527.000000	100.002831
1526.000000	100.008290
1525.000000	99.978469
1524.000000	100.001112
1523.000000	99.995957
1522.000000	99.968168
1521.000000	99.977866
1520.000000	99.986052
1519.000000	99.972005
1518.000000	100.010818
1517.000000	99.966948
1516.000000	99.986354
1515.000000	99.979481
1514.000000	99.966040
1513.000000	100.015573
1512.000000	100.021233
1511.000000	99.996664
1510.000000	99.989892
1509.000000	99.987365
1508.000000	100.001213
1507.000000	99.963810
1506.000000	99.986353
1505.000000	100.005561
1504.000000	99.972199
1503.000000	99.988880
1502.000000	99.989182
1501.000000	99.982005
1500.000000	99.983218
1499.000000	99.990599
1498.000000	100.002022
1497.000000	99.989993
1496.000000	99.993228
1495.000000	100.004650
1494.000000	99.978977
1493.000000	99.991005
1492.000000	99.995250
1491.000000	99.986051
1490.000000	100.022441
1489.000000	100.000000
1488.000000	99.993531
