PE UV       SUBTECH     SPECTRUM    ASCII       PEDS        4.00        
   -1
RDms1593411.Sample.asc
18/03/13
15:42:11.00
18/03/13
15:42:11.00
Administrator

200.000000
1
Lambda 750
750N8071901
PerkinElmer UV WinLab 6.0.4.0738 / 1.61.00 Lambda 900

0
0
3350/servo 860.8/2
0
0
UV/VIS
1
1
1
CommonBeamDepol,150mm sphere / downward view
0
0
0
0
Program
Program
3350/servo 860.8/2
3350/0.2 860.8/0.2
3350/0.2 860.8/0.2
0
1
 
 
 
0
 
860.8
319.2
860.8
Front
100
on
 
 
0
0
0
 
0
 
 
 
0
 
 
0
0
0
0
0
 
 
 
 
0
0


0
0
#HDR
-1
-1
#GR
nm
%R
1.0
0.0
2350.000000
-1.000000
2151
8
52.318541
5.395571
#DATA
2350.000000	20.288394
2349.000000	20.297389
2348.000000	20.156488
2347.000000	20.567907
2346.000000	20.339160
2345.000000	19.999056
2344.000000	19.994955
2343.000000	19.712098
2342.000000	20.011944
2341.000000	20.330406
2340.000000	20.596745
2339.000000	21.101788
2338.000000	21.028012
2337.000000	20.616579
2336.000000	21.178466
2335.000000	20.859394
2334.000000	21.127895
2333.000000	20.986218
2332.000000	21.409872
2331.000000	20.911451
2330.000000	20.907940
2329.000000	21.168092
2328.000000	21.111689
2327.000000	20.835317
2326.000000	20.789882
2325.000000	20.701185
2324.000000	20.808581
2323.000000	20.632502
2322.000000	20.493768
2321.000000	20.473537
2320.000000	20.692478
2319.000000	20.499656
2318.000000	20.652458
2317.000000	20.547209
2316.000000	20.361268
2315.000000	20.392790
2314.000000	20.172386
2313.000000	20.072202
2312.000000	20.084814
2311.000000	20.242090
2310.000000	20.070011
2309.000000	20.185559
2308.000000	19.897165
2307.000000	19.777264
2306.000000	19.908312
2305.000000	20.022669
2304.000000	19.729272
2303.000000	20.098279
2302.000000	19.979757
2301.000000	19.731873
2300.000000	19.451629
2299.000000	19.168983
2298.000000	19.162028
2297.000000	19.371847
2296.000000	19.548338
2295.000000	19.451647
2294.000000	19.473390
2293.000000	19.370674
2292.000000	19.277924
2291.000000	19.336006
2290.000000	19.402216
2289.000000	19.287405
2288.000000	19.361589
2287.000000	19.349641
2286.000000	19.137918
2285.000000	19.130574
2284.000000	18.956720
2283.000000	18.883682
2282.000000	19.044292
2281.000000	19.052458
2280.000000	19.012750
2279.000000	19.112010
2278.000000	19.170714
2277.000000	19.128129
2276.000000	19.072627
2275.000000	19.235874
2274.000000	19.268267
2273.000000	19.269042
2272.000000	19.348413
2271.000000	19.353228
2270.000000	19.247416
2269.000000	19.219911
2268.000000	19.310141
2267.000000	19.391602
2266.000000	19.627683
2265.000000	19.770416
2264.000000	19.980259
2263.000000	20.154674
2262.000000	20.334319
2261.000000	20.500425
2260.000000	20.313897
2259.000000	20.423801
2258.000000	20.761772
2257.000000	20.873797
2256.000000	20.958357
2255.000000	21.088058
2254.000000	21.254152
2253.000000	21.266068
2252.000000	21.401146
2251.000000	21.645868
2250.000000	21.982424
2249.000000	22.188436
2248.000000	22.149731
2247.000000	22.319781
2246.000000	22.519818
2245.000000	22.685975
2244.000000	22.911380
2243.000000	23.030568
2242.000000	23.160483
2241.000000	23.361210
2240.000000	23.415053
2239.000000	23.505541
2238.000000	23.628046
2237.000000	23.755933
2236.000000	23.922677
2235.000000	23.809327
2234.000000	23.777075
2233.000000	23.936430
2232.000000	24.021414
2231.000000	24.022331
2230.000000	24.093747
2229.000000	24.166083
2228.000000	24.178240
2227.000000	24.259823
2226.000000	24.152394
2225.000000	24.222715
2224.000000	24.132316
2223.000000	24.103259
2222.000000	24.140729
2221.000000	24.132471
2220.000000	24.067683
2219.000000	23.930283
2218.000000	23.919796
2217.000000	24.001162
2216.000000	24.068318
2215.000000	24.073487
2214.000000	23.952033
2213.000000	23.985904
2212.000000	23.920801
2211.000000	23.787744
2210.000000	23.681124
2209.000000	23.594031
2208.000000	23.476664
2207.000000	23.477951
2206.000000	23.462149
2205.000000	23.477607
2204.000000	23.400387
2203.000000	23.256928
2202.000000	23.191978
2201.000000	23.207424
2200.000000	23.155560
2199.000000	23.095331
2198.000000	23.080205
2197.000000	22.913564
2196.000000	22.827590
2195.000000	22.723600
2194.000000	22.657988
2193.000000	22.585498
2192.000000	22.555577
2191.000000	22.461672
2190.000000	22.501251
2189.000000	22.566244
2188.000000	22.296554
2187.000000	22.339005
2186.000000	22.337733
2185.000000	22.256707
2184.000000	22.360895
2183.000000	22.293222
2182.000000	22.129151
2181.000000	22.056964
2180.000000	22.107676
2179.000000	22.158143
2178.000000	22.141703
2177.000000	21.962541
2176.000000	22.030016
2175.000000	22.161999
2174.000000	22.182606
2173.000000	22.128734
2172.000000	22.328303
2171.000000	22.234851
2170.000000	22.136978
2169.000000	22.319254
2168.000000	22.435507
2167.000000	22.453403
2166.000000	22.502614
2165.000000	22.676781
2164.000000	22.666499
2163.000000	22.761940
2162.000000	22.927964
2161.000000	23.019773
2160.000000	23.112906
2159.000000	23.200997
2158.000000	23.224035
2157.000000	23.414607
2156.000000	23.321076
2155.000000	23.500168
2154.000000	23.712960
2153.000000	23.941684
2152.000000	23.949500
2151.000000	23.958582
2150.000000	24.180963
2149.000000	24.444117
2148.000000	24.527212
2147.000000	24.800947
2146.000000	24.684596
2145.000000	24.788428
2144.000000	24.843845
2143.000000	25.022617
2142.000000	25.191041
2141.000000	25.314004
2140.000000	25.404008
2139.000000	25.440513
2138.000000	25.724691
2137.000000	25.824913
2136.000000	25.861196
2135.000000	25.947287
2134.000000	26.060293
2133.000000	25.843843
2132.000000	26.106415
2131.000000	26.367604
2130.000000	26.415481
2129.000000	26.562770
2128.000000	26.532503
2127.000000	26.548546
2126.000000	26.689840
2125.000000	26.531383
2124.000000	26.614212
2123.000000	26.633632
2122.000000	26.782146
2121.000000	26.902940
2120.000000	26.650254
2119.000000	26.905709
2118.000000	27.032912
2117.000000	27.036190
2116.000000	27.120369
2115.000000	27.212115
2114.000000	27.183844
2113.000000	27.053193
2112.000000	26.910816
2111.000000	27.227971
2110.000000	27.326187
2109.000000	27.284879
2108.000000	27.243895
2107.000000	27.375342
2106.000000	27.290671
2105.000000	27.434586
2104.000000	27.294835
2103.000000	27.335036
2102.000000	27.331314
2101.000000	27.421799
2100.000000	27.461816
2099.000000	27.428536
2098.000000	27.429584
2097.000000	27.407614
2096.000000	27.390055
2095.000000	27.334928
2094.000000	27.334221
2093.000000	27.405162
2092.000000	27.474207
2091.000000	27.553084
2090.000000	27.352512
2089.000000	27.368732
2088.000000	27.348527
2087.000000	27.402174
2086.000000	27.399519
2085.000000	27.405022
2084.000000	27.293317
2083.000000	27.171595
2082.000000	26.961719
2081.000000	26.899661
2080.000000	26.889051
2079.000000	26.899714
2078.000000	26.814676
2077.000000	26.679658
2076.000000	26.544029
2075.000000	26.465550
2074.000000	26.325373
2073.000000	26.328459
2072.000000	26.227428
2071.000000	26.147546
2070.000000	26.071343
2069.000000	25.909126
2068.000000	25.732906
2067.000000	25.651158
2066.000000	25.495820
2065.000000	25.349886
2064.000000	25.148787
2063.000000	24.970009
2062.000000	24.906736
2061.000000	24.790747
2060.000000	24.582266
2059.000000	24.531132
2058.000000	24.474436
2057.000000	24.326142
2056.000000	24.230253
2055.000000	24.169151
2054.000000	23.987815
2053.000000	23.841682
2052.000000	23.755460
2051.000000	23.595060
2050.000000	23.542126
2049.000000	23.510506
2048.000000	23.392457
2047.000000	23.385661
2046.000000	23.354741
2045.000000	23.268243
2044.000000	23.241179
2043.000000	23.282267
2042.000000	23.332785
2041.000000	23.330189
2040.000000	23.382093
2039.000000	23.402650
2038.000000	23.440563
2037.000000	23.467107
2036.000000	23.496738
2035.000000	23.559724
2034.000000	23.663364
2033.000000	23.735972
2032.000000	23.830138
2031.000000	23.938642
2030.000000	24.023636
2029.000000	24.126856
2028.000000	24.221286
2027.000000	24.333500
2026.000000	24.436719
2025.000000	24.489410
2024.000000	24.549652
2023.000000	24.614659
2022.000000	24.667630
2021.000000	24.699278
2020.000000	24.731956
2019.000000	24.721848
2018.000000	24.726022
2017.000000	24.773357
2016.000000	24.758514
2015.000000	24.720889
2014.000000	24.755410
2013.000000	24.727142
2012.000000	24.656186
2011.000000	24.605207
2010.000000	24.524720
2009.000000	24.491834
2008.000000	24.419127
2007.000000	24.330359
2006.000000	24.250539
2005.000000	24.183077
2004.000000	24.124703
2003.000000	24.033718
2002.000000	23.903157
2001.000000	23.822973
2000.000000	23.774199
1999.000000	23.671484
1998.000000	23.552666
1997.000000	23.484734
1996.000000	23.463062
1995.000000	23.340553
1994.000000	23.206909
1993.000000	23.099745
1992.000000	22.965534
1991.000000	22.886398
1990.000000	22.799693
1989.000000	22.634143
1988.000000	22.498285
1987.000000	22.437131
1986.000000	22.311903
1985.000000	22.273679
1984.000000	22.233603
1983.000000	22.108063
1982.000000	21.983126
1981.000000	21.915237
1980.000000	21.846039
1979.000000	21.722486
1978.000000	21.639020
1977.000000	21.552176
1976.000000	21.408791
1975.000000	21.319844
1974.000000	21.226211
1973.000000	21.170420
1972.000000	21.125302
1971.000000	20.993413
1970.000000	20.891216
1969.000000	20.832060
1968.000000	20.756448
1967.000000	20.683120
1966.000000	20.629491
1965.000000	20.538087
1964.000000	20.426620
1963.000000	20.347326
1962.000000	20.272053
1961.000000	20.197860
1960.000000	20.160907
1959.000000	20.105490
1958.000000	19.988241
1957.000000	19.928251
1956.000000	19.877169
1955.000000	19.792729
1954.000000	19.744992
1953.000000	19.675931
1952.000000	19.610203
1951.000000	19.541411
1950.000000	19.460647
1949.000000	19.452011
1948.000000	19.437508
1947.000000	19.424037
1946.000000	19.454397
1945.000000	19.419181
1944.000000	19.371342
1943.000000	19.294132
1942.000000	19.413896
1941.000000	19.451831
1940.000000	19.422828
1939.000000	19.460653
1938.000000	19.484004
1937.000000	19.557238
1936.000000	19.715226
1935.000000	19.747128
1934.000000	19.711964
1933.000000	19.774756
1932.000000	19.882427
1931.000000	19.967647
1930.000000	20.110002
1929.000000	20.201180
1928.000000	20.397670
1927.000000	20.557941
1926.000000	20.762945
1925.000000	20.942523
1924.000000	21.032952
1923.000000	21.216891
1922.000000	21.516523
1921.000000	21.617186
1920.000000	21.852876
1919.000000	22.152722
1918.000000	22.372638
1917.000000	22.659645
1916.000000	22.879830
1915.000000	23.180587
1914.000000	23.567394
1913.000000	23.983717
1912.000000	24.215855
1911.000000	24.586532
1910.000000	25.049089
1909.000000	25.335764
1908.000000	25.828414
1907.000000	26.277886
1906.000000	26.702448
1905.000000	27.120276
1904.000000	27.620320
1903.000000	28.134395
1902.000000	28.636742
1901.000000	29.123642
1900.000000	29.621226
1899.000000	30.133776
1898.000000	30.729278
1897.000000	31.214789
1896.000000	31.816423
1895.000000	32.319495
1894.000000	32.832026
1893.000000	33.365018
1892.000000	33.864479
1891.000000	34.348494
1890.000000	34.854911
1889.000000	35.294064
1888.000000	35.772414
1887.000000	36.259302
1886.000000	36.669684
1885.000000	37.111930
1884.000000	37.493589
1883.000000	37.923782
1882.000000	38.309897
1881.000000	38.686295
1880.000000	39.095714
1879.000000	39.421340
1878.000000	39.741658
1877.000000	40.080049
1876.000000	40.429826
1875.000000	40.806773
1874.000000	41.026815
1873.000000	41.260255
1872.000000	41.538965
1871.000000	41.861159
1870.000000	42.082883
1869.000000	42.221338
1868.000000	42.379825
1867.000000	42.571199
1866.000000	42.732576
1865.000000	42.792730
1864.000000	42.893402
1863.000000	42.979141
1862.000000	43.119679
1861.000000	43.163952
1860.000000	43.230775
1859.000000	43.298761
1858.000000	43.362459
1857.000000	43.447794
1856.000000	43.480628
1855.000000	43.522004
1854.000000	43.561826
1853.000000	43.613988
1852.000000	43.598049
1851.000000	43.601356
1850.000000	43.624387
1849.000000	43.621670
1848.000000	43.630414
1847.000000	43.667432
1846.000000	43.661228
1845.000000	43.629379
1844.000000	43.579801
1843.000000	43.532276
1842.000000	43.568644
1841.000000	43.527003
1840.000000	43.515081
1839.000000	43.491682
1838.000000	43.448834
1837.000000	43.401000
1836.000000	43.368438
1835.000000	43.348991
1834.000000	43.260084
1833.000000	43.164047
1832.000000	43.120759
1831.000000	43.102487
1830.000000	43.058409
1829.000000	43.003764
1828.000000	42.959029
1827.000000	42.924880
1826.000000	42.861934
1825.000000	42.851081
1824.000000	42.838924
1823.000000	42.779295
1822.000000	42.708263
1821.000000	42.671072
1820.000000	42.622353
1819.000000	42.583888
1818.000000	42.566575
1817.000000	42.517060
1816.000000	42.464870
1815.000000	42.436070
1814.000000	42.391721
1813.000000	42.341204
1812.000000	42.320369
1811.000000	42.269837
1810.000000	42.230001
1809.000000	42.195335
1808.000000	42.143737
1807.000000	42.077252
1806.000000	42.039498
1805.000000	42.028380
1804.000000	41.983746
1803.000000	41.946913
1802.000000	41.909851
1801.000000	41.863457
1800.000000	41.821474
1799.000000	41.803674
1798.000000	41.782261
1797.000000	41.760244
1796.000000	41.742784
1795.000000	41.688658
1794.000000	41.675921
1793.000000	41.656241
1792.000000	41.617378
1791.000000	41.604429
1790.000000	41.561189
1789.000000	41.538856
1788.000000	41.534650
1787.000000	41.504710
1786.000000	41.462911
1785.000000	41.427013
1784.000000	41.387043
1783.000000	41.344760
1782.000000	41.311528
1781.000000	41.267532
1780.000000	41.227068
1779.000000	41.231669
1778.000000	41.176286
1777.000000	41.087164
1776.000000	41.075840
1775.000000	41.021290
1774.000000	40.929395
1773.000000	40.881722
1772.000000	40.816165
1771.000000	40.765643
1770.000000	40.701525
1769.000000	40.645346
1768.000000	40.579251
1767.000000	40.512577
1766.000000	40.469283
1765.000000	40.383180
1764.000000	40.320923
1763.000000	40.273708
1762.000000	40.223674
1761.000000	40.155360
1760.000000	40.051250
1759.000000	39.990138
1758.000000	39.964554
1757.000000	39.906855
1756.000000	39.834686
1755.000000	39.790719
1754.000000	39.726964
1753.000000	39.667792
1752.000000	39.603174
1751.000000	39.542087
1750.000000	39.459020
1749.000000	39.442921
1748.000000	39.354882
1747.000000	39.247421
1746.000000	39.189171
1745.000000	39.107804
1744.000000	39.021165
1743.000000	38.957229
1742.000000	38.895037
1741.000000	38.815461
1740.000000	38.770066
1739.000000	38.695316
1738.000000	38.623149
1737.000000	38.602927
1736.000000	38.545690
1735.000000	38.521549
1734.000000	38.493388
1733.000000	38.455589
1732.000000	38.455154
1731.000000	38.463610
1730.000000	38.422861
1729.000000	38.484686
1728.000000	38.515362
1727.000000	38.565392
1726.000000	38.648492
1725.000000	38.735311
1724.000000	38.795088
1723.000000	38.897617
1722.000000	39.000316
1721.000000	39.122207
1720.000000	39.236865
1719.000000	39.306900
1718.000000	39.420865
1717.000000	39.526806
1716.000000	39.655769
1715.000000	39.761417
1714.000000	39.880706
1713.000000	39.918626
1712.000000	40.033061
1711.000000	40.132550
1710.000000	40.205275
1709.000000	40.277224
1708.000000	40.343979
1707.000000	40.411937
1706.000000	40.489927
1705.000000	40.524998
1704.000000	40.557242
1703.000000	40.589717
1702.000000	40.618063
1701.000000	40.632946
1700.000000	40.667661
1699.000000	40.682801
1698.000000	40.770031
1697.000000	40.737266
1696.000000	40.824691
1695.000000	40.826569
1694.000000	40.856338
1693.000000	40.941623
1692.000000	40.978484
1691.000000	41.039195
1690.000000	41.129469
1689.000000	41.241785
1688.000000	41.382085
1687.000000	41.462390
1686.000000	41.591356
1685.000000	41.751980
1684.000000	41.897998
1683.000000	42.015691
1682.000000	42.203745
1681.000000	42.402197
1680.000000	42.569660
1679.000000	42.744413
1678.000000	42.938189
1677.000000	43.152091
1676.000000	43.323072
1675.000000	43.506394
1674.000000	43.707121
1673.000000	43.900676
1672.000000	44.064585
1671.000000	44.249538
1670.000000	44.412067
1669.000000	44.605755
1668.000000	44.738285
1667.000000	44.875539
1666.000000	44.977664
1665.000000	45.097228
1664.000000	45.233644
1663.000000	45.307712
1662.000000	45.409062
1661.000000	45.505798
1660.000000	45.580089
1659.000000	45.652647
1658.000000	45.731862
1657.000000	45.778753
1656.000000	45.829671
1655.000000	45.863496
1654.000000	45.904347
1653.000000	45.949238
1652.000000	45.951709
1651.000000	45.952099
1650.000000	45.974598
1649.000000	45.978415
1648.000000	45.967404
1647.000000	45.949278
1646.000000	45.950380
1645.000000	45.936066
1644.000000	45.891865
1643.000000	45.876684
1642.000000	45.844574
1641.000000	45.841592
1640.000000	45.822882
1639.000000	45.797765
1638.000000	45.745899
1637.000000	45.717713
1636.000000	45.652772
1635.000000	45.638356
1634.000000	45.595862
1633.000000	45.527755
1632.000000	45.497019
1631.000000	45.443253
1630.000000	45.402445
1629.000000	45.357460
1628.000000	45.308439
1627.000000	45.250381
1626.000000	45.188220
1625.000000	45.146265
1624.000000	45.086494
1623.000000	45.040538
1622.000000	44.983605
1621.000000	44.907683
1620.000000	44.848139
1619.000000	44.785795
1618.000000	44.711495
1617.000000	44.641441
1616.000000	44.572497
1615.000000	44.506617
1614.000000	44.436015
1613.000000	44.376544
1612.000000	44.304418
1611.000000	44.236340
1610.000000	44.159215
1609.000000	44.100805
1608.000000	44.040449
1607.000000	43.943392
1606.000000	43.860137
1605.000000	43.778694
1604.000000	43.686572
1603.000000	43.618539
1602.000000	43.561927
1601.000000	43.499546
1600.000000	43.424866
1599.000000	43.336617
1598.000000	43.267809
1597.000000	43.201247
1596.000000	43.131405
1595.000000	43.065727
1594.000000	42.985918
1593.000000	42.933924
1592.000000	42.875479
1591.000000	42.795906
1590.000000	42.735810
1589.000000	42.665341
1588.000000	42.605126
1587.000000	42.553069
1586.000000	42.481444
1585.000000	42.417270
1584.000000	42.379090
1583.000000	42.324786
1582.000000	42.257184
1581.000000	42.194861
1580.000000	42.138802
1579.000000	42.079670
1578.000000	42.039050
1577.000000	41.980545
1576.000000	41.918220
1575.000000	41.872683
1574.000000	41.819042
1573.000000	41.766406
1572.000000	41.720847
1571.000000	41.672068
1570.000000	41.619256
1569.000000	41.559081
1568.000000	41.503724
1567.000000	41.468532
1566.000000	41.433306
1565.000000	41.383693
1564.000000	41.349427
1563.000000	41.313775
1562.000000	41.270339
1561.000000	41.235136
1560.000000	41.207312
1559.000000	41.176726
1558.000000	41.122643
1557.000000	41.104548
1556.000000	41.104178
1555.000000	41.061314
1554.000000	41.006768
1553.000000	40.969346
1552.000000	40.929152
1551.000000	40.868838
1550.000000	40.796118
1549.000000	40.736204
1548.000000	40.694317
1547.000000	40.633390
1546.000000	40.563985
1545.000000	40.493196
1544.000000	40.407714
1543.000000	40.338172
1542.000000	40.266762
1541.000000	40.151292
1540.000000	40.073942
1539.000000	39.975339
1538.000000	39.872554
1537.000000	39.776187
1536.000000	39.696608
1535.000000	39.604301
1534.000000	39.479838
1533.000000	39.389768
1532.000000	39.295730
1531.000000	39.199215
1530.000000	39.129270
1529.000000	39.011260
1528.000000	38.931838
1527.000000	38.880981
1526.000000	38.818084
1525.000000	38.710819
1524.000000	38.647513
1523.000000	38.576412
1522.000000	38.494459
1521.000000	38.455303
1520.000000	38.409650
1519.000000	38.364510
1518.000000	38.324823
1517.000000	38.247087
1516.000000	38.211477
1515.000000	38.172528
1514.000000	38.145413
1513.000000	38.097029
1512.000000	38.077399
1511.000000	38.022736
1510.000000	38.006166
1509.000000	37.965630
1508.000000	37.947931
1507.000000	37.924579
1506.000000	37.922790
1505.000000	37.899470
1504.000000	37.890781
1503.000000	37.877085
1502.000000	37.853315
1501.000000	37.834603
1500.000000	37.839111
1499.000000	37.828199
1498.000000	37.826067
1497.000000	37.824727
1496.000000	37.831492
1495.000000	37.849633
1494.000000	37.829023
1493.000000	37.860462
1492.000000	37.887811
1491.000000	37.885862
1490.000000	37.921480
1489.000000	37.937630
1488.000000	37.986042
1487.000000	38.013198
1486.000000	38.035729
1485.000000	38.073232
1484.000000	38.107910
1483.000000	38.144976
1482.000000	38.149564
1481.000000	38.199845
1480.000000	38.263052
1479.000000	38.268671
1478.000000	38.319980
1477.000000	38.355365
1476.000000	38.384372
1475.000000	38.420261
1474.000000	38.447824
1473.000000	38.470405
1472.000000	38.515699
1471.000000	38.530243
1470.000000	38.542104
