PE UV       SUBTECH     SPECTRUM    ASCII       PEDS        4.00        
   -1
RDms148361.Sample.asc
18/03/13
17:40:44.00
18/03/13
17:40:44.00
Administrator

200.000000
1
Lambda 750
750N8071901
PerkinElmer UV WinLab 6.0.4.0738 / 1.61.00 Lambda 900

0
0
3350/servo 860.8/2
0
0
UV/VIS
1
1
1
CommonBeamDepol,150mm sphere / downward view
0
0
0
0
Program
Program
3350/servo 860.8/2
3350/0.2 860.8/0.2
3350/0.2 860.8/0.2
0
1
 
 
 
0
 
860.8
319.2
860.8
Front
100
on
 
 
0
0
0
 
0
 
 
 
0
 
 
0
0
0
0
0
 
 
 
 
0
0


0
0
#HDR
-1
-1
#GR
nm
%R
1.0
0.0
2350.000000
-1.000000
2151
8
58.794909
8.117323
#DATA
2350.000000	38.637461
2349.000000	38.807562
2348.000000	38.172066
2347.000000	38.884308
2346.000000	38.304079
2345.000000	38.171354
2344.000000	38.525242
2343.000000	38.445144
2342.000000	38.879556
2341.000000	38.875419
2340.000000	38.770450
2339.000000	38.895712
2338.000000	39.133903
2337.000000	39.330154
2336.000000	39.360622
2335.000000	39.314471
2334.000000	39.169720
2333.000000	39.402180
2332.000000	39.373206
2331.000000	39.381041
2330.000000	39.389428
2329.000000	39.244413
2328.000000	39.183706
2327.000000	39.074825
2326.000000	39.383272
2325.000000	39.066364
2324.000000	38.882416
2323.000000	39.103181
2322.000000	38.711123
2321.000000	39.180437
2320.000000	38.864294
2319.000000	38.886884
2318.000000	38.900689
2317.000000	39.040846
2316.000000	38.850140
2315.000000	38.638487
2314.000000	38.650816
2313.000000	38.709954
2312.000000	38.478501
2311.000000	38.457565
2310.000000	38.253281
2309.000000	38.422247
2308.000000	38.336299
2307.000000	38.299878
2306.000000	38.165208
2305.000000	38.273866
2304.000000	38.382729
2303.000000	38.199691
2302.000000	38.160564
2301.000000	38.244085
2300.000000	38.132875
2299.000000	37.760694
2298.000000	37.818286
2297.000000	37.828204
2296.000000	37.846450
2295.000000	37.755981
2294.000000	37.793706
2293.000000	37.646700
2292.000000	37.550656
2291.000000	37.693492
2290.000000	37.791158
2289.000000	37.632015
2288.000000	37.711046
2287.000000	37.738657
2286.000000	37.653857
2285.000000	37.605568
2284.000000	37.561032
2283.000000	37.488446
2282.000000	37.532280
2281.000000	37.766538
2280.000000	37.660330
2279.000000	37.597723
2278.000000	37.659675
2277.000000	37.723520
2276.000000	37.749872
2275.000000	37.776676
2274.000000	37.847074
2273.000000	37.840420
2272.000000	37.932141
2271.000000	37.870077
2270.000000	38.065957
2269.000000	38.200598
2268.000000	38.177326
2267.000000	38.115254
2266.000000	38.172313
2265.000000	38.257048
2264.000000	38.505284
2263.000000	38.642288
2262.000000	38.725688
2261.000000	38.784171
2260.000000	38.911059
2259.000000	39.016850
2258.000000	39.235239
2257.000000	39.463634
2256.000000	39.476692
2255.000000	39.570797
2254.000000	39.794239
2253.000000	39.975755
2252.000000	40.048400
2251.000000	40.172230
2250.000000	40.310994
2249.000000	40.383181
2248.000000	40.545947
2247.000000	40.617593
2246.000000	40.810108
2245.000000	41.091572
2244.000000	41.339753
2243.000000	41.492808
2242.000000	41.601822
2241.000000	41.628845
2240.000000	41.641071
2239.000000	41.683470
2238.000000	41.758689
2237.000000	41.978693
2236.000000	42.063265
2235.000000	42.135203
2234.000000	42.174702
2233.000000	42.124294
2232.000000	42.202902
2231.000000	42.298605
2230.000000	42.340263
2229.000000	42.336580
2228.000000	42.342047
2227.000000	42.341995
2226.000000	42.186741
2225.000000	42.211503
2224.000000	42.418289
2223.000000	42.355175
2222.000000	42.371077
2221.000000	42.346511
2220.000000	42.303146
2219.000000	42.285610
2218.000000	42.087725
2217.000000	42.202069
2216.000000	42.308779
2215.000000	42.264515
2214.000000	42.290876
2213.000000	42.294387
2212.000000	42.027425
2211.000000	41.930356
2210.000000	42.030624
2209.000000	41.991934
2208.000000	41.928606
2207.000000	41.998598
2206.000000	41.976062
2205.000000	41.851527
2204.000000	41.771068
2203.000000	41.560104
2202.000000	41.554235
2201.000000	41.598129
2200.000000	41.780139
2199.000000	41.559480
2198.000000	41.550702
2197.000000	41.507910
2196.000000	41.428991
2195.000000	41.476658
2194.000000	41.517237
2193.000000	41.413430
2192.000000	41.330622
2191.000000	41.348110
2190.000000	41.283338
2189.000000	41.233833
2188.000000	41.159082
2187.000000	41.093243
2186.000000	41.070364
2185.000000	41.039985
2184.000000	41.020602
2183.000000	40.964682
2182.000000	41.060790
2181.000000	41.065653
2180.000000	41.124419
2179.000000	41.030238
2178.000000	41.171751
2177.000000	41.174573
2176.000000	40.938046
2175.000000	40.977532
2174.000000	40.987568
2173.000000	40.979875
2172.000000	41.023840
2171.000000	41.165122
2170.000000	41.327513
2169.000000	41.296593
2168.000000	41.354632
2167.000000	41.457990
2166.000000	41.374952
2165.000000	41.576950
2164.000000	41.621728
2163.000000	41.534038
2162.000000	41.918828
2161.000000	41.968885
2160.000000	42.012746
2159.000000	41.962155
2158.000000	42.200624
2157.000000	42.207603
2156.000000	42.296949
2155.000000	42.369927
2154.000000	42.541898
2153.000000	42.708610
2152.000000	42.675967
2151.000000	42.868861
2150.000000	42.795945
2149.000000	42.949708
2148.000000	43.103537
2147.000000	43.403969
2146.000000	43.247103
2145.000000	43.455742
2144.000000	43.533463
2143.000000	43.607641
2142.000000	43.689492
2141.000000	43.718512
2140.000000	44.019357
2139.000000	43.992914
2138.000000	44.130939
2137.000000	43.865373
2136.000000	44.068257
2135.000000	44.191676
2134.000000	44.271063
2133.000000	44.240810
2132.000000	44.385323
2131.000000	44.353898
2130.000000	44.576262
2129.000000	44.670948
2128.000000	44.688290
2127.000000	44.562762
2126.000000	44.558874
2125.000000	44.636579
2124.000000	44.725598
2123.000000	44.661842
2122.000000	44.657684
2121.000000	44.787653
2120.000000	44.686914
2119.000000	44.641868
2118.000000	44.894684
2117.000000	44.940213
2116.000000	44.898138
2115.000000	44.837863
2114.000000	44.853271
2113.000000	44.851206
2112.000000	44.849145
2111.000000	44.866512
2110.000000	44.797362
2109.000000	44.904110
2108.000000	44.822678
2107.000000	44.908722
2106.000000	44.906015
2105.000000	44.825882
2104.000000	44.745264
2103.000000	44.755550
2102.000000	44.858887
2101.000000	44.976985
2100.000000	44.959645
2099.000000	44.908397
2098.000000	44.849855
2097.000000	45.033080
2096.000000	44.962636
2095.000000	44.910920
2094.000000	44.820036
2093.000000	44.700862
2092.000000	44.770954
2091.000000	44.715879
2090.000000	44.668284
2089.000000	44.782808
2088.000000	44.783664
2087.000000	44.819326
2086.000000	44.855762
2085.000000	44.835137
2084.000000	44.726445
2083.000000	44.603736
2082.000000	44.493439
2081.000000	44.431423
2080.000000	44.543638
2079.000000	44.483605
2078.000000	44.326764
2077.000000	44.272869
2076.000000	44.264070
2075.000000	44.178913
2074.000000	44.114238
2073.000000	44.144174
2072.000000	44.090085
2071.000000	44.006851
2070.000000	43.944366
2069.000000	43.802277
2068.000000	43.582391
2067.000000	43.566202
2066.000000	43.480102
2065.000000	43.425148
2064.000000	43.297006
2063.000000	43.249540
2062.000000	43.178158
2061.000000	43.091464
2060.000000	42.906249
2059.000000	42.796317
2058.000000	42.766300
2057.000000	42.726302
2056.000000	42.531726
2055.000000	42.398890
2054.000000	42.330916
2053.000000	42.231710
2052.000000	42.211113
2051.000000	42.144254
2050.000000	42.070797
2049.000000	42.045616
2048.000000	41.920284
2047.000000	41.865219
2046.000000	41.808065
2045.000000	41.746903
2044.000000	41.766319
2043.000000	41.798973
2042.000000	41.807679
2041.000000	41.796966
2040.000000	41.755734
2039.000000	41.838562
2038.000000	41.894708
2037.000000	41.792997
2036.000000	41.768445
2035.000000	41.828627
2034.000000	41.890663
2033.000000	41.931138
2032.000000	41.990999
2031.000000	42.043496
2030.000000	42.117587
2029.000000	42.211779
2028.000000	42.276644
2027.000000	42.295085
2026.000000	42.324493
2025.000000	42.386439
2024.000000	42.424050
2023.000000	42.431287
2022.000000	42.477450
2021.000000	42.509233
2020.000000	42.544889
2019.000000	42.537522
2018.000000	42.516897
2017.000000	42.504901
2016.000000	42.468851
2015.000000	42.449144
2014.000000	42.464376
2013.000000	42.427066
2012.000000	42.386573
2011.000000	42.370576
2010.000000	42.319814
2009.000000	42.236091
2008.000000	42.138014
2007.000000	42.093846
2006.000000	42.002537
2005.000000	41.931763
2004.000000	41.902503
2003.000000	41.823391
2002.000000	41.746211
2001.000000	41.636837
2000.000000	41.568702
1999.000000	41.521025
1998.000000	41.476809
1997.000000	41.405044
1996.000000	41.323330
1995.000000	41.235786
1994.000000	41.170448
1993.000000	41.063977
1992.000000	40.924209
1991.000000	40.828050
1990.000000	40.763096
1989.000000	40.676589
1988.000000	40.574113
1987.000000	40.517602
1986.000000	40.449849
1985.000000	40.394876
1984.000000	40.297835
1983.000000	40.265330
1982.000000	40.153397
1981.000000	40.075788
1980.000000	40.022372
1979.000000	39.919386
1978.000000	39.798966
1977.000000	39.715186
1976.000000	39.645955
1975.000000	39.575085
1974.000000	39.491646
1973.000000	39.412462
1972.000000	39.324345
1971.000000	39.183462
1970.000000	39.153276
1969.000000	39.052297
1968.000000	39.047779
1967.000000	38.915892
1966.000000	38.893054
1965.000000	38.818075
1964.000000	38.750899
1963.000000	38.613711
1962.000000	38.566174
1961.000000	38.487341
1960.000000	38.424668
1959.000000	38.344762
1958.000000	38.293465
1957.000000	38.189634
1956.000000	38.175983
1955.000000	38.115515
1954.000000	38.112469
1953.000000	38.022551
1952.000000	37.990316
1951.000000	37.999660
1950.000000	37.982879
1949.000000	37.936780
1948.000000	37.867064
1947.000000	37.832847
1946.000000	37.813947
1945.000000	37.794349
1944.000000	37.794279
1943.000000	37.790718
1942.000000	37.824169
1941.000000	37.805527
1940.000000	37.900303
1939.000000	37.922920
1938.000000	37.984447
1937.000000	38.046638
1936.000000	38.110053
1935.000000	38.075347
1934.000000	38.169886
1933.000000	38.313237
1932.000000	38.447003
1931.000000	38.449724
1930.000000	38.695792
1929.000000	38.687101
1928.000000	38.815368
1927.000000	39.019668
1926.000000	39.134562
1925.000000	39.371423
1924.000000	39.442684
1923.000000	39.612742
1922.000000	39.879378
1921.000000	40.130299
1920.000000	40.180609
1919.000000	40.411249
1918.000000	40.565306
1917.000000	40.801843
1916.000000	41.096031
1915.000000	41.325910
1914.000000	41.627393
1913.000000	41.896477
1912.000000	42.136851
1911.000000	42.446732
1910.000000	42.742604
1909.000000	43.025169
1908.000000	43.223067
1907.000000	43.672695
1906.000000	43.945740
1905.000000	44.215915
1904.000000	44.537738
1903.000000	44.894392
1902.000000	45.188572
1901.000000	45.499361
1900.000000	45.906300
1899.000000	46.175081
1898.000000	46.581470
1897.000000	46.794665
1896.000000	47.136591
1895.000000	47.491595
1894.000000	47.720082
1893.000000	48.068500
1892.000000	48.334829
1891.000000	48.721667
1890.000000	48.886770
1889.000000	49.137566
1888.000000	49.429935
1887.000000	49.674559
1886.000000	49.919926
1885.000000	50.145510
1884.000000	50.400834
1883.000000	50.616447
1882.000000	50.750902
1881.000000	50.930233
1880.000000	51.153031
1879.000000	51.324394
1878.000000	51.489138
1877.000000	51.662082
1876.000000	51.775762
1875.000000	51.990412
1874.000000	52.112797
1873.000000	52.209847
1872.000000	52.356950
1871.000000	52.528742
1870.000000	52.683050
1869.000000	52.693546
1868.000000	52.760481
1867.000000	52.842836
1866.000000	52.923302
1865.000000	52.980418
1864.000000	52.962238
1863.000000	53.076052
1862.000000	53.088219
1861.000000	53.106057
1860.000000	53.142703
1859.000000	53.206059
1858.000000	53.211984
1857.000000	53.172419
1856.000000	53.256030
1855.000000	53.298526
1854.000000	53.311273
1853.000000	53.314525
1852.000000	53.273634
1851.000000	53.342571
1850.000000	53.342498
1849.000000	53.297798
1848.000000	53.337756
1847.000000	53.334886
1846.000000	53.358525
1845.000000	53.361698
1844.000000	53.341952
1843.000000	53.313236
1842.000000	53.318575
1841.000000	53.292890
1840.000000	53.280942
1839.000000	53.283117
1838.000000	53.278910
1837.000000	53.264860
1836.000000	53.272808
1835.000000	53.228152
1834.000000	53.198136
1833.000000	53.194432
1832.000000	53.195477
1831.000000	53.183390
1830.000000	53.161795
1829.000000	53.123034
1828.000000	53.096892
1827.000000	53.080522
1826.000000	53.058969
1825.000000	53.064227
1824.000000	53.057252
1823.000000	53.033531
1822.000000	52.972440
1821.000000	52.957223
1820.000000	52.976091
1819.000000	52.972804
1818.000000	52.954490
1817.000000	52.938124
1816.000000	52.944651
1815.000000	52.940480
1814.000000	52.911057
1813.000000	52.877787
1812.000000	52.866304
1811.000000	52.869464
1810.000000	52.852807
1809.000000	52.860982
1808.000000	52.838439
1807.000000	52.802026
1806.000000	52.806746
1805.000000	52.782203
1804.000000	52.764580
1803.000000	52.768752
1802.000000	52.740485
1801.000000	52.713362
1800.000000	52.712748
1799.000000	52.716384
1798.000000	52.709184
1797.000000	52.684443
1796.000000	52.660565
1795.000000	52.661968
1794.000000	52.661245
1793.000000	52.639171
1792.000000	52.626176
1791.000000	52.627246
1790.000000	52.614909
1789.000000	52.613400
1788.000000	52.624062
1787.000000	52.606288
1786.000000	52.600257
1785.000000	52.594196
1784.000000	52.580246
1783.000000	52.538135
1782.000000	52.503032
1781.000000	52.500220
1780.000000	52.485607
1779.000000	52.480472
1778.000000	52.456621
1777.000000	52.405771
1776.000000	52.384999
1775.000000	52.357255
1774.000000	52.347888
1773.000000	52.339241
1772.000000	52.300769
1771.000000	52.312260
1770.000000	52.285552
1769.000000	52.247408
1768.000000	52.252676
1767.000000	52.213378
1766.000000	52.169462
1765.000000	52.139642
1764.000000	52.123744
1763.000000	52.109714
1762.000000	52.094869
1761.000000	52.072279
1760.000000	52.018423
1759.000000	52.021454
1758.000000	52.020133
1757.000000	52.011032
1756.000000	51.969270
1755.000000	51.942867
1754.000000	51.927204
1753.000000	51.911403
1752.000000	51.914308
1751.000000	51.881686
1750.000000	51.857607
1749.000000	51.830588
1748.000000	51.805472
1747.000000	51.785644
1746.000000	51.744743
1745.000000	51.715504
1744.000000	51.679721
1743.000000	51.641187
1742.000000	51.619867
1741.000000	51.625873
1740.000000	51.589852
1739.000000	51.580862
1738.000000	51.565400
1737.000000	51.539841
1736.000000	51.538779
1735.000000	51.535924
1734.000000	51.526545
1733.000000	51.489691
1732.000000	51.484409
1731.000000	51.547275
1730.000000	51.531029
1729.000000	51.556017
1728.000000	51.548514
1727.000000	51.588317
1726.000000	51.633171
1725.000000	51.686633
1724.000000	51.708666
1723.000000	51.746907
1722.000000	51.821353
1721.000000	51.879352
1720.000000	51.930871
1719.000000	52.008847
1718.000000	51.996948
1717.000000	52.082167
1716.000000	52.107231
1715.000000	52.164538
1714.000000	52.245599
1713.000000	52.270414
1712.000000	52.303287
1711.000000	52.352734
1710.000000	52.395942
1709.000000	52.443854
1708.000000	52.464611
1707.000000	52.477886
1706.000000	52.553888
1705.000000	52.576611
1704.000000	52.588677
1703.000000	52.597130
1702.000000	52.619395
1701.000000	52.654046
1700.000000	52.634269
1699.000000	52.627217
1698.000000	52.674523
1697.000000	52.709711
1696.000000	52.733588
1695.000000	52.764827
1694.000000	52.726691
1693.000000	52.785550
1692.000000	52.791229
1691.000000	52.830809
1690.000000	52.859753
1689.000000	52.913771
1688.000000	52.973794
1687.000000	53.006018
1686.000000	53.062160
1685.000000	53.104423
1684.000000	53.199782
1683.000000	53.242590
1682.000000	53.334298
1681.000000	53.420939
1680.000000	53.480893
1679.000000	53.543843
1678.000000	53.595836
1677.000000	53.721853
1676.000000	53.776701
1675.000000	53.851954
1674.000000	53.917516
1673.000000	53.981111
1672.000000	54.037592
1671.000000	54.107126
1670.000000	54.198655
1669.000000	54.247076
1668.000000	54.315948
1667.000000	54.393790
1666.000000	54.404850
1665.000000	54.429252
1664.000000	54.473973
1663.000000	54.480506
1662.000000	54.568785
1661.000000	54.582922
1660.000000	54.615445
1659.000000	54.656069
1658.000000	54.663775
1657.000000	54.681256
1656.000000	54.724802
1655.000000	54.722037
1654.000000	54.766038
1653.000000	54.765332
1652.000000	54.778247
1651.000000	54.799615
1650.000000	54.785691
1649.000000	54.786912
1648.000000	54.783966
1647.000000	54.770767
1646.000000	54.779137
1645.000000	54.783985
1644.000000	54.760602
1643.000000	54.759080
1642.000000	54.744529
1641.000000	54.745560
1640.000000	54.749258
1639.000000	54.744961
1638.000000	54.718126
1637.000000	54.686329
1636.000000	54.663394
1635.000000	54.658321
1634.000000	54.647708
1633.000000	54.632355
1632.000000	54.631743
1631.000000	54.616935
1630.000000	54.589968
1629.000000	54.583362
1628.000000	54.567232
1627.000000	54.553474
1626.000000	54.541427
1625.000000	54.515294
1624.000000	54.485638
1623.000000	54.472558
1622.000000	54.450522
1621.000000	54.437459
1620.000000	54.417485
1619.000000	54.398754
1618.000000	54.362016
1617.000000	54.354461
1616.000000	54.333891
1615.000000	54.303470
1614.000000	54.276261
1613.000000	54.249427
1612.000000	54.236906
1611.000000	54.209296
1610.000000	54.189083
1609.000000	54.171906
1608.000000	54.155481
1607.000000	54.131521
1606.000000	54.097575
1605.000000	54.064480
1604.000000	54.017663
1603.000000	53.995334
1602.000000	53.994793
1601.000000	53.960637
1600.000000	53.923132
1599.000000	53.897096
1598.000000	53.865518
1597.000000	53.839977
1596.000000	53.826370
1595.000000	53.815850
1594.000000	53.792194
1593.000000	53.787966
1592.000000	53.767331
1591.000000	53.737531
1590.000000	53.715971
1589.000000	53.668973
1588.000000	53.652836
1587.000000	53.646851
1586.000000	53.629245
1585.000000	53.601512
1584.000000	53.580043
1583.000000	53.556856
1582.000000	53.528038
1581.000000	53.530546
1580.000000	53.511601
1579.000000	53.481705
1578.000000	53.486585
1577.000000	53.481912
1576.000000	53.456382
1575.000000	53.437972
1574.000000	53.387788
1573.000000	53.353281
1572.000000	53.356148
1571.000000	53.340385
1570.000000	53.321657
1569.000000	53.300067
1568.000000	53.276322
1567.000000	53.260972
1566.000000	53.247330
1565.000000	53.230079
1564.000000	53.230765
1563.000000	53.224582
1562.000000	53.201983
1561.000000	53.182315
1560.000000	53.175898
1559.000000	53.161145
1558.000000	53.144060
1557.000000	53.154256
1556.000000	53.152209
1555.000000	53.134942
1554.000000	53.117706
1553.000000	53.100729
1552.000000	53.087099
1551.000000	53.068215
1550.000000	53.045152
1549.000000	53.026486
1548.000000	53.029462
1547.000000	53.013602
1546.000000	52.985210
1545.000000	52.962501
1544.000000	52.906956
1543.000000	52.875855
1542.000000	52.838185
1541.000000	52.798069
1540.000000	52.760352
1539.000000	52.726988
1538.000000	52.691359
1537.000000	52.650274
1536.000000	52.618547
1535.000000	52.574987
1534.000000	52.535628
1533.000000	52.528854
1532.000000	52.468420
1531.000000	52.417383
1530.000000	52.408888
1529.000000	52.354979
1528.000000	52.306608
1527.000000	52.283245
1526.000000	52.241924
1525.000000	52.222882
1524.000000	52.177737
1523.000000	52.159116
1522.000000	52.132490
1521.000000	52.113902
1520.000000	52.090499
1519.000000	52.078522
1518.000000	52.083078
1517.000000	52.034196
1516.000000	52.012490
1515.000000	52.005216
1514.000000	51.998472
1513.000000	52.012151
1512.000000	51.986451
1511.000000	51.937308
1510.000000	51.941777
1509.000000	51.918215
1508.000000	51.911828
1507.000000	51.907875
1506.000000	51.888189
1505.000000	51.905262
1504.000000	51.901388
1503.000000	51.897327
1502.000000	51.872668
1501.000000	51.880084
1500.000000	51.879713
1499.000000	51.852410
1498.000000	51.876887
1497.000000	51.867800
1496.000000	51.877964
1495.000000	51.879334
1494.000000	51.869453
1493.000000	51.897379
1492.000000	51.869820
1491.000000	51.883179
1490.000000	51.911641
1489.000000	51.925196
1488.000000	51.930725
1487.000000	51.937470
1486.000000	51.947465
1485.000000	51.945806
1484.000000	51.969576
1483.000000	51.978187
1482.000000	51.977767
1481.000000	52.016243
1480.000000	52.039436
1479.000000	52.045950
1478.000000	52.069315
1477.000000	52.097466
1476.000000	52.077542
1475.000000	52.105164
1474.000000	52.142708
1473.000000	52.133344
1472.000000	52.149174
1471.000000	52.183207
1470.000000	52.188955
