PE UV       SUBTECH     SPECTRUM    ASCII       PEDS        4.00        
   -1
RDms159331.Sample.asc
18/03/13
14:33:14.00
18/03/13
14:33:14.00
Administrator

200.000000
1
Lambda 750
750N8071901
PerkinElmer UV WinLab 6.0.4.0738 / 1.61.00 Lambda 900

0
0
3350/servo 860.8/2
0
0
UV/VIS
1
1
1
CommonBeamDepol,150mm sphere / downward view
0
0
0
0
Program
Program
3350/servo 860.8/2
3350/0.2 860.8/0.2
3350/0.2 860.8/0.2
0
1
 
 
 
0
 
860.8
319.2
860.8
Front
100
on
 
 
0
0
0
 
0
 
 
 
0
 
 
0
0
0
0
0
 
 
 
 
0
0


0
0
#HDR
-1
-1
#GR
nm
%R
1.0
0.0
2350.000000
-1.000000
2151
8
54.004584
6.315720
#DATA
2350.000000	22.378920
2349.000000	21.889697
2348.000000	21.963630
2347.000000	22.350341
2346.000000	21.987032
2345.000000	22.038383
2344.000000	21.963250
2343.000000	22.101995
2342.000000	22.095711
2341.000000	22.017287
2340.000000	22.589490
2339.000000	22.903685
2338.000000	22.922504
2337.000000	22.774444
2336.000000	23.262930
2335.000000	23.314475
2334.000000	23.320539
2333.000000	23.266321
2332.000000	23.324392
2331.000000	23.335891
2330.000000	23.043581
2329.000000	23.207503
2328.000000	22.954208
2327.000000	22.818986
2326.000000	23.234327
2325.000000	22.925736
2324.000000	23.025293
2323.000000	22.788971
2322.000000	22.611386
2321.000000	22.595961
2320.000000	22.554011
2319.000000	22.637921
2318.000000	22.704367
2317.000000	22.440275
2316.000000	22.620426
2315.000000	22.401492
2314.000000	22.363537
2313.000000	22.332390
2312.000000	22.065923
2311.000000	22.033146
2310.000000	21.874874
2309.000000	21.892194
2308.000000	21.832212
2307.000000	21.730129
2306.000000	21.904969
2305.000000	21.703082
2304.000000	21.781042
2303.000000	21.829159
2302.000000	21.717127
2301.000000	21.541166
2300.000000	21.281113
2299.000000	21.422337
2298.000000	21.290088
2297.000000	21.183039
2296.000000	21.316199
2295.000000	21.094949
2294.000000	21.071547
2293.000000	21.282621
2292.000000	21.104400
2291.000000	20.947524
2290.000000	21.147726
2289.000000	21.144359
2288.000000	21.099120
2287.000000	20.939665
2286.000000	20.891961
2285.000000	20.835910
2284.000000	20.790819
2283.000000	20.902769
2282.000000	20.913156
2281.000000	20.829629
2280.000000	20.827085
2279.000000	20.942911
2278.000000	21.020347
2277.000000	20.924348
2276.000000	21.033614
2275.000000	21.137371
2274.000000	21.026758
2273.000000	21.249136
2272.000000	21.332175
2271.000000	21.319002
2270.000000	21.419434
2269.000000	21.498183
2268.000000	21.447905
2267.000000	21.456290
2266.000000	21.589866
2265.000000	21.835036
2264.000000	21.944581
2263.000000	22.001707
2262.000000	22.062811
2261.000000	22.095559
2260.000000	22.268614
2259.000000	22.552899
2258.000000	22.615057
2257.000000	22.882139
2256.000000	23.117044
2255.000000	23.211259
2254.000000	23.397579
2253.000000	23.714359
2252.000000	23.959781
2251.000000	24.091259
2250.000000	24.355085
2249.000000	24.662037
2248.000000	24.779189
2247.000000	24.928437
2246.000000	25.113028
2245.000000	25.282407
2244.000000	25.412011
2243.000000	25.690623
2242.000000	25.776573
2241.000000	25.959212
2240.000000	26.188527
2239.000000	26.265372
2238.000000	26.262335
2237.000000	26.350904
2236.000000	26.551807
2235.000000	26.704778
2234.000000	26.761213
2233.000000	26.810158
2232.000000	26.957425
2231.000000	26.937463
2230.000000	27.038931
2229.000000	27.183793
2228.000000	27.152301
2227.000000	27.116141
2226.000000	27.080290
2225.000000	27.111418
2224.000000	27.063160
2223.000000	26.974365
2222.000000	26.996756
2221.000000	27.091334
2220.000000	27.072595
2219.000000	26.979896
2218.000000	26.985364
2217.000000	27.011927
2216.000000	26.997586
2215.000000	26.903223
2214.000000	26.734074
2213.000000	26.879326
2212.000000	26.795875
2211.000000	26.611671
2210.000000	26.445449
2209.000000	26.396582
2208.000000	26.319625
2207.000000	26.333668
2206.000000	26.220340
2205.000000	26.163072
2204.000000	26.035465
2203.000000	25.965320
2202.000000	25.869278
2201.000000	25.833516
2200.000000	25.792354
2199.000000	25.828700
2198.000000	25.776622
2197.000000	25.659720
2196.000000	25.497393
2195.000000	25.454160
2194.000000	25.362455
2193.000000	25.262204
2192.000000	25.164038
2191.000000	25.213638
2190.000000	25.103425
2189.000000	25.071282
2188.000000	24.971196
2187.000000	24.813583
2186.000000	24.864677
2185.000000	24.931922
2184.000000	24.771563
2183.000000	24.806004
2182.000000	24.618007
2181.000000	24.659800
2180.000000	24.725452
2179.000000	24.660705
2178.000000	24.629475
2177.000000	24.641281
2176.000000	24.506135
2175.000000	24.578739
2174.000000	24.658216
2173.000000	24.772210
2172.000000	24.806297
2171.000000	24.687889
2170.000000	24.834189
2169.000000	25.009646
2168.000000	25.085612
2167.000000	25.062789
2166.000000	25.086410
2165.000000	25.165436
2164.000000	25.122557
2163.000000	25.138252
2162.000000	25.387495
2161.000000	25.551279
2160.000000	25.625953
2159.000000	25.675754
2158.000000	25.873005
2157.000000	26.098274
2156.000000	26.090059
2155.000000	26.215029
2154.000000	26.478649
2153.000000	26.544984
2152.000000	26.860377
2151.000000	26.856781
2150.000000	26.997419
2149.000000	27.012057
2148.000000	27.027079
2147.000000	27.383558
2146.000000	27.490544
2145.000000	27.735434
2144.000000	27.734177
2143.000000	27.890001
2142.000000	27.988127
2141.000000	28.076941
2140.000000	28.356337
2139.000000	28.502788
2138.000000	28.818205
2137.000000	28.591198
2136.000000	28.805009
2135.000000	28.773432
2134.000000	29.013036
2133.000000	28.854314
2132.000000	29.050508
2131.000000	29.366791
2130.000000	29.433225
2129.000000	29.357551
2128.000000	29.405908
2127.000000	29.641514
2126.000000	29.670004
2125.000000	29.582343
2124.000000	29.712437
2123.000000	29.701500
2122.000000	29.836090
2121.000000	29.828724
2120.000000	29.863026
2119.000000	29.827871
2118.000000	29.928617
2117.000000	30.081986
2116.000000	30.114067
2115.000000	30.209280
2114.000000	30.141729
2113.000000	30.184643
2112.000000	30.221645
2111.000000	30.234296
2110.000000	30.239523
2109.000000	30.270354
2108.000000	30.330543
2107.000000	30.487328
2106.000000	30.302246
2105.000000	30.292563
2104.000000	30.306567
2103.000000	30.429663
2102.000000	30.414835
2101.000000	30.468666
2100.000000	30.548627
2099.000000	30.587970
2098.000000	30.430978
2097.000000	30.602816
2096.000000	30.431783
2095.000000	30.474073
2094.000000	30.445240
2093.000000	30.334926
2092.000000	30.456179
2091.000000	30.412123
2090.000000	30.280733
2089.000000	30.307035
2088.000000	30.317238
2087.000000	30.409959
2086.000000	30.392934
2085.000000	30.292440
2084.000000	30.137978
2083.000000	30.046992
2082.000000	29.966524
2081.000000	29.946549
2080.000000	29.919574
2079.000000	29.779030
2078.000000	29.732064
2077.000000	29.634011
2076.000000	29.548283
2075.000000	29.480286
2074.000000	29.383039
2073.000000	29.225752
2072.000000	29.056328
2071.000000	28.939677
2070.000000	28.780369
2069.000000	28.649509
2068.000000	28.397421
2067.000000	28.212163
2066.000000	28.127791
2065.000000	28.021705
2064.000000	27.922648
2063.000000	27.759163
2062.000000	27.640354
2061.000000	27.392607
2060.000000	27.256209
2059.000000	27.121075
2058.000000	27.018031
2057.000000	26.859367
2056.000000	26.708742
2055.000000	26.573465
2054.000000	26.352220
2053.000000	26.235697
2052.000000	26.185454
2051.000000	26.089718
2050.000000	25.984355
2049.000000	25.881967
2048.000000	25.803128
2047.000000	25.733983
2046.000000	25.627940
2045.000000	25.580950
2044.000000	25.611651
2043.000000	25.618039
2042.000000	25.586938
2041.000000	25.605404
2040.000000	25.710841
2039.000000	25.713729
2038.000000	25.676750
2037.000000	25.716578
2036.000000	25.806087
2035.000000	25.874585
2034.000000	25.903311
2033.000000	26.005839
2032.000000	26.148919
2031.000000	26.233626
2030.000000	26.296141
2029.000000	26.438821
2028.000000	26.569260
2027.000000	26.658377
2026.000000	26.764059
2025.000000	26.830187
2024.000000	26.885703
2023.000000	26.945195
2022.000000	26.999323
2021.000000	26.998108
2020.000000	27.051499
2019.000000	27.107755
2018.000000	27.125223
2017.000000	27.132045
2016.000000	27.087165
2015.000000	27.070720
2014.000000	27.026964
2013.000000	26.996819
2012.000000	26.991565
2011.000000	26.948291
2010.000000	26.835316
2009.000000	26.746485
2008.000000	26.685498
2007.000000	26.578921
2006.000000	26.497026
2005.000000	26.424484
2004.000000	26.333654
2003.000000	26.241539
2002.000000	26.132793
2001.000000	25.998754
2000.000000	25.912722
1999.000000	25.816948
1998.000000	25.691979
1997.000000	25.565820
1996.000000	25.521011
1995.000000	25.417562
1994.000000	25.268340
1993.000000	25.114345
1992.000000	25.026705
1991.000000	24.881657
1990.000000	24.784338
1989.000000	24.631699
1988.000000	24.528250
1987.000000	24.427365
1986.000000	24.301583
1985.000000	24.167905
1984.000000	24.106155
1983.000000	24.059269
1982.000000	23.935200
1981.000000	23.797386
1980.000000	23.695823
1979.000000	23.552693
1978.000000	23.466765
1977.000000	23.320499
1976.000000	23.221931
1975.000000	23.109318
1974.000000	23.037047
1973.000000	22.948132
1972.000000	22.844298
1971.000000	22.687106
1970.000000	22.618291
1969.000000	22.560022
1968.000000	22.456843
1967.000000	22.306570
1966.000000	22.258002
1965.000000	22.213600
1964.000000	22.095582
1963.000000	21.982980
1962.000000	21.866901
1961.000000	21.774044
1960.000000	21.693984
1959.000000	21.573287
1958.000000	21.498007
1957.000000	21.443162
1956.000000	21.369175
1955.000000	21.319300
1954.000000	21.250173
1953.000000	21.177598
1952.000000	21.114894
1951.000000	21.160085
1950.000000	21.076260
1949.000000	20.978506
1948.000000	20.984720
1947.000000	20.908850
1946.000000	20.871126
1945.000000	20.845704
1944.000000	20.851482
1943.000000	20.829299
1942.000000	20.887090
1941.000000	20.896385
1940.000000	21.011414
1939.000000	20.982874
1938.000000	21.009736
1937.000000	21.137190
1936.000000	21.183109
1935.000000	21.248006
1934.000000	21.266855
1933.000000	21.423393
1932.000000	21.519445
1931.000000	21.593993
1930.000000	21.774265
1929.000000	21.845786
1928.000000	22.064987
1927.000000	22.296766
1926.000000	22.469308
1925.000000	22.594465
1924.000000	22.829899
1923.000000	23.092677
1922.000000	23.358817
1921.000000	23.650806
1920.000000	23.752977
1919.000000	24.089576
1918.000000	24.364364
1917.000000	24.716991
1916.000000	24.935771
1915.000000	25.337563
1914.000000	25.697036
1913.000000	26.131524
1912.000000	26.503803
1911.000000	26.876052
1910.000000	27.309703
1909.000000	27.698430
1908.000000	28.216088
1907.000000	28.688899
1906.000000	29.228062
1905.000000	29.630624
1904.000000	30.261414
1903.000000	30.747060
1902.000000	31.246012
1901.000000	31.858196
1900.000000	32.331654
1899.000000	32.958934
1898.000000	33.565270
1897.000000	34.105513
1896.000000	34.675944
1895.000000	35.281076
1894.000000	35.887333
1893.000000	36.373132
1892.000000	36.953043
1891.000000	37.486345
1890.000000	38.028801
1889.000000	38.523834
1888.000000	38.945079
1887.000000	39.520069
1886.000000	39.953964
1885.000000	40.369266
1884.000000	40.809300
1883.000000	41.249950
1882.000000	41.685323
1881.000000	42.053575
1880.000000	42.503004
1879.000000	42.860054
1878.000000	43.161962
1877.000000	43.483071
1876.000000	43.836118
1875.000000	44.157841
1874.000000	44.451615
1873.000000	44.663556
1872.000000	44.854117
1871.000000	45.101378
1870.000000	45.337960
1869.000000	45.547299
1868.000000	45.732940
1867.000000	45.887052
1866.000000	46.018216
1865.000000	46.109326
1864.000000	46.178852
1863.000000	46.314232
1862.000000	46.436406
1861.000000	46.518332
1860.000000	46.548028
1859.000000	46.604421
1858.000000	46.669403
1857.000000	46.725560
1856.000000	46.781381
1855.000000	46.805150
1854.000000	46.933278
1853.000000	46.915350
1852.000000	46.904093
1851.000000	46.946650
1850.000000	46.988116
1849.000000	46.957577
1848.000000	46.925474
1847.000000	46.925238
1846.000000	46.922663
1845.000000	46.931794
1844.000000	46.928006
1843.000000	46.879843
1842.000000	46.847452
1841.000000	46.827553
1840.000000	46.813411
1839.000000	46.776764
1838.000000	46.693969
1837.000000	46.642968
1836.000000	46.596255
1835.000000	46.576891
1834.000000	46.502166
1833.000000	46.475475
1832.000000	46.430836
1831.000000	46.356965
1830.000000	46.288613
1829.000000	46.264813
1828.000000	46.254751
1827.000000	46.217027
1826.000000	46.157817
1825.000000	46.123947
1824.000000	46.111372
1823.000000	46.069326
1822.000000	45.985500
1821.000000	45.934741
1820.000000	45.892938
1819.000000	45.841148
1818.000000	45.809126
1817.000000	45.747131
1816.000000	45.717285
1815.000000	45.694392
1814.000000	45.661812
1813.000000	45.617637
1812.000000	45.580932
1811.000000	45.563747
1810.000000	45.509545
1809.000000	45.466807
1808.000000	45.443148
1807.000000	45.399042
1806.000000	45.354716
1805.000000	45.312491
1804.000000	45.278958
1803.000000	45.253988
1802.000000	45.228461
1801.000000	45.188521
1800.000000	45.155475
1799.000000	45.116866
1798.000000	45.090168
1797.000000	45.064142
1796.000000	45.038504
1795.000000	45.018661
1794.000000	44.989862
1793.000000	44.949004
1792.000000	44.922093
1791.000000	44.916905
1790.000000	44.870733
1789.000000	44.852085
1788.000000	44.843241
1787.000000	44.805403
1786.000000	44.818225
1785.000000	44.800516
1784.000000	44.753057
1783.000000	44.723472
1782.000000	44.693624
1781.000000	44.630524
1780.000000	44.584278
1779.000000	44.556450
1778.000000	44.534210
1777.000000	44.460590
1776.000000	44.417279
1775.000000	44.329841
1774.000000	44.236283
1773.000000	44.183392
1772.000000	44.135976
1771.000000	44.105316
1770.000000	44.046708
1769.000000	43.967165
1768.000000	43.894159
1767.000000	43.827935
1766.000000	43.764816
1765.000000	43.723653
1764.000000	43.665518
1763.000000	43.610005
1762.000000	43.549014
1761.000000	43.489497
1760.000000	43.428079
1759.000000	43.372053
1758.000000	43.326885
1757.000000	43.293335
1756.000000	43.189979
1755.000000	43.167430
1754.000000	43.110242
1753.000000	43.032692
1752.000000	42.979655
1751.000000	42.919496
1750.000000	42.845661
1749.000000	42.829991
1748.000000	42.710679
1747.000000	42.642488
1746.000000	42.559085
1745.000000	42.469864
1744.000000	42.404502
1743.000000	42.356025
1742.000000	42.275418
1741.000000	42.209493
1740.000000	42.149888
1739.000000	42.088706
1738.000000	42.029132
1737.000000	41.986286
1736.000000	41.913313
1735.000000	41.886985
1734.000000	41.878421
1733.000000	41.854407
1732.000000	41.810927
1731.000000	41.856163
1730.000000	41.839624
1729.000000	41.873639
1728.000000	41.913043
1727.000000	41.948361
1726.000000	42.018707
1725.000000	42.049959
1724.000000	42.143596
1723.000000	42.224708
1722.000000	42.341572
1721.000000	42.411553
1720.000000	42.544572
1719.000000	42.652853
1718.000000	42.757629
1717.000000	42.888380
1716.000000	42.990675
1715.000000	43.093967
1714.000000	43.196783
1713.000000	43.248661
1712.000000	43.349891
1711.000000	43.474651
1710.000000	43.583297
1709.000000	43.623629
1708.000000	43.644803
1707.000000	43.738217
1706.000000	43.785932
1705.000000	43.825769
1704.000000	43.888730
1703.000000	43.887527
1702.000000	43.923065
1701.000000	43.946480
1700.000000	43.958499
1699.000000	43.950985
1698.000000	44.036014
1697.000000	44.092927
1696.000000	44.098074
1695.000000	44.136730
1694.000000	44.163915
1693.000000	44.227148
1692.000000	44.308929
1691.000000	44.357003
1690.000000	44.431344
1689.000000	44.529399
1688.000000	44.606964
1687.000000	44.729029
1686.000000	44.833857
1685.000000	44.988004
1684.000000	45.127687
1683.000000	45.271689
1682.000000	45.459155
1681.000000	45.600377
1680.000000	45.754786
1679.000000	45.931402
1678.000000	46.101322
1677.000000	46.279969
1676.000000	46.456762
1675.000000	46.650972
1674.000000	46.804487
1673.000000	46.982955
1672.000000	47.158833
1671.000000	47.281567
1670.000000	47.452366
1669.000000	47.649967
1668.000000	47.766804
1667.000000	47.910207
1666.000000	47.982447
1665.000000	48.097168
1664.000000	48.189145
1663.000000	48.263059
1662.000000	48.373555
1661.000000	48.446394
1660.000000	48.498137
1659.000000	48.551455
1658.000000	48.591348
1657.000000	48.663618
1656.000000	48.709855
1655.000000	48.748676
1654.000000	48.757354
1653.000000	48.795883
1652.000000	48.810130
1651.000000	48.808150
1650.000000	48.802111
1649.000000	48.816348
1648.000000	48.796473
1647.000000	48.805892
1646.000000	48.782469
1645.000000	48.776611
1644.000000	48.739113
1643.000000	48.718711
1642.000000	48.704815
1641.000000	48.690284
1640.000000	48.664265
1639.000000	48.630440
1638.000000	48.580719
1637.000000	48.534173
1636.000000	48.475608
1635.000000	48.454408
1634.000000	48.441627
1633.000000	48.380395
1632.000000	48.335044
1631.000000	48.290505
1630.000000	48.253312
1629.000000	48.209233
1628.000000	48.171843
1627.000000	48.111229
1626.000000	48.038705
1625.000000	47.998030
1624.000000	47.952706
1623.000000	47.888532
1622.000000	47.835625
1621.000000	47.766100
1620.000000	47.729512
1619.000000	47.688324
1618.000000	47.606661
1617.000000	47.548258
1616.000000	47.482255
1615.000000	47.410595
1614.000000	47.345455
1613.000000	47.276823
1612.000000	47.225209
1611.000000	47.161304
1610.000000	47.094855
1609.000000	47.038391
1608.000000	46.966816
1607.000000	46.895454
1606.000000	46.825046
1605.000000	46.756720
1604.000000	46.668103
1603.000000	46.589593
1602.000000	46.534481
1601.000000	46.472679
1600.000000	46.398911
1599.000000	46.329248
1598.000000	46.264445
1597.000000	46.213319
1596.000000	46.156942
1595.000000	46.077040
1594.000000	46.006748
1593.000000	45.959584
1592.000000	45.884226
1591.000000	45.802155
1590.000000	45.745728
1589.000000	45.679442
1588.000000	45.619287
1587.000000	45.565258
1586.000000	45.501306
1585.000000	45.453497
1584.000000	45.408704
1583.000000	45.353815
1582.000000	45.291298
1581.000000	45.247795
1580.000000	45.201903
1579.000000	45.144723
1578.000000	45.101954
1577.000000	45.037564
1576.000000	44.979637
1575.000000	44.938840
1574.000000	44.871879
1573.000000	44.819660
1572.000000	44.775982
1571.000000	44.709435
1570.000000	44.662920
1569.000000	44.605452
1568.000000	44.567671
1567.000000	44.526625
1566.000000	44.467700
1565.000000	44.426628
1564.000000	44.394019
1563.000000	44.363491
1562.000000	44.313433
1561.000000	44.270457
1560.000000	44.243387
1559.000000	44.205182
1558.000000	44.156426
1557.000000	44.128146
1556.000000	44.087650
1555.000000	44.065896
1554.000000	44.028791
1553.000000	43.983389
1552.000000	43.937908
1551.000000	43.899705
1550.000000	43.845009
1549.000000	43.804176
1548.000000	43.751522
1547.000000	43.686517
1546.000000	43.628956
1545.000000	43.544811
1544.000000	43.454448
1543.000000	43.374866
1542.000000	43.301693
1541.000000	43.184214
1540.000000	43.110567
1539.000000	43.022260
1538.000000	42.910368
1537.000000	42.817386
1536.000000	42.734163
1535.000000	42.634398
1534.000000	42.536315
1533.000000	42.465992
1532.000000	42.351379
1531.000000	42.262241
1530.000000	42.191635
1529.000000	42.092391
1528.000000	42.018805
1527.000000	41.935350
1526.000000	41.864472
1525.000000	41.778608
1524.000000	41.722679
1523.000000	41.656517
1522.000000	41.566598
1521.000000	41.532164
1520.000000	41.480081
1519.000000	41.438659
1518.000000	41.400938
1517.000000	41.333631
1516.000000	41.310244
1515.000000	41.253961
1514.000000	41.205531
1513.000000	41.201537
1512.000000	41.171457
1511.000000	41.113695
1510.000000	41.091681
1509.000000	41.045650
1508.000000	41.044606
1507.000000	41.018948
1506.000000	41.004264
1505.000000	40.996038
1504.000000	40.978010
1503.000000	40.956235
1502.000000	40.928342
1501.000000	40.920460
1500.000000	40.923019
1499.000000	40.891607
1498.000000	40.898641
1497.000000	40.904101
1496.000000	40.893405
1495.000000	40.905497
1494.000000	40.895203
1493.000000	40.909610
1492.000000	40.915504
1491.000000	40.931214
1490.000000	40.953784
1489.000000	40.969219
1488.000000	40.988887
1487.000000	40.995786
1486.000000	41.025874
1485.000000	41.053029
1484.000000	41.066341
1483.000000	41.121122
1482.000000	41.124399
1481.000000	41.169119
1480.000000	41.210739
1479.000000	41.211226
1478.000000	41.246084
1477.000000	41.275805
1476.000000	41.299012
1475.000000	41.327558
1474.000000	41.355578
1473.000000	41.363991
1472.000000	41.420026
1471.000000	41.440075
1470.000000	41.468825
