PE UV       SUBTECH     SPECTRUM    ASCII       PEDS        4.00        
   -1
RDms159341.Sample.asc
18/03/13
15:24:10.00
18/03/13
15:24:10.00
Administrator

200.000000
1
Lambda 750
750N8071901
PerkinElmer UV WinLab 6.0.4.0738 / 1.61.00 Lambda 900

0
0
3350/servo 860.8/2
0
0
UV/VIS
1
1
1
CommonBeamDepol,150mm sphere / downward view
0
0
0
0
Program
Program
3350/servo 860.8/2
3350/0.2 860.8/0.2
3350/0.2 860.8/0.2
0
1
 
 
 
0
 
860.8
319.2
860.8
Front
100
on
 
 
0
0
0
 
0
 
 
 
0
 
 
0
0
0
0
0
 
 
 
 
0
0


0
0
#HDR
-1
-1
#GR
nm
%R
1.0
0.0
2350.000000
-1.000000
2151
8
52.316061
5.373025
#DATA
2350.000000	19.806832
2349.000000	19.998126
2348.000000	19.706811
2347.000000	20.473952
2346.000000	20.163521
2345.000000	20.018937
2344.000000	20.298988
2343.000000	19.586875
2342.000000	20.140935
2341.000000	20.050182
2340.000000	20.313277
2339.000000	20.595127
2338.000000	20.531495
2337.000000	21.025243
2336.000000	21.230922
2335.000000	21.159456
2334.000000	20.969028
2333.000000	21.100429
2332.000000	21.326944
2331.000000	21.058573
2330.000000	21.159008
2329.000000	21.004575
2328.000000	21.024654
2327.000000	21.061271
2326.000000	21.187979
2325.000000	20.959901
2324.000000	21.023023
2323.000000	20.896314
2322.000000	20.646221
2321.000000	20.623093
2320.000000	20.566666
2319.000000	20.637388
2318.000000	20.488043
2317.000000	20.677146
2316.000000	20.547337
2315.000000	20.299048
2314.000000	20.226440
2313.000000	20.286506
2312.000000	20.288064
2311.000000	20.296683
2310.000000	20.075166
2309.000000	20.060407
2308.000000	19.935834
2307.000000	19.823684
2306.000000	19.784226
2305.000000	19.638667
2304.000000	19.809183
2303.000000	20.015000
2302.000000	19.910492
2301.000000	19.641494
2300.000000	19.541645
2299.000000	19.457316
2298.000000	19.284057
2297.000000	19.324704
2296.000000	19.468399
2295.000000	19.372010
2294.000000	19.208663
2293.000000	19.116851
2292.000000	19.291947
2291.000000	19.372281
2290.000000	19.159986
2289.000000	19.036255
2288.000000	19.309098
2287.000000	19.372818
2286.000000	19.080962
2285.000000	19.071857
2284.000000	18.959240
2283.000000	18.930403
2282.000000	19.001134
2281.000000	18.983935
2280.000000	18.915903
2279.000000	18.989155
2278.000000	18.897569
2277.000000	19.022428
2276.000000	19.176006
2275.000000	19.229626
2274.000000	19.276637
2273.000000	19.334319
2272.000000	19.326112
2271.000000	19.397508
2270.000000	19.385632
2269.000000	19.365059
2268.000000	19.505812
2267.000000	19.688546
2266.000000	19.822922
2265.000000	19.852944
2264.000000	19.829219
2263.000000	19.905646
2262.000000	20.107431
2261.000000	20.344938
2260.000000	20.430768
2259.000000	20.411791
2258.000000	20.686542
2257.000000	20.931386
2256.000000	20.951389
2255.000000	21.049194
2254.000000	21.151474
2253.000000	21.341832
2252.000000	21.572678
2251.000000	21.872087
2250.000000	21.987677
2249.000000	22.057742
2248.000000	22.329306
2247.000000	22.420948
2246.000000	22.548170
2245.000000	22.721812
2244.000000	22.907746
2243.000000	23.127253
2242.000000	23.243227
2241.000000	23.229083
2240.000000	23.416163
2239.000000	23.474055
2238.000000	23.517216
2237.000000	23.697364
2236.000000	23.814497
2235.000000	23.978305
2234.000000	24.063764
2233.000000	23.998494
2232.000000	23.930373
2231.000000	23.905956
2230.000000	24.013518
2229.000000	24.116066
2228.000000	24.208821
2227.000000	24.243770
2226.000000	24.093846
2225.000000	24.049917
2224.000000	24.222971
2223.000000	24.304055
2222.000000	24.204820
2221.000000	24.151051
2220.000000	24.160021
2219.000000	23.997319
2218.000000	23.939890
2217.000000	23.981386
2216.000000	24.073465
2215.000000	24.057646
2214.000000	24.029276
2213.000000	23.993778
2212.000000	23.779634
2211.000000	23.690158
2210.000000	23.674260
2209.000000	23.576368
2208.000000	23.526027
2207.000000	23.383407
2206.000000	23.416184
2205.000000	23.373314
2204.000000	23.248730
2203.000000	23.290513
2202.000000	23.231284
2201.000000	23.033278
2200.000000	22.984306
2199.000000	23.048256
2198.000000	22.963114
2197.000000	22.966598
2196.000000	22.704168
2195.000000	22.587505
2194.000000	22.626821
2193.000000	22.553859
2192.000000	22.553053
2191.000000	22.523735
2190.000000	22.479557
2189.000000	22.518269
2188.000000	22.442539
2187.000000	22.374470
2186.000000	22.354849
2185.000000	22.299996
2184.000000	22.160031
2183.000000	22.294531
2182.000000	22.180302
2181.000000	22.290262
2180.000000	22.075447
2179.000000	22.110427
2178.000000	22.010577
2177.000000	22.093378
2176.000000	22.061936
2175.000000	21.984980
2174.000000	22.099707
2173.000000	22.163163
2172.000000	22.186120
2171.000000	22.395584
2170.000000	22.210873
2169.000000	22.412400
2168.000000	22.398004
2167.000000	22.525392
2166.000000	22.512978
2165.000000	22.423054
2164.000000	22.604291
2163.000000	22.683011
2162.000000	22.816432
2161.000000	23.030340
2160.000000	23.095845
2159.000000	23.314826
2158.000000	23.361962
2157.000000	23.561665
2156.000000	23.486245
2155.000000	23.654712
2154.000000	23.771747
2153.000000	24.005067
2152.000000	24.016671
2151.000000	24.129466
2150.000000	24.158184
2149.000000	24.334601
2148.000000	24.291383
2147.000000	24.608679
2146.000000	24.717838
2145.000000	24.972578
2144.000000	24.950779
2143.000000	25.107555
2142.000000	25.086851
2141.000000	25.289846
2140.000000	25.431228
2139.000000	25.489866
2138.000000	25.814275
2137.000000	25.719745
2136.000000	25.847428
2135.000000	25.809529
2134.000000	25.953200
2133.000000	25.815889
2132.000000	26.008131
2131.000000	26.282320
2130.000000	26.551615
2129.000000	26.492223
2128.000000	26.471251
2127.000000	26.532351
2126.000000	26.673173
2125.000000	26.651561
2124.000000	26.709624
2123.000000	26.714595
2122.000000	26.930314
2121.000000	26.938011
2120.000000	26.828742
2119.000000	26.899385
2118.000000	27.025175
2117.000000	26.943978
2116.000000	27.042121
2115.000000	27.204978
2114.000000	26.985164
2113.000000	27.148085
2112.000000	27.161058
2111.000000	27.013082
2110.000000	27.141961
2109.000000	27.329973
2108.000000	27.251439
2107.000000	27.256170
2106.000000	27.357572
2105.000000	27.329581
2104.000000	27.221809
2103.000000	27.309115
2102.000000	27.295327
2101.000000	27.339131
2100.000000	27.303637
2099.000000	27.454304
2098.000000	27.439652
2097.000000	27.382719
2096.000000	27.454217
2095.000000	27.351439
2094.000000	27.424827
2093.000000	27.392386
2092.000000	27.454880
2091.000000	27.349147
2090.000000	27.270879
2089.000000	27.311221
2088.000000	27.260436
2087.000000	27.274449
2086.000000	27.357793
2085.000000	27.294073
2084.000000	27.189589
2083.000000	26.964462
2082.000000	26.879186
2081.000000	26.942651
2080.000000	26.941956
2079.000000	26.866758
2078.000000	26.749979
2077.000000	26.696889
2076.000000	26.579708
2075.000000	26.520065
2074.000000	26.330811
2073.000000	26.279870
2072.000000	26.177852
2071.000000	26.044380
2070.000000	25.874048
2069.000000	25.870107
2068.000000	25.693006
2067.000000	25.449639
2066.000000	25.320818
2065.000000	25.173847
2064.000000	25.029757
2063.000000	24.975659
2062.000000	24.905829
2061.000000	24.703851
2060.000000	24.576118
2059.000000	24.491646
2058.000000	24.414959
2057.000000	24.297208
2056.000000	24.197396
2055.000000	24.078825
2054.000000	23.990841
2053.000000	23.847332
2052.000000	23.688812
2051.000000	23.555141
2050.000000	23.446917
2049.000000	23.387759
2048.000000	23.343823
2047.000000	23.288096
2046.000000	23.241616
2045.000000	23.219537
2044.000000	23.183802
2043.000000	23.165957
2042.000000	23.194908
2041.000000	23.273788
2040.000000	23.320403
2039.000000	23.322160
2038.000000	23.382381
2037.000000	23.437536
2036.000000	23.485231
2035.000000	23.509445
2034.000000	23.574953
2033.000000	23.696514
2032.000000	23.765542
2031.000000	23.832980
2030.000000	23.965807
2029.000000	24.105459
2028.000000	24.219369
2027.000000	24.267092
2026.000000	24.371490
2025.000000	24.481733
2024.000000	24.516615
2023.000000	24.572124
2022.000000	24.609044
2021.000000	24.627070
2020.000000	24.685582
2019.000000	24.631093
2018.000000	24.605557
2017.000000	24.640078
2016.000000	24.681747
2015.000000	24.697662
2014.000000	24.675792
2013.000000	24.635683
2012.000000	24.611722
2011.000000	24.606218
2010.000000	24.532301
2009.000000	24.424106
2008.000000	24.347244
2007.000000	24.254750
2006.000000	24.167168
2005.000000	24.105641
2004.000000	24.013957
2003.000000	23.946550
2002.000000	23.882022
2001.000000	23.765234
2000.000000	23.650544
1999.000000	23.604751
1998.000000	23.513953
1997.000000	23.392929
1996.000000	23.311753
1995.000000	23.235954
1994.000000	23.126576
1993.000000	23.025573
1992.000000	22.899681
1991.000000	22.776022
1990.000000	22.686764
1989.000000	22.585583
1988.000000	22.460950
1987.000000	22.342425
1986.000000	22.230441
1985.000000	22.176827
1984.000000	22.115290
1983.000000	22.020707
1982.000000	21.949827
1981.000000	21.842991
1980.000000	21.767990
1979.000000	21.674101
1978.000000	21.539019
1977.000000	21.473427
1976.000000	21.357375
1975.000000	21.277741
1974.000000	21.204046
1973.000000	21.103627
1972.000000	21.022268
1971.000000	20.895284
1970.000000	20.883528
1969.000000	20.765285
1968.000000	20.667129
1967.000000	20.597355
1966.000000	20.568891
1965.000000	20.454513
1964.000000	20.366819
1963.000000	20.259705
1962.000000	20.163106
1961.000000	20.061663
1960.000000	20.044846
1959.000000	19.934564
1958.000000	19.879959
1957.000000	19.801283
1956.000000	19.812458
1955.000000	19.656625
1954.000000	19.667300
1953.000000	19.545830
1952.000000	19.557042
1951.000000	19.502575
1950.000000	19.478439
1949.000000	19.475065
1948.000000	19.399697
1947.000000	19.370939
1946.000000	19.334904
1945.000000	19.304955
1944.000000	19.273367
1943.000000	19.302722
1942.000000	19.313837
1941.000000	19.262160
1940.000000	19.395455
1939.000000	19.455099
1938.000000	19.484812
1937.000000	19.504442
1936.000000	19.585407
1935.000000	19.669904
1934.000000	19.674232
1933.000000	19.689033
1932.000000	19.880509
1931.000000	19.961894
1930.000000	20.131206
1929.000000	20.131536
1928.000000	20.287363
1927.000000	20.532615
1926.000000	20.631601
1925.000000	20.763267
1924.000000	21.043944
1923.000000	21.158809
1922.000000	21.480732
1921.000000	21.713271
1920.000000	21.857415
1919.000000	22.156456
1918.000000	22.452235
1917.000000	22.745360
1916.000000	22.883661
1915.000000	23.348587
1914.000000	23.680675
1913.000000	23.952131
1912.000000	24.345940
1911.000000	24.623174
1910.000000	24.942233
1909.000000	25.447618
1908.000000	25.845269
1907.000000	26.332032
1906.000000	26.694973
1905.000000	27.221812
1904.000000	27.767328
1903.000000	28.189131
1902.000000	28.811622
1901.000000	29.226538
1900.000000	29.760003
1899.000000	30.264634
1898.000000	30.895905
1897.000000	31.421904
1896.000000	31.913387
1895.000000	32.429745
1894.000000	32.922909
1893.000000	33.371786
1892.000000	33.930859
1891.000000	34.465115
1890.000000	34.956926
1889.000000	35.375402
1888.000000	35.867181
1887.000000	36.367749
1886.000000	36.791182
1885.000000	37.200730
1884.000000	37.697943
1883.000000	38.053773
1882.000000	38.402070
1881.000000	38.776574
1880.000000	39.223229
1879.000000	39.542386
1878.000000	39.871192
1877.000000	40.241497
1876.000000	40.498912
1875.000000	40.874337
1874.000000	41.092153
1873.000000	41.335152
1872.000000	41.607764
1871.000000	41.894110
1870.000000	42.074215
1869.000000	42.264060
1868.000000	42.453300
1867.000000	42.556084
1866.000000	42.673093
1865.000000	42.834582
1864.000000	42.910034
1863.000000	43.009788
1862.000000	43.105759
1861.000000	43.185234
1860.000000	43.246909
1859.000000	43.335374
1858.000000	43.311725
1857.000000	43.360794
1856.000000	43.422142
1855.000000	43.471679
1854.000000	43.525709
1853.000000	43.519678
1852.000000	43.574963
1851.000000	43.565960
1850.000000	43.626404
1849.000000	43.633869
1848.000000	43.614182
1847.000000	43.611072
1846.000000	43.582285
1845.000000	43.599133
1844.000000	43.570423
1843.000000	43.531066
1842.000000	43.533161
1841.000000	43.536780
1840.000000	43.457521
1839.000000	43.421619
1838.000000	43.394592
1837.000000	43.349065
1836.000000	43.320825
1835.000000	43.273813
1834.000000	43.182687
1833.000000	43.150117
1832.000000	43.129746
1831.000000	43.062601
1830.000000	43.002875
1829.000000	42.973162
1828.000000	42.937919
1827.000000	42.930840
1826.000000	42.883044
1825.000000	42.830166
1824.000000	42.779504
1823.000000	42.739577
1822.000000	42.669361
1821.000000	42.611845
1820.000000	42.583026
1819.000000	42.536370
1818.000000	42.505393
1817.000000	42.491471
1816.000000	42.433112
1815.000000	42.374474
1814.000000	42.339022
1813.000000	42.306720
1812.000000	42.284063
1811.000000	42.245256
1810.000000	42.193479
1809.000000	42.154256
1808.000000	42.100832
1807.000000	42.046487
1806.000000	42.006905
1805.000000	41.982430
1804.000000	41.966036
1803.000000	41.925149
1802.000000	41.873304
1801.000000	41.828132
1800.000000	41.799612
1799.000000	41.770167
1798.000000	41.720415
1797.000000	41.684336
1796.000000	41.685190
1795.000000	41.673980
1794.000000	41.642919
1793.000000	41.610387
1792.000000	41.572526
1791.000000	41.554301
1790.000000	41.535671
1789.000000	41.498350
1788.000000	41.478433
1787.000000	41.453760
1786.000000	41.438802
1785.000000	41.409388
1784.000000	41.373470
1783.000000	41.332608
1782.000000	41.265965
1781.000000	41.245457
1780.000000	41.218867
1779.000000	41.176584
1778.000000	41.128489
1777.000000	41.059114
1776.000000	41.004943
1775.000000	40.937759
1774.000000	40.908944
1773.000000	40.859848
1772.000000	40.760671
1771.000000	40.697587
1770.000000	40.646432
1769.000000	40.589040
1768.000000	40.525577
1767.000000	40.441299
1766.000000	40.418045
1765.000000	40.348244
1764.000000	40.272124
1763.000000	40.222575
1762.000000	40.167371
1761.000000	40.101994
1760.000000	40.047909
1759.000000	39.990239
1758.000000	39.936501
1757.000000	39.845576
1756.000000	39.781930
1755.000000	39.729851
1754.000000	39.659616
1753.000000	39.596216
1752.000000	39.561454
1751.000000	39.484592
1750.000000	39.425313
1749.000000	39.385001
1748.000000	39.273984
1747.000000	39.193472
1746.000000	39.136928
1745.000000	39.070546
1744.000000	39.003649
1743.000000	38.913090
1742.000000	38.865167
1741.000000	38.771003
1740.000000	38.698769
1739.000000	38.654713
1738.000000	38.604925
1737.000000	38.531766
1736.000000	38.481422
1735.000000	38.491076
1734.000000	38.475065
1733.000000	38.439897
1732.000000	38.413047
1731.000000	38.426145
1730.000000	38.442095
1729.000000	38.457551
1728.000000	38.506150
1727.000000	38.569543
1726.000000	38.629762
1725.000000	38.696434
1724.000000	38.761890
1723.000000	38.871500
1722.000000	38.993432
1721.000000	39.101765
1720.000000	39.245471
1719.000000	39.340608
1718.000000	39.416109
1717.000000	39.526604
1716.000000	39.653846
1715.000000	39.742183
1714.000000	39.843344
1713.000000	39.960112
1712.000000	40.029518
1711.000000	40.154419
1710.000000	40.211148
1709.000000	40.277123
1708.000000	40.368978
1707.000000	40.381982
1706.000000	40.474137
1705.000000	40.504149
1704.000000	40.542767
1703.000000	40.559349
1702.000000	40.542858
1701.000000	40.596707
1700.000000	40.641245
1699.000000	40.652139
1698.000000	40.725297
1697.000000	40.712772
1696.000000	40.790890
1695.000000	40.821610
1694.000000	40.860893
1693.000000	40.943344
1692.000000	40.970386
1691.000000	41.035855
1690.000000	41.114895
1689.000000	41.227615
1688.000000	41.356779
1687.000000	41.490735
1686.000000	41.567169
1685.000000	41.730123
1684.000000	41.899820
1683.000000	42.063353
1682.000000	42.246756
1681.000000	42.414140
1680.000000	42.574823
1679.000000	42.751498
1678.000000	42.973615
1677.000000	43.145714
1676.000000	43.331775
1675.000000	43.547587
1674.000000	43.717649
1673.000000	43.901587
1672.000000	44.074403
1671.000000	44.277370
1670.000000	44.442634
1669.000000	44.602517
1668.000000	44.753967
1667.000000	44.916104
1666.000000	45.004977
1665.000000	45.136174
1664.000000	45.228990
1663.000000	45.331580
1662.000000	45.405117
1661.000000	45.499830
1660.000000	45.579685
1659.000000	45.644656
1658.000000	45.701008
1657.000000	45.746791
1656.000000	45.810656
1655.000000	45.840940
1654.000000	45.872077
1653.000000	45.905740
1652.000000	45.942200
1651.000000	45.919733
1650.000000	45.926043
1649.000000	45.924190
1648.000000	45.909241
1647.000000	45.916811
1646.000000	45.894240
1645.000000	45.864739
1644.000000	45.844025
1643.000000	45.822069
1642.000000	45.812610
1641.000000	45.770297
1640.000000	45.744197
1639.000000	45.723325
1638.000000	45.706758
1637.000000	45.680191
1636.000000	45.622531
1635.000000	45.585959
1634.000000	45.520505
1633.000000	45.472429
1632.000000	45.441994
1631.000000	45.408253
1630.000000	45.345994
1629.000000	45.288672
1628.000000	45.230241
1627.000000	45.195048
1626.000000	45.144527
1625.000000	45.094983
1624.000000	45.048967
1623.000000	44.984606
1622.000000	44.921708
1621.000000	44.863183
1620.000000	44.794534
1619.000000	44.719847
1618.000000	44.648792
1617.000000	44.592799
1616.000000	44.521220
1615.000000	44.476374
1614.000000	44.413763
1613.000000	44.319398
1612.000000	44.248082
1611.000000	44.179096
1610.000000	44.109047
1609.000000	44.043654
1608.000000	43.978442
1607.000000	43.901314
1606.000000	43.820586
1605.000000	43.744001
1604.000000	43.643895
1603.000000	43.555941
1602.000000	43.500736
1601.000000	43.427630
1600.000000	43.339702
1599.000000	43.255202
1598.000000	43.197821
1597.000000	43.149569
1596.000000	43.077905
1595.000000	43.001300
1594.000000	42.937878
1593.000000	42.891849
1592.000000	42.823389
1591.000000	42.736433
1590.000000	42.676539
1589.000000	42.597179
1588.000000	42.536859
1587.000000	42.488338
1586.000000	42.428652
1585.000000	42.378435
1584.000000	42.317600
1583.000000	42.263807
1582.000000	42.199854
1581.000000	42.152797
1580.000000	42.094007
1579.000000	42.041347
1578.000000	42.011138
1577.000000	41.944240
1576.000000	41.879689
1575.000000	41.836073
1574.000000	41.778696
1573.000000	41.711295
1572.000000	41.658450
1571.000000	41.617664
1570.000000	41.576783
1569.000000	41.517826
1568.000000	41.459642
1567.000000	41.412415
1566.000000	41.373753
1565.000000	41.337185
1564.000000	41.284623
1563.000000	41.266153
1562.000000	41.232929
1561.000000	41.184992
1560.000000	41.144124
1559.000000	41.097871
1558.000000	41.057447
1557.000000	41.054509
1556.000000	41.014502
1555.000000	40.979429
1554.000000	40.954706
1553.000000	40.913240
1552.000000	40.863142
1551.000000	40.813548
1550.000000	40.779845
1549.000000	40.722561
1548.000000	40.646107
1547.000000	40.582544
1546.000000	40.519202
1545.000000	40.441840
1544.000000	40.360413
1543.000000	40.273897
1542.000000	40.193987
1541.000000	40.092263
1540.000000	40.008955
1539.000000	39.906612
1538.000000	39.812832
1537.000000	39.731724
1536.000000	39.614646
1535.000000	39.515775
1534.000000	39.419709
1533.000000	39.335597
1532.000000	39.232768
1531.000000	39.136455
1530.000000	39.058301
1529.000000	38.974257
1528.000000	38.881094
1527.000000	38.804051
1526.000000	38.722139
1525.000000	38.645215
1524.000000	38.589083
1523.000000	38.531330
1522.000000	38.459393
1521.000000	38.383344
1520.000000	38.350423
1519.000000	38.301547
1518.000000	38.265882
1517.000000	38.196448
1516.000000	38.169832
1515.000000	38.118553
1514.000000	38.070317
1513.000000	38.074985
1512.000000	38.047067
1511.000000	37.993020
1510.000000	37.957242
1509.000000	37.931868
1508.000000	37.917906
1507.000000	37.888894
1506.000000	37.871840
1505.000000	37.867822
1504.000000	37.840942
1503.000000	37.822901
1502.000000	37.811863
1501.000000	37.794367
1500.000000	37.802616
1499.000000	37.789583
1498.000000	37.792098
1497.000000	37.791168
1496.000000	37.782468
1495.000000	37.827392
1494.000000	37.822352
1493.000000	37.833677
1492.000000	37.831817
1491.000000	37.866151
1490.000000	37.902173
1489.000000	37.941673
1488.000000	37.963301
1487.000000	37.991569
1486.000000	38.001570
1485.000000	38.037459
1484.000000	38.088000
1483.000000	38.111025
1482.000000	38.140370
1481.000000	38.192570
1480.000000	38.250928
1479.000000	38.263216
1478.000000	38.293412
1477.000000	38.318391
1476.000000	38.344371
1475.000000	38.373894
1474.000000	38.418933
1473.000000	38.442827
1472.000000	38.491148
1471.000000	38.524081
1470.000000	38.545741
