PE UV       SUBTECH     SPECTRUM    ASCII       PEDS        4.00        
   -1
RDms148351.Sample.asc
18/03/13
16:41:01.00
18/03/13
16:41:01.00
Administrator

200.000000
1
Lambda 750
750N8071901
PerkinElmer UV WinLab 6.0.4.0738 / 1.61.00 Lambda 900

0
0
3350/servo 860.8/2
0
0
UV/VIS
1
1
1
CommonBeamDepol,150mm sphere / downward view
0
0
0
0
Program
Program
3350/servo 860.8/2
3350/0.2 860.8/0.2
3350/0.2 860.8/0.2
0
1
 
 
 
0
 
860.8
319.2
860.8
Front
100
on
 
 
0
0
0
 
0
 
 
 
0
 
 
0
0
0
0
0
 
 
 
 
0
0


0
0
#HDR
-1
-1
#GR
nm
%R
1.0
0.0
2350.000000
-1.000000
2151
8
65.994494
9.764572
#DATA
2350.000000	36.800844
2349.000000	36.899976
2348.000000	36.829164
2347.000000	37.430819
2346.000000	37.431611
2345.000000	37.103996
2344.000000	36.881565
2343.000000	36.962585
2342.000000	37.322210
2341.000000	37.299439
2340.000000	37.484710
2339.000000	37.875231
2338.000000	37.676323
2337.000000	37.606721
2336.000000	37.562455
2335.000000	37.852058
2334.000000	37.785652
2333.000000	37.994748
2332.000000	38.202830
2331.000000	38.183523
2330.000000	38.270566
2329.000000	38.115545
2328.000000	37.838039
2327.000000	37.685985
2326.000000	37.692267
2325.000000	37.445382
2324.000000	37.494800
2323.000000	37.706523
2322.000000	37.509428
2321.000000	37.655531
2320.000000	37.530447
2319.000000	37.293012
2318.000000	37.416217
2317.000000	37.135573
2316.000000	37.016572
2315.000000	37.126784
2314.000000	37.213186
2313.000000	36.793218
2312.000000	36.901470
2311.000000	36.726156
2310.000000	36.726704
2309.000000	36.657120
2308.000000	36.740611
2307.000000	36.706995
2306.000000	36.744424
2305.000000	36.602125
2304.000000	36.456115
2303.000000	36.510197
2302.000000	36.521680
2301.000000	36.456806
2300.000000	36.363737
2299.000000	35.952387
2298.000000	36.255698
2297.000000	36.301783
2296.000000	36.388644
2295.000000	36.175964
2294.000000	36.158611
2293.000000	35.963940
2292.000000	36.072526
2291.000000	36.021515
2290.000000	35.930732
2289.000000	35.943535
2288.000000	36.206348
2287.000000	36.145308
2286.000000	35.943967
2285.000000	35.995069
2284.000000	35.915885
2283.000000	35.778887
2282.000000	35.930323
2281.000000	36.096542
2280.000000	35.981519
2279.000000	36.042336
2278.000000	36.236516
2277.000000	36.087717
2276.000000	36.003805
2275.000000	36.108482
2274.000000	36.159174
2273.000000	36.279429
2272.000000	36.290863
2271.000000	36.403084
2270.000000	36.520150
2269.000000	36.458812
2268.000000	36.471732
2267.000000	36.674927
2266.000000	36.814228
2265.000000	36.932252
2264.000000	37.158456
2263.000000	37.220514
2262.000000	37.214685
2261.000000	37.296799
2260.000000	37.461573
2259.000000	37.668438
2258.000000	37.913210
2257.000000	38.062402
2256.000000	38.000945
2255.000000	38.195607
2254.000000	38.475673
2253.000000	38.664532
2252.000000	38.789123
2251.000000	38.927417
2250.000000	39.120218
2249.000000	39.380621
2248.000000	39.396064
2247.000000	39.519280
2246.000000	39.860886
2245.000000	40.122250
2244.000000	40.407518
2243.000000	40.524745
2242.000000	40.638393
2241.000000	40.676174
2240.000000	40.644547
2239.000000	40.877531
2238.000000	41.210695
2237.000000	41.256185
2236.000000	41.313384
2235.000000	41.438383
2234.000000	41.541541
2233.000000	41.563193
2232.000000	41.516463
2231.000000	41.556787
2230.000000	41.636346
2229.000000	41.843359
2228.000000	41.910476
2227.000000	41.859413
2226.000000	41.719772
2225.000000	41.690689
2224.000000	41.773508
2223.000000	41.714628
2222.000000	41.776597
2221.000000	41.807994
2220.000000	41.771548
2219.000000	41.695616
2218.000000	41.671598
2217.000000	41.745697
2216.000000	41.707101
2215.000000	41.696449
2214.000000	41.687960
2213.000000	41.711847
2212.000000	41.528197
2211.000000	41.333956
2210.000000	41.369091
2209.000000	41.327707
2208.000000	41.289715
2207.000000	41.350627
2206.000000	41.269719
2205.000000	41.151159
2204.000000	41.054758
2203.000000	40.951638
2202.000000	40.865585
2201.000000	40.784643
2200.000000	40.865269
2199.000000	40.878355
2198.000000	40.828289
2197.000000	40.666833
2196.000000	40.499495
2195.000000	40.581402
2194.000000	40.449894
2193.000000	40.340128
2192.000000	40.468303
2191.000000	40.413128
2190.000000	40.193491
2189.000000	40.289369
2188.000000	40.163318
2187.000000	39.986177
2186.000000	39.964316
2185.000000	39.989591
2184.000000	39.991024
2183.000000	40.099456
2182.000000	40.054191
2181.000000	39.982170
2180.000000	39.913224
2179.000000	39.906602
2178.000000	40.083836
2177.000000	40.093501
2176.000000	39.927660
2175.000000	39.986892
2174.000000	39.968732
2173.000000	40.015161
2172.000000	40.150012
2171.000000	40.272139
2170.000000	40.308167
2169.000000	40.288362
2168.000000	40.490367
2167.000000	40.335531
2166.000000	40.361579
2165.000000	40.435532
2164.000000	40.676046
2163.000000	40.597131
2162.000000	40.805422
2161.000000	41.087643
2160.000000	40.950823
2159.000000	41.074688
2158.000000	41.191780
2157.000000	41.349528
2156.000000	41.295112
2155.000000	41.636745
2154.000000	41.850200
2153.000000	41.864147
2152.000000	42.072525
2151.000000	42.206611
2150.000000	42.211922
2149.000000	42.302955
2148.000000	42.285822
2147.000000	42.596803
2146.000000	42.719538
2145.000000	42.811668
2144.000000	42.929748
2143.000000	43.043030
2142.000000	43.316594
2141.000000	43.305019
2140.000000	43.394902
2139.000000	43.538508
2138.000000	43.640791
2137.000000	43.713742
2136.000000	43.751495
2135.000000	43.877002
2134.000000	43.942858
2133.000000	43.762893
2132.000000	44.091375
2131.000000	44.253263
2130.000000	44.292749
2129.000000	44.142298
2128.000000	44.396514
2127.000000	44.352829
2126.000000	44.454853
2125.000000	44.427374
2124.000000	44.475857
2123.000000	44.370334
2122.000000	44.553644
2121.000000	44.483468
2120.000000	44.522187
2119.000000	44.563162
2118.000000	44.716629
2117.000000	44.622495
2116.000000	44.618495
2115.000000	44.720659
2114.000000	44.772574
2113.000000	44.768590
2112.000000	44.848038
2111.000000	44.775307
2110.000000	44.549115
2109.000000	44.785033
2108.000000	44.736374
2107.000000	44.827628
2106.000000	44.817149
2105.000000	44.797894
2104.000000	44.742451
2103.000000	44.704914
2102.000000	44.754645
2101.000000	44.869475
2100.000000	44.974839
2099.000000	44.883132
2098.000000	44.841498
2097.000000	44.934909
2096.000000	44.830382
2095.000000	44.813463
2094.000000	44.762752
2093.000000	44.599357
2092.000000	44.791891
2091.000000	44.865634
2090.000000	44.710862
2089.000000	44.713613
2088.000000	44.695775
2087.000000	44.712452
2086.000000	44.843062
2085.000000	44.705242
2084.000000	44.602979
2083.000000	44.493225
2082.000000	44.409798
2081.000000	44.344234
2080.000000	44.416161
2079.000000	44.408923
2078.000000	44.198781
2077.000000	44.196491
2076.000000	44.076304
2075.000000	43.998037
2074.000000	43.940512
2073.000000	43.877439
2072.000000	43.732164
2071.000000	43.635191
2070.000000	43.557939
2069.000000	43.516946
2068.000000	43.256039
2067.000000	43.080239
2066.000000	43.018809
2065.000000	42.876979
2064.000000	42.784303
2063.000000	42.674839
2062.000000	42.540364
2061.000000	42.318770
2060.000000	42.206170
2059.000000	42.125563
2058.000000	42.080804
2057.000000	41.933409
2056.000000	41.780348
2055.000000	41.688988
2054.000000	41.559357
2053.000000	41.397689
2052.000000	41.249803
2051.000000	41.139113
2050.000000	41.035509
2049.000000	41.081204
2048.000000	40.966287
2047.000000	40.855264
2046.000000	40.809415
2045.000000	40.681913
2044.000000	40.617585
2043.000000	40.617519
2042.000000	40.622961
2041.000000	40.666421
2040.000000	40.680360
2039.000000	40.693829
2038.000000	40.723079
2037.000000	40.765601
2036.000000	40.816806
2035.000000	40.874433
2034.000000	40.931565
2033.000000	40.984965
2032.000000	41.048004
2031.000000	41.065900
2030.000000	41.123486
2029.000000	41.245651
2028.000000	41.333559
2027.000000	41.408773
2026.000000	41.500447
2025.000000	41.571698
2024.000000	41.613474
2023.000000	41.646662
2022.000000	41.630287
2021.000000	41.649204
2020.000000	41.750862
2019.000000	41.763275
2018.000000	41.771670
2017.000000	41.766263
2016.000000	41.702499
2015.000000	41.689499
2014.000000	41.684054
2013.000000	41.649217
2012.000000	41.614413
2011.000000	41.565122
2010.000000	41.501771
2009.000000	41.399998
2008.000000	41.317482
2007.000000	41.258002
2006.000000	41.165788
2005.000000	41.071371
2004.000000	41.002781
2003.000000	40.947260
2002.000000	40.829601
2001.000000	40.704922
2000.000000	40.641749
1999.000000	40.558049
1998.000000	40.474217
1997.000000	40.353329
1996.000000	40.300070
1995.000000	40.220750
1994.000000	40.062890
1993.000000	39.962317
1992.000000	39.849317
1991.000000	39.745742
1990.000000	39.665485
1989.000000	39.535114
1988.000000	39.436956
1987.000000	39.324777
1986.000000	39.226512
1985.000000	39.155335
1984.000000	39.081718
1983.000000	38.960039
1982.000000	38.861832
1981.000000	38.770395
1980.000000	38.682081
1979.000000	38.549236
1978.000000	38.443592
1977.000000	38.355997
1976.000000	38.194451
1975.000000	38.138021
1974.000000	38.019355
1973.000000	37.897774
1972.000000	37.836013
1971.000000	37.737218
1970.000000	37.698029
1969.000000	37.610559
1968.000000	37.502554
1967.000000	37.398635
1966.000000	37.336575
1965.000000	37.236456
1964.000000	37.103692
1963.000000	37.043823
1962.000000	36.933291
1961.000000	36.803596
1960.000000	36.716538
1959.000000	36.691062
1958.000000	36.651939
1957.000000	36.618169
1956.000000	36.542724
1955.000000	36.482164
1954.000000	36.408810
1953.000000	36.285449
1952.000000	36.277123
1951.000000	36.322833
1950.000000	36.185912
1949.000000	36.191984
1948.000000	36.124832
1947.000000	36.127349
1946.000000	36.063507
1945.000000	36.084483
1944.000000	36.046806
1943.000000	36.095677
1942.000000	36.096886
1941.000000	36.090000
1940.000000	36.169394
1939.000000	36.220130
1938.000000	36.308757
1937.000000	36.334141
1936.000000	36.425536
1935.000000	36.511579
1934.000000	36.503816
1933.000000	36.649556
1932.000000	36.775868
1931.000000	36.890688
1930.000000	37.161281
1929.000000	37.196923
1928.000000	37.431336
1927.000000	37.527647
1926.000000	37.748893
1925.000000	37.894399
1924.000000	38.126133
1923.000000	38.286119
1922.000000	38.538061
1921.000000	38.842344
1920.000000	39.029333
1919.000000	39.192237
1918.000000	39.515017
1917.000000	39.834783
1916.000000	40.081673
1915.000000	40.359758
1914.000000	40.736175
1913.000000	41.089081
1912.000000	41.384092
1911.000000	41.738102
1910.000000	42.024483
1909.000000	42.468120
1908.000000	42.774154
1907.000000	43.313271
1906.000000	43.634092
1905.000000	44.054628
1904.000000	44.549551
1903.000000	44.922466
1902.000000	45.447055
1901.000000	45.803705
1900.000000	46.246933
1899.000000	46.635204
1898.000000	47.210287
1897.000000	47.596769
1896.000000	48.012799
1895.000000	48.465247
1894.000000	48.891472
1893.000000	49.330071
1892.000000	49.753675
1891.000000	50.145069
1890.000000	50.569922
1889.000000	50.947813
1888.000000	51.377704
1887.000000	51.759580
1886.000000	52.064305
1885.000000	52.453496
1884.000000	52.817648
1883.000000	53.178313
1882.000000	53.398722
1881.000000	53.754625
1880.000000	54.042090
1879.000000	54.335311
1878.000000	54.567311
1877.000000	54.899924
1876.000000	55.145847
1875.000000	55.380506
1874.000000	55.515515
1873.000000	55.740865
1872.000000	55.951025
1871.000000	56.196624
1870.000000	56.322436
1869.000000	56.455190
1868.000000	56.639608
1867.000000	56.687533
1866.000000	56.777754
1865.000000	56.913802
1864.000000	56.974148
1863.000000	56.997471
1862.000000	57.092641
1861.000000	57.157497
1860.000000	57.201717
1859.000000	57.251644
1858.000000	57.270749
1857.000000	57.319680
1856.000000	57.395458
1855.000000	57.419149
1854.000000	57.457842
1853.000000	57.496049
1852.000000	57.479201
1851.000000	57.522952
1850.000000	57.523381
1849.000000	57.503171
1848.000000	57.535016
1847.000000	57.547894
1846.000000	57.555068
1845.000000	57.559510
1844.000000	57.562049
1843.000000	57.515287
1842.000000	57.487498
1841.000000	57.463252
1840.000000	57.444177
1839.000000	57.442319
1838.000000	57.424984
1837.000000	57.343438
1836.000000	57.318525
1835.000000	57.312573
1834.000000	57.266455
1833.000000	57.222071
1832.000000	57.200828
1831.000000	57.154397
1830.000000	57.151209
1829.000000	57.154097
1828.000000	57.099251
1827.000000	57.070978
1826.000000	57.025746
1825.000000	56.985342
1824.000000	56.973519
1823.000000	56.940859
1822.000000	56.893627
1821.000000	56.871685
1820.000000	56.853258
1819.000000	56.807973
1818.000000	56.784895
1817.000000	56.771103
1816.000000	56.742305
1815.000000	56.724949
1814.000000	56.696813
1813.000000	56.653891
1812.000000	56.626150
1811.000000	56.611389
1810.000000	56.587012
1809.000000	56.582100
1808.000000	56.553135
1807.000000	56.504227
1806.000000	56.497587
1805.000000	56.475107
1804.000000	56.446369
1803.000000	56.436497
1802.000000	56.404117
1801.000000	56.369100
1800.000000	56.354947
1799.000000	56.325575
1798.000000	56.305064
1797.000000	56.305634
1796.000000	56.299016
1795.000000	56.289573
1794.000000	56.264204
1793.000000	56.233880
1792.000000	56.212856
1791.000000	56.196537
1790.000000	56.170816
1789.000000	56.147990
1788.000000	56.154381
1787.000000	56.147550
1786.000000	56.136182
1785.000000	56.115386
1784.000000	56.088472
1783.000000	56.065205
1782.000000	56.029006
1781.000000	56.014593
1780.000000	55.981636
1779.000000	55.949244
1778.000000	55.901834
1777.000000	55.863042
1776.000000	55.824477
1775.000000	55.773333
1774.000000	55.727471
1773.000000	55.683139
1772.000000	55.633137
1771.000000	55.599170
1770.000000	55.571894
1769.000000	55.529935
1768.000000	55.491732
1767.000000	55.435284
1766.000000	55.397049
1765.000000	55.326599
1764.000000	55.300072
1763.000000	55.249883
1762.000000	55.213527
1761.000000	55.197304
1760.000000	55.153072
1759.000000	55.119855
1758.000000	55.093122
1757.000000	55.054144
1756.000000	55.019978
1755.000000	55.011287
1754.000000	54.994303
1753.000000	54.941099
1752.000000	54.933840
1751.000000	54.855823
1750.000000	54.832773
1749.000000	54.826905
1748.000000	54.779662
1747.000000	54.675023
1746.000000	54.662285
1745.000000	54.599787
1744.000000	54.554990
1743.000000	54.509000
1742.000000	54.465203
1741.000000	54.456022
1740.000000	54.413476
1739.000000	54.375442
1738.000000	54.346094
1737.000000	54.270094
1736.000000	54.253706
1735.000000	54.218918
1734.000000	54.232405
1733.000000	54.181756
1732.000000	54.157469
1731.000000	54.203681
1730.000000	54.180885
1729.000000	54.219612
1728.000000	54.229083
1727.000000	54.277563
1726.000000	54.311808
1725.000000	54.387656
1724.000000	54.421055
1723.000000	54.507623
1722.000000	54.601211
1721.000000	54.661593
1720.000000	54.786805
1719.000000	54.884196
1718.000000	54.913872
1717.000000	55.027682
1716.000000	55.124590
1715.000000	55.189243
1714.000000	55.266427
1713.000000	55.316723
1712.000000	55.426670
1711.000000	55.544992
1710.000000	55.594548
1709.000000	55.643782
1708.000000	55.707846
1707.000000	55.736160
1706.000000	55.791592
1705.000000	55.816048
1704.000000	55.875830
1703.000000	55.867913
1702.000000	55.901927
1701.000000	55.938831
1700.000000	55.989073
1699.000000	56.006715
1698.000000	56.045256
1697.000000	56.084401
1696.000000	56.123451
1695.000000	56.126601
1694.000000	56.167369
1693.000000	56.227173
1692.000000	56.261666
1691.000000	56.308825
1690.000000	56.382461
1689.000000	56.451490
1688.000000	56.557207
1687.000000	56.611479
1686.000000	56.687406
1685.000000	56.795811
1684.000000	56.942990
1683.000000	57.027020
1682.000000	57.153816
1681.000000	57.290838
1680.000000	57.395115
1679.000000	57.506072
1678.000000	57.648870
1677.000000	57.784825
1676.000000	57.905064
1675.000000	58.031028
1674.000000	58.175939
1673.000000	58.282110
1672.000000	58.390813
1671.000000	58.503559
1670.000000	58.632382
1669.000000	58.755727
1668.000000	58.851441
1667.000000	58.954239
1666.000000	59.001906
1665.000000	59.065523
1664.000000	59.160708
1663.000000	59.209810
1662.000000	59.299471
1661.000000	59.335948
1660.000000	59.369171
1659.000000	59.421128
1658.000000	59.469376
1657.000000	59.514887
1656.000000	59.539875
1655.000000	59.554474
1654.000000	59.584982
1653.000000	59.610831
1652.000000	59.626646
1651.000000	59.609699
1650.000000	59.614879
1649.000000	59.630883
1648.000000	59.617598
1647.000000	59.616886
1646.000000	59.604855
1645.000000	59.604189
1644.000000	59.562723
1643.000000	59.557352
1642.000000	59.531287
1641.000000	59.498807
1640.000000	59.501246
1639.000000	59.481426
1638.000000	59.487226
1637.000000	59.451191
1636.000000	59.408307
1635.000000	59.398979
1634.000000	59.375680
1633.000000	59.339758
1632.000000	59.311785
1631.000000	59.307462
1630.000000	59.256164
1629.000000	59.224536
1628.000000	59.179127
1627.000000	59.151305
1626.000000	59.111124
1625.000000	59.079695
1624.000000	59.043193
1623.000000	59.018242
1622.000000	58.984382
1621.000000	58.918205
1620.000000	58.898789
1619.000000	58.868362
1618.000000	58.803017
1617.000000	58.761306
1616.000000	58.715216
1615.000000	58.670462
1614.000000	58.635970
1613.000000	58.602323
1612.000000	58.562564
1611.000000	58.509108
1610.000000	58.464696
1609.000000	58.418209
1608.000000	58.369631
1607.000000	58.320850
1606.000000	58.278045
1605.000000	58.237136
1604.000000	58.171499
1603.000000	58.104286
1602.000000	58.081221
1601.000000	58.034965
1600.000000	57.982860
1599.000000	57.942356
1598.000000	57.905399
1597.000000	57.847578
1596.000000	57.803684
1595.000000	57.774058
1594.000000	57.727293
1593.000000	57.690020
1592.000000	57.646124
1591.000000	57.614340
1590.000000	57.582599
1589.000000	57.520537
1588.000000	57.470524
1587.000000	57.435401
1586.000000	57.403768
1585.000000	57.372473
1584.000000	57.336719
1583.000000	57.290833
1582.000000	57.252634
1581.000000	57.237789
1580.000000	57.210316
1579.000000	57.165493
1578.000000	57.127139
1577.000000	57.085228
1576.000000	57.042767
1575.000000	57.022234
1574.000000	56.974424
1573.000000	56.932265
1572.000000	56.915618
1571.000000	56.878417
1570.000000	56.847687
1569.000000	56.799531
1568.000000	56.757336
1567.000000	56.731091
1566.000000	56.711842
1565.000000	56.685418
1564.000000	56.660543
1563.000000	56.640510
1562.000000	56.599354
1561.000000	56.564600
1560.000000	56.553696
1559.000000	56.546574
1558.000000	56.523330
1557.000000	56.498713
1556.000000	56.486701
1555.000000	56.461606
1554.000000	56.442396
1553.000000	56.427043
1552.000000	56.388199
1551.000000	56.359564
1550.000000	56.333285
1549.000000	56.276573
1548.000000	56.269601
1547.000000	56.234736
1546.000000	56.182711
1545.000000	56.143112
1544.000000	56.079117
1543.000000	56.010983
1542.000000	55.957313
1541.000000	55.906091
1540.000000	55.849128
1539.000000	55.763802
1538.000000	55.685014
1537.000000	55.619522
1536.000000	55.565651
1535.000000	55.498166
1534.000000	55.429503
1533.000000	55.367776
1532.000000	55.291522
1531.000000	55.239171
1530.000000	55.180505
1529.000000	55.139382
1528.000000	55.052017
1527.000000	54.986322
1526.000000	54.966303
1525.000000	54.914842
1524.000000	54.862391
1523.000000	54.822570
1522.000000	54.761306
1521.000000	54.729496
1520.000000	54.693578
1519.000000	54.663827
1518.000000	54.670587
1517.000000	54.610308
1516.000000	54.576836
1515.000000	54.557510
1514.000000	54.503106
1513.000000	54.522978
1512.000000	54.496095
1511.000000	54.463039
1510.000000	54.457900
1509.000000	54.428933
1508.000000	54.418303
1507.000000	54.404498
1506.000000	54.388891
1505.000000	54.402334
1504.000000	54.368300
1503.000000	54.353166
1502.000000	54.337542
1501.000000	54.326003
1500.000000	54.326620
1499.000000	54.311911
1498.000000	54.337918
1497.000000	54.316521
1496.000000	54.322481
1495.000000	54.323076
1494.000000	54.308187
1493.000000	54.336051
1492.000000	54.335759
1491.000000	54.351665
1490.000000	54.378988
1489.000000	54.402022
1488.000000	54.420833
1487.000000	54.431080
1486.000000	54.421197
1485.000000	54.448323
1484.000000	54.467562
1483.000000	54.503880
1482.000000	54.505902
1481.000000	54.532568
1480.000000	54.573184
1479.000000	54.561314
1478.000000	54.603972
1477.000000	54.623315
1476.000000	54.637928
1475.000000	54.670414
1474.000000	54.690946
1473.000000	54.710146
1472.000000	54.744751
1471.000000	54.759151
1470.000000	54.764468
