PE UV       SUBTECH     SPECTRUM    ASCII       PEDS        4.00        
   -1
RTms159341.Sample.asc
18/03/13
15:14:31.00
18/03/13
15:14:31.00
Administrator

200.000000
1
Lambda 750
750N8071901
PerkinElmer UV WinLab 6.0.4.0738 / 1.61.00 Lambda 900

0
0
3350/servo 860.8/2
0
0
UV/VIS
1
1
1
CommonBeamDepol,150mm sphere / downward view
0
0
0
0
Program
Program
3350/servo 860.8/2
3350/0.2 860.8/0.2
3350/0.2 860.8/0.2
0
1
 
 
 
0
 
860.8
319.2
860.8
Front
100
on
 
 
0
0
0
 
0
 
 
 
0
 
 
0
0
0
0
0
 
 
 
 
0
0


0
0
#HDR
-1
-1
#GR
nm
%R
1.0
0.0
2350.000000
-1.000000
2151
8
51.886123
5.438312
#DATA
2350.000000	20.124218
2349.000000	20.150931
2348.000000	20.197267
2347.000000	20.782231
2346.000000	20.518015
2345.000000	20.257009
2344.000000	20.271844
2343.000000	19.759572
2342.000000	20.235341
2341.000000	20.669656
2340.000000	20.282419
2339.000000	20.569719
2338.000000	21.260688
2337.000000	20.729213
2336.000000	20.947741
2335.000000	20.995000
2334.000000	20.954385
2333.000000	21.067352
2332.000000	21.409671
2331.000000	21.120604
2330.000000	20.982887
2329.000000	21.069174
2328.000000	20.625100
2327.000000	20.881716
2326.000000	20.885675
2325.000000	20.635623
2324.000000	20.819788
2323.000000	20.884594
2322.000000	20.684485
2321.000000	20.895379
2320.000000	20.778666
2319.000000	20.725958
2318.000000	20.519394
2317.000000	20.980601
2316.000000	20.659080
2315.000000	20.519363
2314.000000	20.290193
2313.000000	20.195094
2312.000000	20.327038
2311.000000	20.095194
2310.000000	20.103268
2309.000000	20.031767
2308.000000	19.892533
2307.000000	19.735577
2306.000000	19.761849
2305.000000	19.971341
2304.000000	19.844049
2303.000000	20.037006
2302.000000	19.999676
2301.000000	19.992911
2300.000000	19.828546
2299.000000	19.544189
2298.000000	19.495643
2297.000000	19.363670
2296.000000	19.516100
2295.000000	19.346070
2294.000000	19.277595
2293.000000	19.312115
2292.000000	19.277117
2291.000000	19.311419
2290.000000	19.255144
2289.000000	19.210678
2288.000000	19.205326
2287.000000	19.130571
2286.000000	19.063422
2285.000000	19.031097
2284.000000	19.033611
2283.000000	19.024652
2282.000000	19.061635
2281.000000	19.190918
2280.000000	19.290565
2279.000000	19.292049
2278.000000	19.284776
2277.000000	19.165412
2276.000000	19.202204
2275.000000	19.301179
2274.000000	19.312537
2273.000000	19.372758
2272.000000	19.320865
2271.000000	19.270417
2270.000000	19.380083
2269.000000	19.402205
2268.000000	19.405910
2267.000000	19.558488
2266.000000	19.736261
2265.000000	19.888501
2264.000000	19.933078
2263.000000	20.042748
2262.000000	20.128452
2261.000000	20.169573
2260.000000	20.323081
2259.000000	20.390595
2258.000000	20.593136
2257.000000	20.795496
2256.000000	20.841925
2255.000000	20.949459
2254.000000	21.257888
2253.000000	21.429315
2252.000000	21.608014
2251.000000	21.769379
2250.000000	21.869276
2249.000000	22.012428
2248.000000	22.057422
2247.000000	22.127836
2246.000000	22.453429
2245.000000	22.721913
2244.000000	22.873323
2243.000000	23.053881
2242.000000	23.180184
2241.000000	23.280802
2240.000000	23.340665
2239.000000	23.460229
2238.000000	23.560922
2237.000000	23.634757
2236.000000	23.757428
2235.000000	23.834678
2234.000000	23.880986
2233.000000	23.837430
2232.000000	23.914123
2231.000000	24.088687
2230.000000	24.083869
2229.000000	24.186554
2228.000000	24.311264
2227.000000	24.285163
2226.000000	24.153302
2225.000000	24.095943
2224.000000	24.137767
2223.000000	24.158682
2222.000000	24.133563
2221.000000	24.050780
2220.000000	24.043235
2219.000000	24.045677
2218.000000	24.014210
2217.000000	23.936788
2216.000000	23.954280
2215.000000	23.845252
2214.000000	23.872169
2213.000000	23.978435
2212.000000	23.752913
2211.000000	23.656991
2210.000000	23.676380
2209.000000	23.679520
2208.000000	23.574986
2207.000000	23.461486
2206.000000	23.419114
2205.000000	23.360391
2204.000000	23.220880
2203.000000	23.130555
2202.000000	23.218686
2201.000000	23.286837
2200.000000	23.182489
2199.000000	23.033640
2198.000000	23.015457
2197.000000	22.982931
2196.000000	22.799658
2195.000000	22.637544
2194.000000	22.686432
2193.000000	22.551441
2192.000000	22.681376
2191.000000	22.567230
2190.000000	22.475925
2189.000000	22.424741
2188.000000	22.288382
2187.000000	22.239462
2186.000000	22.245604
2185.000000	22.241506
2184.000000	22.194649
2183.000000	22.329080
2182.000000	22.084847
2181.000000	22.030371
2180.000000	22.122985
2179.000000	22.022445
2178.000000	22.053614
2177.000000	22.164744
2176.000000	21.974431
2175.000000	22.064694
2174.000000	21.949099
2173.000000	22.028266
2172.000000	22.165391
2171.000000	22.169069
2170.000000	22.303970
2169.000000	22.398835
2168.000000	22.437417
2167.000000	22.550930
2166.000000	22.323203
2165.000000	22.338009
2164.000000	22.602583
2163.000000	22.685923
2162.000000	22.850525
2161.000000	22.916813
2160.000000	23.020674
2159.000000	23.003326
2158.000000	23.031280
2157.000000	23.229429
2156.000000	23.331900
2155.000000	23.514920
2154.000000	23.663202
2153.000000	23.792419
2152.000000	23.903714
2151.000000	24.195129
2150.000000	24.149755
2149.000000	24.220267
2148.000000	24.319919
2147.000000	24.470784
2146.000000	24.592500
2145.000000	24.691285
2144.000000	24.888971
2143.000000	24.963311
2142.000000	25.107528
2141.000000	25.177276
2140.000000	25.213065
2139.000000	25.301784
2138.000000	25.645865
2137.000000	25.608254
2136.000000	25.867426
2135.000000	25.695567
2134.000000	25.948483
2133.000000	25.898848
2132.000000	26.212813
2131.000000	26.173458
2130.000000	26.295811
2129.000000	26.335073
2128.000000	26.367254
2127.000000	26.407820
2126.000000	26.496156
2125.000000	26.482348
2124.000000	26.512868
2123.000000	26.518415
2122.000000	26.710172
2121.000000	26.768383
2120.000000	26.792883
2119.000000	26.909926
2118.000000	26.756887
2117.000000	26.803451
2116.000000	26.948706
2115.000000	26.929255
2114.000000	27.012499
2113.000000	26.955382
2112.000000	27.111231
2111.000000	27.132241
2110.000000	27.053014
2109.000000	27.194087
2108.000000	27.121178
2107.000000	27.249722
2106.000000	27.279185
2105.000000	27.302500
2104.000000	27.247926
2103.000000	27.176396
2102.000000	27.306686
2101.000000	27.224280
2100.000000	27.422875
2099.000000	27.298688
2098.000000	27.263858
2097.000000	27.329198
2096.000000	27.296984
2095.000000	27.254788
2094.000000	27.343785
2093.000000	27.265329
2092.000000	27.262021
2091.000000	27.329710
2090.000000	27.185622
2089.000000	27.173637
2088.000000	27.177781
2087.000000	27.047908
2086.000000	27.111567
2085.000000	27.086684
2084.000000	27.011741
2083.000000	26.905886
2082.000000	26.874254
2081.000000	26.825258
2080.000000	26.821433
2079.000000	26.767485
2078.000000	26.662911
2077.000000	26.575873
2076.000000	26.518127
2075.000000	26.390781
2074.000000	26.318827
2073.000000	26.217672
2072.000000	26.046252
2071.000000	25.954512
2070.000000	25.857825
2069.000000	25.701933
2068.000000	25.577135
2067.000000	25.423140
2066.000000	25.256705
2065.000000	25.128905
2064.000000	25.033890
2063.000000	24.855492
2062.000000	24.731756
2061.000000	24.624515
2060.000000	24.562010
2059.000000	24.437555
2058.000000	24.366773
2057.000000	24.245391
2056.000000	24.075644
2055.000000	23.985274
2054.000000	23.849925
2053.000000	23.728791
2052.000000	23.593729
2051.000000	23.526109
2050.000000	23.448329
2049.000000	23.429751
2048.000000	23.315975
2047.000000	23.264184
2046.000000	23.216286
2045.000000	23.110022
2044.000000	23.143669
2043.000000	23.180483
2042.000000	23.130457
2041.000000	23.144438
2040.000000	23.188039
2039.000000	23.250558
2038.000000	23.340461
2037.000000	23.324805
2036.000000	23.363096
2035.000000	23.479459
2034.000000	23.540033
2033.000000	23.566435
2032.000000	23.666125
2031.000000	23.763649
2030.000000	23.831679
2029.000000	23.946792
2028.000000	24.078083
2027.000000	24.189482
2026.000000	24.290004
2025.000000	24.350303
2024.000000	24.403661
2023.000000	24.477860
2022.000000	24.526823
2021.000000	24.553852
2020.000000	24.564947
2019.000000	24.562471
2018.000000	24.602424
2017.000000	24.640483
2016.000000	24.575991
2015.000000	24.547793
2014.000000	24.596779
2013.000000	24.575857
2012.000000	24.525623
2011.000000	24.477552
2010.000000	24.428795
2009.000000	24.372349
2008.000000	24.300536
2007.000000	24.197740
2006.000000	24.144228
2005.000000	24.110797
2004.000000	24.002731
2003.000000	23.892551
2002.000000	23.834695
2001.000000	23.748751
2000.000000	23.643669
1999.000000	23.549039
1998.000000	23.450173
1997.000000	23.354407
1996.000000	23.244695
1995.000000	23.160590
1994.000000	23.087321
1993.000000	22.996126
1992.000000	22.863264
1991.000000	22.736668
1990.000000	22.663491
1989.000000	22.573342
1988.000000	22.475216
1987.000000	22.368834
1986.000000	22.256145
1985.000000	22.184619
1984.000000	22.083511
1983.000000	22.014835
1982.000000	21.917945
1981.000000	21.774994
1980.000000	21.697230
1979.000000	21.622984
1978.000000	21.511286
1977.000000	21.437797
1976.000000	21.333792
1975.000000	21.276729
1974.000000	21.131074
1973.000000	21.061223
1972.000000	20.950103
1971.000000	20.881424
1970.000000	20.829809
1969.000000	20.729166
1968.000000	20.644370
1967.000000	20.585826
1966.000000	20.504750
1965.000000	20.445913
1964.000000	20.346178
1963.000000	20.269418
1962.000000	20.134984
1961.000000	20.091108
1960.000000	20.036245
1959.000000	19.931022
1958.000000	19.858809
1957.000000	19.759702
1956.000000	19.693045
1955.000000	19.648637
1954.000000	19.628758
1953.000000	19.592331
1952.000000	19.528844
1951.000000	19.488214
1950.000000	19.395848
1949.000000	19.398523
1948.000000	19.399091
1947.000000	19.317943
1946.000000	19.274146
1945.000000	19.310312
1944.000000	19.292983
1943.000000	19.313738
1942.000000	19.311613
1941.000000	19.232871
1940.000000	19.276061
1939.000000	19.296343
1938.000000	19.414327
1937.000000	19.450535
1936.000000	19.569558
1935.000000	19.546042
1934.000000	19.606233
1933.000000	19.693980
1932.000000	19.744444
1931.000000	19.907905
1930.000000	20.027304
1929.000000	20.125985
1928.000000	20.294225
1927.000000	20.425660
1926.000000	20.663983
1925.000000	20.830046
1924.000000	20.859509
1923.000000	21.112020
1922.000000	21.302884
1921.000000	21.639794
1920.000000	21.824734
1919.000000	21.988626
1918.000000	22.277102
1917.000000	22.595208
1916.000000	22.734633
1915.000000	23.142368
1914.000000	23.446547
1913.000000	23.820542
1912.000000	24.107164
1911.000000	24.513347
1910.000000	24.861915
1909.000000	25.235923
1908.000000	25.671779
1907.000000	26.148683
1906.000000	26.542028
1905.000000	26.986947
1904.000000	27.532882
1903.000000	28.012704
1902.000000	28.470646
1901.000000	28.986415
1900.000000	29.460952
1899.000000	29.984642
1898.000000	30.543351
1897.000000	31.063921
1896.000000	31.536340
1895.000000	32.074743
1894.000000	32.618449
1893.000000	33.154302
1892.000000	33.648969
1891.000000	34.151128
1890.000000	34.621791
1889.000000	35.047424
1888.000000	35.509230
1887.000000	36.045136
1886.000000	36.509739
1885.000000	36.909709
1884.000000	37.334265
1883.000000	37.722841
1882.000000	38.079362
1881.000000	38.518042
1880.000000	38.853193
1879.000000	39.195085
1878.000000	39.565955
1877.000000	39.872213
1876.000000	40.202800
1875.000000	40.512517
1874.000000	40.825658
1873.000000	41.090403
1872.000000	41.312422
1871.000000	41.582332
1870.000000	41.786463
1869.000000	41.954024
1868.000000	42.162023
1867.000000	42.285314
1866.000000	42.419638
1865.000000	42.559064
1864.000000	42.623562
1863.000000	42.747775
1862.000000	42.876696
1861.000000	42.933986
1860.000000	43.006210
1859.000000	43.081302
1858.000000	43.095781
1857.000000	43.141329
1856.000000	43.225406
1855.000000	43.276429
1854.000000	43.306682
1853.000000	43.317339
1852.000000	43.276064
1851.000000	43.341784
1850.000000	43.400078
1849.000000	43.353793
1848.000000	43.349440
1847.000000	43.380589
1846.000000	43.367639
1845.000000	43.360085
1844.000000	43.337475
1843.000000	43.338593
1842.000000	43.295561
1841.000000	43.255074
1840.000000	43.246840
1839.000000	43.205382
1838.000000	43.167543
1837.000000	43.124987
1836.000000	43.093249
1835.000000	43.035263
1834.000000	42.986219
1833.000000	42.957512
1832.000000	42.882876
1831.000000	42.802789
1830.000000	42.777707
1829.000000	42.755509
1828.000000	42.711362
1827.000000	42.649516
1826.000000	42.596485
1825.000000	42.561006
1824.000000	42.532426
1823.000000	42.495811
1822.000000	42.413216
1821.000000	42.381303
1820.000000	42.352323
1819.000000	42.292912
1818.000000	42.286351
1817.000000	42.259553
1816.000000	42.187143
1815.000000	42.149127
1814.000000	42.110118
1813.000000	42.062598
1812.000000	42.039629
1811.000000	42.018669
1810.000000	41.982740
1809.000000	41.941777
1808.000000	41.875785
1807.000000	41.825972
1806.000000	41.790702
1805.000000	41.734968
1804.000000	41.704034
1803.000000	41.675018
1802.000000	41.646529
1801.000000	41.615679
1800.000000	41.558722
1799.000000	41.537437
1798.000000	41.527285
1797.000000	41.492746
1796.000000	41.448639
1795.000000	41.415350
1794.000000	41.408566
1793.000000	41.382637
1792.000000	41.356471
1791.000000	41.336373
1790.000000	41.284347
1789.000000	41.257344
1788.000000	41.261669
1787.000000	41.230411
1786.000000	41.202176
1785.000000	41.163040
1784.000000	41.120242
1783.000000	41.103438
1782.000000	41.054046
1781.000000	41.022081
1780.000000	40.990739
1779.000000	40.948546
1778.000000	40.897708
1777.000000	40.858617
1776.000000	40.809067
1775.000000	40.739308
1774.000000	40.691670
1773.000000	40.616304
1772.000000	40.560468
1771.000000	40.521778
1770.000000	40.435681
1769.000000	40.356628
1768.000000	40.315338
1767.000000	40.272519
1766.000000	40.233750
1765.000000	40.149566
1764.000000	40.092314
1763.000000	40.035763
1762.000000	39.952081
1761.000000	39.905844
1760.000000	39.806845
1759.000000	39.771933
1758.000000	39.742964
1757.000000	39.670043
1756.000000	39.609184
1755.000000	39.560008
1754.000000	39.490285
1753.000000	39.430386
1752.000000	39.362069
1751.000000	39.280223
1750.000000	39.238251
1749.000000	39.186232
1748.000000	39.096697
1747.000000	39.030510
1746.000000	38.969262
1745.000000	38.888101
1744.000000	38.811478
1743.000000	38.726208
1742.000000	38.651513
1741.000000	38.600764
1740.000000	38.553846
1739.000000	38.490279
1738.000000	38.383502
1737.000000	38.332351
1736.000000	38.306533
1735.000000	38.290120
1734.000000	38.246683
1733.000000	38.232861
1732.000000	38.244722
1731.000000	38.212693
1730.000000	38.205220
1729.000000	38.241381
1728.000000	38.291441
1727.000000	38.371003
1726.000000	38.406526
1725.000000	38.472589
1724.000000	38.548534
1723.000000	38.643431
1722.000000	38.741684
1721.000000	38.840269
1720.000000	38.995082
1719.000000	39.078431
1718.000000	39.172645
1717.000000	39.283346
1716.000000	39.397743
1715.000000	39.484953
1714.000000	39.631426
1713.000000	39.680940
1712.000000	39.784446
1711.000000	39.896244
1710.000000	39.973007
1709.000000	40.044702
1708.000000	40.091658
1707.000000	40.159549
1706.000000	40.176966
1705.000000	40.261952
1704.000000	40.321701
1703.000000	40.331998
1702.000000	40.369065
1701.000000	40.388587
1700.000000	40.382949
1699.000000	40.374461
1698.000000	40.447380
1697.000000	40.505080
1696.000000	40.552668
1695.000000	40.554736
1694.000000	40.612708
1693.000000	40.681866
1692.000000	40.717429
1691.000000	40.814924
1690.000000	40.871290
1689.000000	40.966881
1688.000000	41.093497
1687.000000	41.209008
1686.000000	41.310116
1685.000000	41.459838
1684.000000	41.619884
1683.000000	41.759672
1682.000000	41.927459
1681.000000	42.101103
1680.000000	42.291201
1679.000000	42.480265
1678.000000	42.672393
1677.000000	42.858141
1676.000000	43.044778
1675.000000	43.236358
1674.000000	43.426094
1673.000000	43.598046
1672.000000	43.800119
1671.000000	43.952893
1670.000000	44.140001
1669.000000	44.341700
1668.000000	44.481406
1667.000000	44.618089
1666.000000	44.728504
1665.000000	44.832093
1664.000000	44.946420
1663.000000	45.024728
1662.000000	45.135939
1661.000000	45.234379
1660.000000	45.300696
1659.000000	45.375693
1658.000000	45.428483
1657.000000	45.482599
1656.000000	45.552940
1655.000000	45.586053
1654.000000	45.637792
1653.000000	45.630493
1652.000000	45.669580
1651.000000	45.671319
1650.000000	45.669713
1649.000000	45.676634
1648.000000	45.660099
1647.000000	45.646453
1646.000000	45.639638
1645.000000	45.630017
1644.000000	45.601183
1643.000000	45.588133
1642.000000	45.582087
1641.000000	45.544780
1640.000000	45.517748
1639.000000	45.474112
1638.000000	45.455529
1637.000000	45.429473
1636.000000	45.386974
1635.000000	45.348456
1634.000000	45.286443
1633.000000	45.240508
1632.000000	45.204598
1631.000000	45.165275
1630.000000	45.128082
1629.000000	45.082510
1628.000000	45.024982
1627.000000	44.956618
1626.000000	44.883075
1625.000000	44.854655
1624.000000	44.808430
1623.000000	44.750459
1622.000000	44.687167
1621.000000	44.621366
1620.000000	44.566869
1619.000000	44.507740
1618.000000	44.429331
1617.000000	44.360508
1616.000000	44.316920
1615.000000	44.257893
1614.000000	44.178693
1613.000000	44.105278
1612.000000	44.035582
1611.000000	43.963271
1610.000000	43.904632
1609.000000	43.840437
1608.000000	43.770066
1607.000000	43.689405
1606.000000	43.607860
1605.000000	43.532202
1604.000000	43.445983
1603.000000	43.360763
1602.000000	43.290362
1601.000000	43.217749
1600.000000	43.144696
1599.000000	43.076797
1598.000000	43.011321
1597.000000	42.930419
1596.000000	42.863500
1595.000000	42.806499
1594.000000	42.732269
1593.000000	42.674900
1592.000000	42.614931
1591.000000	42.542638
1590.000000	42.485675
1589.000000	42.410896
1588.000000	42.343183
1587.000000	42.301328
1586.000000	42.243072
1585.000000	42.176472
1584.000000	42.120992
1583.000000	42.071365
1582.000000	42.009262
1581.000000	41.961085
1580.000000	41.908460
1579.000000	41.848921
1578.000000	41.803419
1577.000000	41.747443
1576.000000	41.686631
1575.000000	41.624907
1574.000000	41.554620
1573.000000	41.512086
1572.000000	41.476821
1571.000000	41.426640
1570.000000	41.359162
1569.000000	41.307307
1568.000000	41.260865
1567.000000	41.220608
1566.000000	41.182555
1565.000000	41.144278
1564.000000	41.092535
1563.000000	41.061107
1562.000000	41.022022
1561.000000	40.987349
1560.000000	40.949807
1559.000000	40.915492
1558.000000	40.870047
1557.000000	40.849600
1556.000000	40.822917
1555.000000	40.784825
1554.000000	40.759094
1553.000000	40.723694
1552.000000	40.682702
1551.000000	40.628269
1550.000000	40.579315
1549.000000	40.516392
1548.000000	40.470451
1547.000000	40.409281
1546.000000	40.336936
1545.000000	40.266544
1544.000000	40.187383
1543.000000	40.095928
1542.000000	40.019225
1541.000000	39.937716
1540.000000	39.847244
1539.000000	39.756020
1538.000000	39.646804
1537.000000	39.548918
1536.000000	39.455168
1535.000000	39.368332
1534.000000	39.274894
1533.000000	39.172478
1532.000000	39.061365
1531.000000	38.971115
1530.000000	38.885530
1529.000000	38.800061
1528.000000	38.702986
1527.000000	38.639474
1526.000000	38.575643
1525.000000	38.488637
1524.000000	38.423700
1523.000000	38.356361
1522.000000	38.286894
1521.000000	38.236697
1520.000000	38.183252
1519.000000	38.125394
1518.000000	38.107158
1517.000000	38.046452
1516.000000	37.991827
1515.000000	37.950159
1514.000000	37.907088
1513.000000	37.895597
1512.000000	37.857385
1511.000000	37.809867
1510.000000	37.779440
1509.000000	37.758509
1508.000000	37.755546
1507.000000	37.730991
1506.000000	37.746891
1505.000000	37.757306
1504.000000	37.746620
1503.000000	37.730102
1502.000000	37.693169
1501.000000	37.688519
1500.000000	37.664216
1499.000000	37.653921
1498.000000	37.633879
1497.000000	37.624382
1496.000000	37.635801
1495.000000	37.653107
1494.000000	37.642851
1493.000000	37.658721
1492.000000	37.687791
1491.000000	37.700784
1490.000000	37.728108
1489.000000	37.748699
1488.000000	37.770658
1487.000000	37.809541
1486.000000	37.819360
1485.000000	37.854348
1484.000000	37.902650
1483.000000	37.931369
1482.000000	37.924042
1481.000000	37.973118
1480.000000	38.009152
1479.000000	38.063308
1478.000000	38.075515
1477.000000	38.114528
1476.000000	38.153152
1475.000000	38.189233
1474.000000	38.217809
1473.000000	38.260090
1472.000000	38.293330
1471.000000	38.313847
1470.000000	38.350592
