PE UV       SUBTECH     SPECTRUM    ASCII       PEDS        4.00        
   -1
RTms1593411.Sample.asc
18/03/13
15:51:49.00
18/03/13
15:51:49.00
Administrator

200.000000
1
Lambda 750
750N8071901
PerkinElmer UV WinLab 6.0.4.0738 / 1.61.00 Lambda 900

0
0
3350/servo 860.8/2
0
0
UV/VIS
1
1
1
CommonBeamDepol,150mm sphere / downward view
0
0
0
0
Program
Program
3350/servo 860.8/2
3350/0.2 860.8/0.2
3350/0.2 860.8/0.2
0
1
 
 
 
0
 
860.8
319.2
860.8
Front
100
on
 
 
0
0
0
 
0
 
 
 
0
 
 
0
0
0
0
0
 
 
 
 
0
0


0
0
#HDR
-1
-1
#GR
nm
%R
1.0
0.0
2350.000000
-1.000000
2151
8
51.910850
5.433502
#DATA
2350.000000	20.012756
2349.000000	19.861741
2348.000000	19.925171
2347.000000	20.853705
2346.000000	20.043146
2345.000000	19.920335
2344.000000	19.859840
2343.000000	20.032548
2342.000000	20.304311
2341.000000	20.487138
2340.000000	20.456473
2339.000000	20.595530
2338.000000	20.593824
2337.000000	20.620806
2336.000000	20.723046
2335.000000	21.116935
2334.000000	20.899524
2333.000000	20.818018
2332.000000	20.946659
2331.000000	20.883759
2330.000000	20.852058
2329.000000	20.754557
2328.000000	20.808829
2327.000000	20.669047
2326.000000	20.737448
2325.000000	20.757669
2324.000000	20.861788
2323.000000	20.673827
2322.000000	20.500515
2321.000000	20.603428
2320.000000	20.733510
2319.000000	20.573448
2318.000000	20.438547
2317.000000	20.481433
2316.000000	20.430956
2315.000000	20.197426
2314.000000	20.389915
2313.000000	20.178547
2312.000000	20.008279
2311.000000	19.996724
2310.000000	20.189695
2309.000000	19.887959
2308.000000	19.908142
2307.000000	19.841004
2306.000000	19.754490
2305.000000	19.788617
2304.000000	19.847374
2303.000000	19.902953
2302.000000	19.671859
2301.000000	19.625236
2300.000000	19.510866
2299.000000	19.541871
2298.000000	19.586813
2297.000000	19.436857
2296.000000	19.483659
2295.000000	19.244733
2294.000000	19.270833
2293.000000	19.096759
2292.000000	19.090484
2291.000000	19.210655
2290.000000	19.160087
2289.000000	19.036759
2288.000000	19.071430
2287.000000	19.088449
2286.000000	18.917655
2285.000000	19.011827
2284.000000	19.197169
2283.000000	18.970479
2282.000000	18.924803
2281.000000	19.074660
2280.000000	19.162615
2279.000000	19.174044
2278.000000	19.269130
2277.000000	19.307691
2276.000000	19.187392
2275.000000	19.170065
2274.000000	19.337748
2273.000000	19.477080
2272.000000	19.439735
2271.000000	19.403560
2270.000000	19.366766
2269.000000	19.571680
2268.000000	19.627086
2267.000000	19.377173
2266.000000	19.535670
2265.000000	19.796477
2264.000000	19.907214
2263.000000	20.001193
2262.000000	20.112686
2261.000000	20.166142
2260.000000	20.279381
2259.000000	20.338718
2258.000000	20.445907
2257.000000	20.713053
2256.000000	20.930991
2255.000000	20.985800
2254.000000	21.046877
2253.000000	21.273544
2252.000000	21.410939
2251.000000	21.612036
2250.000000	21.783304
2249.000000	21.933103
2248.000000	22.016160
2247.000000	22.228397
2246.000000	22.465738
2245.000000	22.559889
2244.000000	22.713324
2243.000000	22.974454
2242.000000	23.153613
2241.000000	23.270701
2240.000000	23.294437
2239.000000	23.377980
2238.000000	23.542652
2237.000000	23.664445
2236.000000	23.785306
2235.000000	23.807711
2234.000000	23.846551
2233.000000	23.874668
2232.000000	23.993960
2231.000000	24.086570
2230.000000	24.050709
2229.000000	23.982248
2228.000000	24.156540
2227.000000	24.217117
2226.000000	24.056295
2225.000000	24.126627
2224.000000	24.190061
2223.000000	24.024314
2222.000000	24.078152
2221.000000	24.050679
2220.000000	24.010705
2219.000000	24.022861
2218.000000	24.010271
2217.000000	23.970186
2216.000000	23.965885
2215.000000	23.866239
2214.000000	23.836472
2213.000000	23.889605
2212.000000	23.913440
2211.000000	23.787542
2210.000000	23.607542
2209.000000	23.557494
2208.000000	23.484033
2207.000000	23.397245
2206.000000	23.372846
2205.000000	23.278713
2204.000000	23.269818
2203.000000	23.163535
2202.000000	23.038083
2201.000000	22.903173
2200.000000	22.903419
2199.000000	22.844131
2198.000000	22.921764
2197.000000	22.868395
2196.000000	22.878410
2195.000000	22.899543
2194.000000	22.646591
2193.000000	22.481614
2192.000000	22.475918
2191.000000	22.474489
2190.000000	22.593173
2189.000000	22.438680
2188.000000	22.419436
2187.000000	22.301828
2186.000000	22.186601
2185.000000	22.103588
2184.000000	22.121086
2183.000000	22.143343
2182.000000	22.066623
2181.000000	22.103604
2180.000000	22.031636
2179.000000	22.089488
2178.000000	21.966633
2177.000000	22.015561
2176.000000	22.169580
2175.000000	22.095755
2174.000000	22.045480
2173.000000	22.175445
2172.000000	22.269538
2171.000000	22.311597
2170.000000	22.150550
2169.000000	22.380648
2168.000000	22.245280
2167.000000	22.275342
2166.000000	22.553730
2165.000000	22.608644
2164.000000	22.641073
2163.000000	22.747379
2162.000000	22.705605
2161.000000	22.951938
2160.000000	23.064332
2159.000000	23.098902
2158.000000	23.149992
2157.000000	23.297341
2156.000000	23.262245
2155.000000	23.514920
2154.000000	23.758103
2153.000000	23.961774
2152.000000	24.047396
2151.000000	24.091615
2150.000000	24.058037
2149.000000	24.382684
2148.000000	24.428539
2147.000000	24.492393
2146.000000	24.541180
2145.000000	24.732731
2144.000000	24.817413
2143.000000	24.947228
2142.000000	24.982359
2141.000000	25.206947
2140.000000	25.229337
2139.000000	25.393969
2138.000000	25.680753
2137.000000	25.717336
2136.000000	25.716281
2135.000000	25.904714
2134.000000	25.998266
2133.000000	25.708082
2132.000000	26.104311
2131.000000	26.288039
2130.000000	26.293100
2129.000000	26.281284
2128.000000	26.254506
2127.000000	26.386293
2126.000000	26.395951
2125.000000	26.291531
2124.000000	26.690119
2123.000000	26.665475
2122.000000	26.744953
2121.000000	26.834607
2120.000000	26.723578
2119.000000	26.658348
2118.000000	26.886007
2117.000000	27.088825
2116.000000	26.942780
2115.000000	27.015399
2114.000000	27.074404
2113.000000	27.014753
2112.000000	26.977654
2111.000000	26.905588
2110.000000	27.040753
2109.000000	27.078533
2108.000000	27.098746
2107.000000	27.195929
2106.000000	27.228706
2105.000000	27.339548
2104.000000	27.269623
2103.000000	27.285103
2102.000000	27.292612
2101.000000	27.319419
2100.000000	27.271337
2099.000000	27.382032
2098.000000	27.443176
2097.000000	27.369313
2096.000000	27.366586
2095.000000	27.276031
2094.000000	27.343080
2093.000000	27.390072
2092.000000	27.279737
2091.000000	27.267673
2090.000000	27.227898
2089.000000	27.264386
2088.000000	27.221273
2087.000000	27.290263
2086.000000	27.249949
2085.000000	27.132838
2084.000000	27.068036
2083.000000	26.951881
2082.000000	26.987183
2081.000000	26.953122
2080.000000	26.852168
2079.000000	26.736645
2078.000000	26.652229
2077.000000	26.595421
2076.000000	26.556527
2075.000000	26.380100
2074.000000	26.297879
2073.000000	26.211926
2072.000000	26.087969
2071.000000	25.965091
2070.000000	25.912439
2069.000000	25.814452
2068.000000	25.619756
2067.000000	25.518660
2066.000000	25.335335
2065.000000	25.147648
2064.000000	25.088315
2063.000000	24.989280
2062.000000	24.815969
2061.000000	24.699415
2060.000000	24.521096
2059.000000	24.378225
2058.000000	24.273525
2057.000000	24.164135
2056.000000	24.012853
2055.000000	23.987895
2054.000000	23.903891
2053.000000	23.751289
2052.000000	23.674292
2051.000000	23.570262
2050.000000	23.456700
2049.000000	23.375948
2048.000000	23.325460
2047.000000	23.374260
2046.000000	23.279559
2045.000000	23.189587
2044.000000	23.188643
2043.000000	23.178567
2042.000000	23.183006
2041.000000	23.236859
2040.000000	23.285066
2039.000000	23.296610
2038.000000	23.293390
2037.000000	23.341155
2036.000000	23.407913
2035.000000	23.520652
2034.000000	23.622489
2033.000000	23.683900
2032.000000	23.764533
2031.000000	23.832274
2030.000000	23.922006
2029.000000	24.015225
2028.000000	24.101799
2027.000000	24.196244
2026.000000	24.320700
2025.000000	24.390106
2024.000000	24.430334
2023.000000	24.523122
2022.000000	24.595004
2021.000000	24.612628
2020.000000	24.644259
2019.000000	24.687284
2018.000000	24.677614
2017.000000	24.655639
2016.000000	24.626900
2015.000000	24.599500
2014.000000	24.592940
2013.000000	24.552815
2012.000000	24.517943
2011.000000	24.536073
2010.000000	24.479942
2009.000000	24.341012
2008.000000	24.308320
2007.000000	24.265364
2006.000000	24.157264
2005.000000	24.102709
2004.000000	24.021542
2003.000000	23.936034
2002.000000	23.874538
2001.000000	23.750774
2000.000000	23.655600
1999.000000	23.569666
1998.000000	23.468165
1997.000000	23.384436
1996.000000	23.332993
1995.000000	23.201458
1994.000000	23.089547
1993.000000	22.971031
1992.000000	22.884608
1991.000000	22.785532
1990.000000	22.690913
1989.000000	22.557863
1988.000000	22.474204
1987.000000	22.395950
1986.000000	22.323641
1985.000000	22.210426
1984.000000	22.096972
1983.000000	22.001170
1982.000000	21.941427
1981.000000	21.837628
1980.000000	21.741569
1979.000000	21.631993
1978.000000	21.514019
1977.000000	21.424132
1976.000000	21.330655
1975.000000	21.247176
1974.000000	21.137855
1973.000000	21.073873
1972.000000	20.993119
1971.000000	20.895688
1970.000000	20.807452
1969.000000	20.773379
1968.000000	20.702938
1967.000000	20.631540
1966.000000	20.540665
1965.000000	20.478493
1964.000000	20.398288
1963.000000	20.265472
1962.000000	20.213483
1961.000000	20.091108
1960.000000	20.044138
1959.000000	19.977574
1958.000000	19.928231
1957.000000	19.822630
1956.000000	19.761295
1955.000000	19.705870
1954.000000	19.611358
1953.000000	19.553311
1952.000000	19.528137
1951.000000	19.509958
1950.000000	19.473890
1949.000000	19.400140
1948.000000	19.346620
1947.000000	19.347475
1946.000000	19.321761
1945.000000	19.333562
1944.000000	19.311486
1943.000000	19.313738
1942.000000	19.352142
1941.000000	19.344775
1940.000000	19.348485
1939.000000	19.399453
1938.000000	19.410691
1937.000000	19.395316
1936.000000	19.579451
1935.000000	19.683935
1934.000000	19.702279
1933.000000	19.867245
1932.000000	19.918664
1931.000000	19.996710
1930.000000	20.099298
1929.000000	20.192803
1928.000000	20.323694
1927.000000	20.507794
1926.000000	20.620303
1925.000000	20.831963
1924.000000	20.931105
1923.000000	21.200757
1922.000000	21.424978
1921.000000	21.669568
1920.000000	21.848942
1919.000000	22.058362
1918.000000	22.429233
1917.000000	22.738099
1916.000000	22.815096
1915.000000	23.178873
1914.000000	23.564973
1913.000000	23.847890
1912.000000	24.293563
1911.000000	24.616815
1910.000000	24.896525
1909.000000	25.372208
1908.000000	25.790971
1907.000000	26.211517
1906.000000	26.677698
1905.000000	27.044982
1904.000000	27.528743
1903.000000	28.070369
1902.000000	28.611297
1901.000000	29.056089
1900.000000	29.559559
1899.000000	30.151446
1898.000000	30.718062
1897.000000	31.138749
1896.000000	31.720369
1895.000000	32.239360
1894.000000	32.730741
1893.000000	33.229659
1892.000000	33.803756
1891.000000	34.231772
1890.000000	34.727341
1889.000000	35.160286
1888.000000	35.619050
1887.000000	36.075933
1886.000000	36.508225
1885.000000	36.974290
1884.000000	37.408071
1883.000000	37.748072
1882.000000	38.127062
1881.000000	38.520664
1880.000000	38.915740
1879.000000	39.288290
1878.000000	39.643272
1877.000000	39.971643
1876.000000	40.310211
1875.000000	40.640485
1874.000000	40.902088
1873.000000	41.098467
1872.000000	41.358456
1871.000000	41.607524
1870.000000	41.795937
1869.000000	42.002489
1868.000000	42.221992
1867.000000	42.330761
1866.000000	42.432341
1865.000000	42.598395
1864.000000	42.707730
1863.000000	42.777918
1862.000000	42.900399
1861.000000	42.928640
1860.000000	42.996428
1859.000000	43.099558
1858.000000	43.151053
1857.000000	43.174294
1856.000000	43.221170
1855.000000	43.296801
1854.000000	43.330794
1853.000000	43.344977
1852.000000	43.354695
1851.000000	43.381617
1850.000000	43.444456
1849.000000	43.403900
1848.000000	43.394303
1847.000000	43.435639
1846.000000	43.431660
1845.000000	43.397691
1844.000000	43.387291
1843.000000	43.344239
1842.000000	43.318545
1841.000000	43.298615
1840.000000	43.270125
1839.000000	43.247722
1838.000000	43.200915
1837.000000	43.122265
1836.000000	43.089214
1835.000000	43.089653
1834.000000	43.033242
1833.000000	42.976086
1832.000000	42.924475
1831.000000	42.875492
1830.000000	42.822033
1829.000000	42.777022
1828.000000	42.729645
1827.000000	42.679719
1826.000000	42.640019
1825.000000	42.610817
1824.000000	42.562136
1823.000000	42.520268
1822.000000	42.468285
1821.000000	42.439317
1820.000000	42.395997
1819.000000	42.331938
1818.000000	42.320835
1817.000000	42.292626
1816.000000	42.228610
1815.000000	42.193327
1814.000000	42.163323
1813.000000	42.107600
1812.000000	42.059552
1811.000000	42.039406
1810.000000	42.000344
1809.000000	41.961203
1808.000000	41.929011
1807.000000	41.878192
1806.000000	41.855583
1805.000000	41.806524
1804.000000	41.768700
1803.000000	41.766830
1802.000000	41.701299
1801.000000	41.640882
1800.000000	41.619450
1799.000000	41.601212
1798.000000	41.574454
1797.000000	41.530295
1796.000000	41.490746
1795.000000	41.466975
1794.000000	41.470419
1793.000000	41.433754
1792.000000	41.393121
1791.000000	41.380728
1790.000000	41.356342
1789.000000	41.340177
1788.000000	41.314340
1787.000000	41.282577
1786.000000	41.264878
1785.000000	41.254408
1784.000000	41.217077
1783.000000	41.168655
1782.000000	41.134136
1781.000000	41.093064
1780.000000	41.060301
1779.000000	41.037958
1778.000000	40.990061
1777.000000	40.930107
1776.000000	40.895054
1775.000000	40.811601
1774.000000	40.730549
1773.000000	40.688203
1772.000000	40.636013
1771.000000	40.582744
1770.000000	40.531385
1769.000000	40.445643
1768.000000	40.384506
1767.000000	40.305019
1766.000000	40.248535
1765.000000	40.197767
1764.000000	40.137064
1763.000000	40.068873
1762.000000	40.002613
1761.000000	39.948072
1760.000000	39.870831
1759.000000	39.815372
1758.000000	39.780031
1757.000000	39.733044
1756.000000	39.662851
1755.000000	39.592417
1754.000000	39.559456
1753.000000	39.493762
1752.000000	39.431029
1751.000000	39.352597
1750.000000	39.276615
1749.000000	39.226229
1748.000000	39.157345
1747.000000	39.071301
1746.000000	39.001560
1745.000000	38.941660
1744.000000	38.858154
1743.000000	38.783204
1742.000000	38.727355
1741.000000	38.650590
1740.000000	38.593242
1739.000000	38.526426
1738.000000	38.469864
1737.000000	38.406752
1736.000000	38.339730
1735.000000	38.323022
1734.000000	38.327872
1733.000000	38.311120
1732.000000	38.282983
1731.000000	38.287522
1730.000000	38.288430
1729.000000	38.353769
1728.000000	38.392975
1727.000000	38.423447
1726.000000	38.463018
1725.000000	38.564719
1724.000000	38.611792
1723.000000	38.719049
1722.000000	38.817806
1721.000000	38.916977
1720.000000	39.056844
1719.000000	39.157286
1718.000000	39.251371
1717.000000	39.395308
1716.000000	39.477712
1715.000000	39.566951
1714.000000	39.688329
1713.000000	39.755413
1712.000000	39.860974
1711.000000	39.982910
1710.000000	40.029707
1709.000000	40.122243
1708.000000	40.198234
1707.000000	40.229477
1706.000000	40.268061
1705.000000	40.315088
1704.000000	40.390430
1703.000000	40.410245
1702.000000	40.405706
1701.000000	40.425433
1700.000000	40.467158
1699.000000	40.465233
1698.000000	40.530269
1697.000000	40.568946
1696.000000	40.597499
1695.000000	40.638432
1694.000000	40.682346
1693.000000	40.720536
1692.000000	40.786666
1691.000000	40.863503
1690.000000	40.938998
1689.000000	41.042692
1688.000000	41.161621
1687.000000	41.268127
1686.000000	41.393709
1685.000000	41.541096
1684.000000	41.683138
1683.000000	41.844573
1682.000000	42.008827
1681.000000	42.188749
1680.000000	42.360942
1679.000000	42.537750
1678.000000	42.726240
1677.000000	42.922215
1676.000000	43.097300
1675.000000	43.302652
1674.000000	43.497768
1673.000000	43.671730
1672.000000	43.868639
1671.000000	44.050358
1670.000000	44.217329
1669.000000	44.387632
1668.000000	44.510342
1667.000000	44.683337
1666.000000	44.787886
1665.000000	44.895418
1664.000000	45.011169
1663.000000	45.089052
1662.000000	45.213931
1661.000000	45.306710
1660.000000	45.360783
1659.000000	45.407556
1658.000000	45.494338
1657.000000	45.545107
1656.000000	45.592589
1655.000000	45.609924
1654.000000	45.656304
1653.000000	45.694323
1652.000000	45.710953
1651.000000	45.700449
1650.000000	45.705219
1649.000000	45.723677
1648.000000	45.693783
1647.000000	45.702082
1646.000000	45.683032
1645.000000	45.677467
1644.000000	45.646899
1643.000000	45.623936
1642.000000	45.623559
1641.000000	45.576433
1640.000000	45.546977
1639.000000	45.517198
1638.000000	45.494164
1637.000000	45.460117
1636.000000	45.403359
1635.000000	45.363123
1634.000000	45.323565
1633.000000	45.259827
1632.000000	45.238786
1631.000000	45.212515
1630.000000	45.156509
1629.000000	45.104765
1628.000000	45.061299
1627.000000	45.010738
1626.000000	44.941333
1625.000000	44.899262
1624.000000	44.841911
1623.000000	44.793445
1622.000000	44.734399
1621.000000	44.654943
1620.000000	44.606617
1619.000000	44.553257
1618.000000	44.480201
1617.000000	44.399443
1616.000000	44.345643
1615.000000	44.293497
1614.000000	44.219861
1613.000000	44.141386
1612.000000	44.069869
1611.000000	43.995433
1610.000000	43.938718
1609.000000	43.883326
1608.000000	43.796164
1607.000000	43.719345
1606.000000	43.645287
1605.000000	43.562040
1604.000000	43.475715
1603.000000	43.392315
1602.000000	43.327379
1601.000000	43.260231
1600.000000	43.189301
1599.000000	43.122915
1598.000000	43.049552
1597.000000	42.963691
1596.000000	42.906887
1595.000000	42.852418
1594.000000	42.780207
1593.000000	42.718896
1592.000000	42.652556
1591.000000	42.580568
1590.000000	42.515210
1589.000000	42.440022
1588.000000	42.383638
1587.000000	42.330861
1586.000000	42.261781
1585.000000	42.204789
1584.000000	42.151030
1583.000000	42.093815
1582.000000	42.032618
1581.000000	41.986667
1580.000000	41.932525
1579.000000	41.883908
1578.000000	41.851759
1577.000000	41.786176
1576.000000	41.720510
1575.000000	41.670619
1574.000000	41.599314
1573.000000	41.547782
1572.000000	41.508676
1571.000000	41.449899
1570.000000	41.409017
1569.000000	41.357965
1568.000000	41.304442
1567.000000	41.261659
1566.000000	41.219763
1565.000000	41.174710
1564.000000	41.129133
1563.000000	41.105594
1562.000000	41.067115
1561.000000	41.022631
1560.000000	40.999347
1559.000000	40.963513
1558.000000	40.927662
1557.000000	40.892664
1556.000000	40.857594
1555.000000	40.815860
1554.000000	40.781840
1553.000000	40.757863
1552.000000	40.727888
1551.000000	40.673452
1550.000000	40.611254
1549.000000	40.553886
1548.000000	40.515325
1547.000000	40.447896
1546.000000	40.372115
1545.000000	40.305465
1544.000000	40.215278
1543.000000	40.136251
1542.000000	40.052782
1541.000000	39.964198
1540.000000	39.873017
1539.000000	39.777649
1538.000000	39.680353
1537.000000	39.581761
1536.000000	39.477807
1535.000000	39.381368
1534.000000	39.283787
1533.000000	39.206537
1532.000000	39.105731
1531.000000	38.986679
1530.000000	38.921520
1529.000000	38.835952
1528.000000	38.744734
1527.000000	38.677586
1526.000000	38.609815
1525.000000	38.519973
1524.000000	38.450590
1523.000000	38.396288
1522.000000	38.320545
1521.000000	38.264794
1520.000000	38.213876
1519.000000	38.160665
1518.000000	38.138600
1517.000000	38.092037
1516.000000	38.046006
1515.000000	37.999181
1514.000000	37.953883
1513.000000	37.919765
1512.000000	37.888223
1511.000000	37.848883
1510.000000	37.825331
1509.000000	37.804300
1508.000000	37.798916
1507.000000	37.810751
1506.000000	37.816846
1505.000000	37.835365
1504.000000	37.790293
1503.000000	37.748399
1502.000000	37.738564
1501.000000	37.708940
1500.000000	37.685446
1499.000000	37.690920
1498.000000	37.686754
1497.000000	37.677956
1496.000000	37.676839
1495.000000	37.696678
1494.000000	37.691668
1493.000000	37.707337
1492.000000	37.730342
1491.000000	37.755165
1490.000000	37.801393
1489.000000	37.804195
1488.000000	37.822407
1487.000000	37.857751
1486.000000	37.876358
1485.000000	37.900429
1484.000000	37.936506
1483.000000	37.972292
1482.000000	38.017504
1481.000000	38.038388
1480.000000	38.078158
1479.000000	38.116745
1478.000000	38.161179
1477.000000	38.185951
1476.000000	38.223155
1475.000000	38.269542
1474.000000	38.303572
1473.000000	38.321508
1472.000000	38.353646
1471.000000	38.376786
1470.000000	38.399278
