PE UV       SUBTECH     SPECTRUM    ASCII       PEDS        4.00        
   -1
RTms148351.Sample.asc
18/03/13
16:31:21.00
18/03/13
16:31:21.00
Administrator

200.000000
1
Lambda 750
750N8071901
PerkinElmer UV WinLab 6.0.4.0738 / 1.61.00 Lambda 900

0
0
3350/servo 860.8/2
0
0
UV/VIS
1
1
1
CommonBeamDepol,150mm sphere / downward view
0
0
0
0
Program
Program
3350/servo 860.8/2
3350/0.2 860.8/0.2
3350/0.2 860.8/0.2
0
1
 
 
 
0
 
860.8
319.2
860.8
Front
100
on
 
 
0
0
0
 
0
 
 
 
0
 
 
0
0
0
0
0
 
 
 
 
0
0


0
0
#HDR
-1
-1
#GR
nm
%R
1.0
0.0
2350.000000
-1.000000
2151
8
65.197805
9.888847
#DATA
2350.000000	36.418673
2349.000000	36.788974
2348.000000	37.112610
2347.000000	37.101470
2346.000000	36.902081
2345.000000	36.407150
2344.000000	36.699428
2343.000000	36.406877
2342.000000	36.589383
2341.000000	37.220268
2340.000000	36.838109
2339.000000	37.250098
2338.000000	37.529375
2337.000000	37.161317
2336.000000	37.719420
2335.000000	37.476201
2334.000000	37.566709
2333.000000	37.656739
2332.000000	37.860534
2331.000000	37.694828
2330.000000	37.640122
2329.000000	37.524666
2328.000000	37.284338
2327.000000	37.192609
2326.000000	37.468111
2325.000000	37.397674
2324.000000	37.326195
2323.000000	37.341571
2322.000000	37.127692
2321.000000	37.349965
2320.000000	37.142553
2319.000000	37.052434
2318.000000	37.214000
2317.000000	37.002509
2316.000000	36.799238
2315.000000	36.703426
2314.000000	36.740443
2313.000000	36.619877
2312.000000	36.551108
2311.000000	36.646996
2310.000000	36.713866
2309.000000	36.568979
2308.000000	36.525919
2307.000000	36.329895
2306.000000	36.146375
2305.000000	36.177787
2304.000000	36.263142
2303.000000	36.374327
2302.000000	36.215805
2301.000000	35.997944
2300.000000	36.024159
2299.000000	35.857149
2298.000000	35.985518
2297.000000	36.002778
2296.000000	35.943066
2295.000000	35.916059
2294.000000	35.822024
2293.000000	35.711531
2292.000000	35.673335
2291.000000	35.678212
2290.000000	35.522983
2289.000000	35.615458
2288.000000	35.747634
2287.000000	35.654365
2286.000000	35.643966
2285.000000	35.618246
2284.000000	35.629282
2283.000000	35.519503
2282.000000	35.547859
2281.000000	35.676218
2280.000000	35.643717
2279.000000	35.636996
2278.000000	35.790763
2277.000000	35.740686
2276.000000	35.768127
2275.000000	35.913677
2274.000000	35.909387
2273.000000	35.971206
2272.000000	36.022345
2271.000000	35.989332
2270.000000	36.025698
2269.000000	36.152465
2268.000000	36.113354
2267.000000	36.235513
2266.000000	36.488797
2265.000000	36.636787
2264.000000	36.753428
2263.000000	36.909507
2262.000000	37.013972
2261.000000	37.000859
2260.000000	37.203104
2259.000000	37.334161
2258.000000	37.577351
2257.000000	37.775265
2256.000000	37.798073
2255.000000	37.829476
2254.000000	38.151080
2253.000000	38.335312
2252.000000	38.381042
2251.000000	38.620506
2250.000000	38.890084
2249.000000	39.076441
2248.000000	39.184509
2247.000000	39.274886
2246.000000	39.512091
2245.000000	39.894810
2244.000000	40.049665
2243.000000	40.082697
2242.000000	40.203759
2241.000000	40.300196
2240.000000	40.428547
2239.000000	40.657124
2238.000000	40.782615
2237.000000	40.910835
2236.000000	40.978240
2235.000000	41.065480
2234.000000	41.116404
2233.000000	41.112898
2232.000000	41.275034
2231.000000	41.302960
2230.000000	41.286201
2229.000000	41.387753
2228.000000	41.500404
2227.000000	41.517568
2226.000000	41.376762
2225.000000	41.368813
2224.000000	41.422598
2223.000000	41.301124
2222.000000	41.309592
2221.000000	41.406606
2220.000000	41.483827
2219.000000	41.414349
2218.000000	41.331506
2217.000000	41.353800
2216.000000	41.295252
2215.000000	41.216670
2214.000000	41.236606
2213.000000	41.294651
2212.000000	41.110846
2211.000000	41.016904
2210.000000	40.989271
2209.000000	41.007655
2208.000000	40.943771
2207.000000	40.916896
2206.000000	40.848359
2205.000000	40.653219
2204.000000	40.627434
2203.000000	40.600760
2202.000000	40.602037
2201.000000	40.539448
2200.000000	40.457506
2199.000000	40.444097
2198.000000	40.470663
2197.000000	40.274827
2196.000000	40.153733
2195.000000	40.102399
2194.000000	40.163440
2193.000000	40.009129
2192.000000	40.131291
2191.000000	39.934183
2190.000000	39.934777
2189.000000	40.064641
2188.000000	39.812227
2187.000000	39.841496
2186.000000	39.836142
2185.000000	39.772042
2184.000000	39.737629
2183.000000	39.735033
2182.000000	39.715269
2181.000000	39.535319
2180.000000	39.590534
2179.000000	39.559203
2178.000000	39.553787
2177.000000	39.631034
2176.000000	39.658801
2175.000000	39.588525
2174.000000	39.580695
2173.000000	39.672986
2172.000000	39.634912
2171.000000	39.804023
2170.000000	39.907928
2169.000000	39.985712
2168.000000	40.007360
2167.000000	40.060044
2166.000000	40.009901
2165.000000	40.193682
2164.000000	40.258680
2163.000000	40.400511
2162.000000	40.506831
2161.000000	40.770815
2160.000000	40.688479
2159.000000	40.693987
2158.000000	40.862306
2157.000000	40.907148
2156.000000	41.106290
2155.000000	41.341304
2154.000000	41.382313
2153.000000	41.678921
2152.000000	41.725823
2151.000000	41.819160
2150.000000	41.987645
2149.000000	42.017071
2148.000000	42.118923
2147.000000	42.360110
2146.000000	42.274326
2145.000000	42.513114
2144.000000	42.525731
2143.000000	42.660859
2142.000000	42.714436
2141.000000	42.887416
2140.000000	43.153537
2139.000000	43.100854
2138.000000	43.326493
2137.000000	43.332909
2136.000000	43.410514
2135.000000	43.465736
2134.000000	43.508363
2133.000000	43.449493
2132.000000	43.610577
2131.000000	43.890756
2130.000000	43.956931
2129.000000	43.911892
2128.000000	43.940192
2127.000000	44.026109
2126.000000	43.924004
2125.000000	44.169434
2124.000000	44.028959
2123.000000	44.022473
2122.000000	44.171763
2121.000000	44.008349
2120.000000	44.127547
2119.000000	44.201054
2118.000000	44.331078
2117.000000	44.298348
2116.000000	44.251164
2115.000000	44.328033
2114.000000	44.215426
2113.000000	44.302682
2112.000000	44.487874
2111.000000	44.312448
2110.000000	44.298053
2109.000000	44.429816
2108.000000	44.364499
2107.000000	44.595428
2106.000000	44.447680
2105.000000	44.454490
2104.000000	44.358238
2103.000000	44.415465
2102.000000	44.477103
2101.000000	44.467799
2100.000000	44.439827
2099.000000	44.430274
2098.000000	44.365463
2097.000000	44.444254
2096.000000	44.405822
2095.000000	44.463405
2094.000000	44.476235
2093.000000	44.378239
2092.000000	44.437980
2091.000000	44.477197
2090.000000	44.397918
2089.000000	44.442475
2088.000000	44.398783
2087.000000	44.356172
2086.000000	44.327933
2085.000000	44.290969
2084.000000	44.124421
2083.000000	44.100398
2082.000000	44.017163
2081.000000	44.005948
2080.000000	44.009142
2079.000000	44.018585
2078.000000	43.875803
2077.000000	43.792333
2076.000000	43.765880
2075.000000	43.663391
2074.000000	43.482885
2073.000000	43.540139
2072.000000	43.385631
2071.000000	43.306954
2070.000000	43.232472
2069.000000	43.069895
2068.000000	42.902584
2067.000000	42.813730
2066.000000	42.731408
2065.000000	42.582641
2064.000000	42.458861
2063.000000	42.388195
2062.000000	42.252227
2061.000000	42.059289
2060.000000	41.893971
2059.000000	41.776638
2058.000000	41.719809
2057.000000	41.603146
2056.000000	41.469314
2055.000000	41.389784
2054.000000	41.227998
2053.000000	41.086356
2052.000000	41.010837
2051.000000	40.893448
2050.000000	40.756340
2049.000000	40.693682
2048.000000	40.644723
2047.000000	40.559541
2046.000000	40.449958
2045.000000	40.351353
2044.000000	40.357930
2043.000000	40.336480
2042.000000	40.316745
2041.000000	40.360705
2040.000000	40.381000
2039.000000	40.402267
2038.000000	40.429035
2037.000000	40.394911
2036.000000	40.437786
2035.000000	40.524095
2034.000000	40.591748
2033.000000	40.620866
2032.000000	40.706959
2031.000000	40.778787
2030.000000	40.839485
2029.000000	40.942651
2028.000000	41.025354
2027.000000	41.112259
2026.000000	41.215298
2025.000000	41.304293
2024.000000	41.322604
2023.000000	41.313757
2022.000000	41.350895
2021.000000	41.383399
2020.000000	41.394110
2019.000000	41.413292
2018.000000	41.434933
2017.000000	41.465049
2016.000000	41.415130
2015.000000	41.358858
2014.000000	41.378917
2013.000000	41.353216
2012.000000	41.279517
2011.000000	41.209646
2010.000000	41.166993
2009.000000	41.092086
2008.000000	41.005182
2007.000000	40.961731
2006.000000	40.877979
2005.000000	40.789224
2004.000000	40.747307
2003.000000	40.669172
2002.000000	40.567886
2001.000000	40.463348
2000.000000	40.343785
1999.000000	40.239349
1998.000000	40.136718
1997.000000	40.058096
1996.000000	39.979144
1995.000000	39.859611
1994.000000	39.730633
1993.000000	39.658138
1992.000000	39.566179
1991.000000	39.443144
1990.000000	39.353313
1989.000000	39.219168
1988.000000	39.162152
1987.000000	39.056141
1986.000000	38.945192
1985.000000	38.842515
1984.000000	38.727794
1983.000000	38.630451
1982.000000	38.567811
1981.000000	38.455810
1980.000000	38.376162
1979.000000	38.248706
1978.000000	38.133873
1977.000000	38.039176
1976.000000	37.927045
1975.000000	37.868400
1974.000000	37.749633
1973.000000	37.672094
1972.000000	37.577010
1971.000000	37.438884
1970.000000	37.390692
1969.000000	37.295501
1968.000000	37.212749
1967.000000	37.093303
1966.000000	37.045412
1965.000000	36.953055
1964.000000	36.874708
1963.000000	36.782479
1962.000000	36.694357
1961.000000	36.623585
1960.000000	36.553931
1959.000000	36.429057
1958.000000	36.358162
1957.000000	36.299182
1956.000000	36.228873
1955.000000	36.188620
1954.000000	36.131627
1953.000000	36.033032
1952.000000	36.014954
1951.000000	35.998794
1950.000000	35.908421
1949.000000	35.902095
1948.000000	35.880174
1947.000000	35.874301
1946.000000	35.821691
1945.000000	35.811451
1944.000000	35.853181
1943.000000	35.865064
1942.000000	35.919811
1941.000000	35.878816
1940.000000	35.945657
1939.000000	35.925138
1938.000000	36.009448
1937.000000	36.105189
1936.000000	36.137531
1935.000000	36.237912
1934.000000	36.307790
1933.000000	36.414498
1932.000000	36.492131
1931.000000	36.585622
1930.000000	36.748597
1929.000000	36.951049
1928.000000	37.128875
1927.000000	37.237153
1926.000000	37.471275
1925.000000	37.608416
1924.000000	37.848121
1923.000000	38.031201
1922.000000	38.257276
1921.000000	38.529867
1920.000000	38.737529
1919.000000	39.015829
1918.000000	39.292772
1917.000000	39.520262
1916.000000	39.751754
1915.000000	40.101506
1914.000000	40.452519
1913.000000	40.741440
1912.000000	41.161362
1911.000000	41.433754
1910.000000	41.779290
1909.000000	42.181216
1908.000000	42.496611
1907.000000	43.009205
1906.000000	43.435687
1905.000000	43.720648
1904.000000	44.164160
1903.000000	44.565978
1902.000000	45.065590
1901.000000	45.452205
1900.000000	45.930422
1899.000000	46.342490
1898.000000	46.832775
1897.000000	47.179610
1896.000000	47.680900
1895.000000	48.102970
1894.000000	48.507842
1893.000000	48.957024
1892.000000	49.395604
1891.000000	49.796419
1890.000000	50.145599
1889.000000	50.534253
1888.000000	50.918015
1887.000000	51.284798
1886.000000	51.652786
1885.000000	51.972363
1884.000000	52.376630
1883.000000	52.728998
1882.000000	52.924442
1881.000000	53.290113
1880.000000	53.576419
1879.000000	53.890064
1878.000000	54.175281
1877.000000	54.438672
1876.000000	54.670213
1875.000000	54.924399
1874.000000	55.160290
1873.000000	55.321929
1872.000000	55.491289
1871.000000	55.661441
1870.000000	55.892470
1869.000000	56.001874
1868.000000	56.086786
1867.000000	56.145791
1866.000000	56.314700
1865.000000	56.420352
1864.000000	56.475897
1863.000000	56.543914
1862.000000	56.661546
1861.000000	56.681527
1860.000000	56.706807
1859.000000	56.807649
1858.000000	56.839668
1857.000000	56.861796
1856.000000	56.938558
1855.000000	56.957750
1854.000000	56.994769
1853.000000	56.997364
1852.000000	56.990073
1851.000000	57.046566
1850.000000	57.069821
1849.000000	57.047064
1848.000000	57.070659
1847.000000	57.091164
1846.000000	57.063872
1845.000000	57.068508
1844.000000	57.078404
1843.000000	57.028407
1842.000000	57.034779
1841.000000	57.002947
1840.000000	56.963036
1839.000000	56.938170
1838.000000	56.894160
1837.000000	56.861197
1836.000000	56.839870
1835.000000	56.820033
1834.000000	56.796828
1833.000000	56.771650
1832.000000	56.718498
1831.000000	56.687380
1830.000000	56.669268
1829.000000	56.637387
1828.000000	56.611494
1827.000000	56.581869
1826.000000	56.539596
1825.000000	56.506228
1824.000000	56.498562
1823.000000	56.477886
1822.000000	56.412560
1821.000000	56.400999
1820.000000	56.397816
1819.000000	56.364835
1818.000000	56.332147
1817.000000	56.315761
1816.000000	56.299419
1815.000000	56.278908
1814.000000	56.238500
1813.000000	56.185771
1812.000000	56.168634
1811.000000	56.149009
1810.000000	56.133565
1809.000000	56.127799
1808.000000	56.108909
1807.000000	56.072508
1806.000000	56.041293
1805.000000	56.017935
1804.000000	55.982375
1803.000000	55.979054
1802.000000	55.976687
1801.000000	55.937918
1800.000000	55.908591
1799.000000	55.877932
1798.000000	55.842686
1797.000000	55.830048
1796.000000	55.833809
1795.000000	55.821103
1794.000000	55.818377
1793.000000	55.793158
1792.000000	55.770115
1791.000000	55.761388
1790.000000	55.748566
1789.000000	55.748912
1788.000000	55.751341
1787.000000	55.716047
1786.000000	55.690380
1785.000000	55.669793
1784.000000	55.645322
1783.000000	55.624891
1782.000000	55.580261
1781.000000	55.563791
1780.000000	55.529634
1779.000000	55.522027
1778.000000	55.477841
1777.000000	55.435111
1776.000000	55.419964
1775.000000	55.339679
1774.000000	55.277535
1773.000000	55.247696
1772.000000	55.195363
1771.000000	55.165925
1770.000000	55.118693
1769.000000	55.082833
1768.000000	55.035202
1767.000000	54.978353
1766.000000	54.962842
1765.000000	54.916078
1764.000000	54.880517
1763.000000	54.850844
1762.000000	54.785176
1761.000000	54.764195
1760.000000	54.735740
1759.000000	54.702179
1758.000000	54.683870
1757.000000	54.619616
1756.000000	54.605832
1755.000000	54.578729
1754.000000	54.542112
1753.000000	54.524194
1752.000000	54.500641
1751.000000	54.456903
1750.000000	54.411278
1749.000000	54.397977
1748.000000	54.340241
1747.000000	54.270251
1746.000000	54.230769
1745.000000	54.186401
1744.000000	54.176522
1743.000000	54.103550
1742.000000	54.071514
1741.000000	54.008096
1740.000000	53.991163
1739.000000	53.940054
1738.000000	53.899097
1737.000000	53.833205
1736.000000	53.818609
1735.000000	53.819637
1734.000000	53.781513
1733.000000	53.756549
1732.000000	53.735795
1731.000000	53.774245
1730.000000	53.766456
1729.000000	53.796082
1728.000000	53.832464
1727.000000	53.885039
1726.000000	53.923043
1725.000000	53.962543
1724.000000	54.013271
1723.000000	54.092888
1722.000000	54.172521
1721.000000	54.244960
1720.000000	54.394161
1719.000000	54.443050
1718.000000	54.483001
1717.000000	54.594110
1716.000000	54.686988
1715.000000	54.771257
1714.000000	54.865878
1713.000000	54.882027
1712.000000	54.982483
1711.000000	55.090908
1710.000000	55.157146
1709.000000	55.182889
1708.000000	55.260590
1707.000000	55.301009
1706.000000	55.361929
1705.000000	55.390965
1704.000000	55.421145
1703.000000	55.467164
1702.000000	55.475289
1701.000000	55.502041
1700.000000	55.511955
1699.000000	55.530493
1698.000000	55.576461
1697.000000	55.615171
1696.000000	55.652369
1695.000000	55.668555
1694.000000	55.735677
1693.000000	55.779330
1692.000000	55.828127
1691.000000	55.862814
1690.000000	55.944842
1689.000000	56.005126
1688.000000	56.088745
1687.000000	56.169401
1686.000000	56.248596
1685.000000	56.338929
1684.000000	56.457099
1683.000000	56.549691
1682.000000	56.686054
1681.000000	56.842992
1680.000000	56.925853
1679.000000	57.053983
1678.000000	57.175680
1677.000000	57.301487
1676.000000	57.430750
1675.000000	57.568283
1674.000000	57.702061
1673.000000	57.814703
1672.000000	57.919267
1671.000000	58.050040
1670.000000	58.174485
1669.000000	58.295605
1668.000000	58.374308
1667.000000	58.498315
1666.000000	58.536869
1665.000000	58.623058
1664.000000	58.693704
1663.000000	58.762882
1662.000000	58.816145
1661.000000	58.882132
1660.000000	58.921353
1659.000000	58.957954
1658.000000	59.014966
1657.000000	59.046483
1656.000000	59.092514
1655.000000	59.094261
1654.000000	59.130269
1653.000000	59.130843
1652.000000	59.136030
1651.000000	59.133910
1650.000000	59.145920
1649.000000	59.146799
1648.000000	59.133173
1647.000000	59.117841
1646.000000	59.123365
1645.000000	59.146481
1644.000000	59.100908
1643.000000	59.079871
1642.000000	59.077930
1641.000000	59.038874
1640.000000	59.011433
1639.000000	59.002318
1638.000000	58.978296
1637.000000	58.963104
1636.000000	58.934362
1635.000000	58.917802
1634.000000	58.884594
1633.000000	58.844662
1632.000000	58.829509
1631.000000	58.802388
1630.000000	58.759134
1629.000000	58.728047
1628.000000	58.707913
1627.000000	58.670805
1626.000000	58.641117
1625.000000	58.609155
1624.000000	58.581541
1623.000000	58.544082
1622.000000	58.509332
1621.000000	58.460664
1620.000000	58.416049
1619.000000	58.369300
1618.000000	58.321720
1617.000000	58.288129
1616.000000	58.256653
1615.000000	58.212562
1614.000000	58.169473
1613.000000	58.128873
1612.000000	58.081126
1611.000000	58.042061
1610.000000	58.003372
1609.000000	57.957154
1608.000000	57.907967
1607.000000	57.853638
1606.000000	57.811019
1605.000000	57.773181
1604.000000	57.706299
1603.000000	57.643645
1602.000000	57.606361
1601.000000	57.574642
1600.000000	57.536207
1599.000000	57.479555
1598.000000	57.433082
1597.000000	57.387030
1596.000000	57.346455
1595.000000	57.311433
1594.000000	57.267731
1593.000000	57.235994
1592.000000	57.188242
1591.000000	57.141687
1590.000000	57.117426
1589.000000	57.060999
1588.000000	57.018749
1587.000000	56.985120
1586.000000	56.943103
1585.000000	56.912114
1584.000000	56.887779
1583.000000	56.850328
1582.000000	56.797335
1581.000000	56.766901
1580.000000	56.739318
1579.000000	56.702479
1578.000000	56.677619
1577.000000	56.633992
1576.000000	56.614379
1575.000000	56.587766
1574.000000	56.523542
1573.000000	56.491478
1572.000000	56.472062
1571.000000	56.428010
1570.000000	56.388276
1569.000000	56.348763
1568.000000	56.311859
1567.000000	56.276093
1566.000000	56.252300
1565.000000	56.231864
1564.000000	56.203577
1563.000000	56.181379
1562.000000	56.155902
1561.000000	60.156861
1560.000000	58.301335
1559.000000	56.107005
1558.000000	56.071507
1557.000000	56.057557
1556.000000	56.048836
1555.000000	56.019224
1554.000000	55.990012
1553.000000	55.979511
1552.000000	55.949582
1551.000000	55.920475
1550.000000	55.890784
1549.000000	55.848066
1548.000000	55.820354
1547.000000	55.789145
1546.000000	55.745191
1545.000000	55.693144
1544.000000	55.627640
1543.000000	55.573387
1542.000000	55.531376
1541.000000	55.460745
1540.000000	55.401492
1539.000000	55.333249
1538.000000	55.263730
1537.000000	55.198332
1536.000000	55.136941
1535.000000	55.062509
1534.000000	55.005164
1533.000000	54.951792
1532.000000	54.875040
1531.000000	54.809551
1530.000000	54.756816
1529.000000	54.687666
1528.000000	54.631311
1527.000000	54.577712
1526.000000	54.538138
1525.000000	54.482507
1524.000000	54.436801
1523.000000	54.375898
1522.000000	54.319397
1521.000000	54.298449
1520.000000	54.276358
1519.000000	54.233297
1518.000000	54.226260
1517.000000	54.175481
1516.000000	54.158155
1515.000000	54.110952
1514.000000	54.097812
1513.000000	54.101507
1512.000000	54.068198
1511.000000	54.053270
1510.000000	54.034368
1509.000000	54.041378
1508.000000	54.042125
1507.000000	54.036126
1506.000000	54.015661
1505.000000	53.987369
1504.000000	53.955834
1503.000000	53.933346
1502.000000	53.918372
1501.000000	53.887347
1500.000000	53.891406
1499.000000	53.872274
1498.000000	53.879742
1497.000000	53.864683
1496.000000	53.862062
1495.000000	53.863503
1494.000000	53.863476
1493.000000	53.869603
1492.000000	53.891348
1491.000000	53.893872
1490.000000	53.914712
1489.000000	53.937933
1488.000000	53.917596
1487.000000	53.914104
1486.000000	53.959154
1485.000000	53.959421
1484.000000	53.994686
1483.000000	54.024224
1482.000000	54.035154
1481.000000	54.083155
1480.000000	54.112971
1479.000000	54.121597
1478.000000	54.146964
1477.000000	54.164575
1476.000000	54.196701
1475.000000	54.214015
1474.000000	54.232433
1473.000000	54.249213
1472.000000	54.302742
1471.000000	54.316256
1470.000000	54.327304
