PE UV       SUBTECH     SPECTRUM    ASCII       PEDS        4.00        
   -1
RTms159331.Sample.asc
18/03/13
14:23:35.00
18/03/13
14:23:35.00
Administrator

200.000000
1
Lambda 750
750N8071901
PerkinElmer UV WinLab 6.0.4.0738 / 1.61.00 Lambda 900

0
0
3350/servo 860.8/2
0
0
UV/VIS
1
1
1
CommonBeamDepol,150mm sphere / downward view
0
0
0
0
Program
Program
3350/servo 860.8/2
3350/0.2 860.8/0.2
3350/0.2 860.8/0.2
0
1
 
 
 
0
 
860.8
319.2
860.8
Front
100
on
 
 
0
0
0
 
0
 
 
 
0
 
 
0
0
0
0
0
 
 
 
 
0
0


0
0
#HDR
-1
-1
#GR
nm
%R
1.0
0.0
2350.000000
-1.000000
2151
8
53.644797
6.369895
#DATA
2350.000000	21.738514
2349.000000	22.187348
2348.000000	21.411001
2347.000000	22.503473
2346.000000	22.212710
2345.000000	22.346641
2344.000000	22.088072
2343.000000	22.129956
2342.000000	22.242397
2341.000000	22.677152
2340.000000	22.762233
2339.000000	22.919011
2338.000000	22.653620
2337.000000	23.075808
2336.000000	22.877249
2335.000000	22.973400
2334.000000	23.013336
2333.000000	22.900564
2332.000000	23.113593
2331.000000	23.166112
2330.000000	23.115200
2329.000000	22.969698
2328.000000	23.260791
2327.000000	22.998642
2326.000000	22.919015
2325.000000	22.702726
2324.000000	22.985211
2323.000000	22.693792
2322.000000	22.646730
2321.000000	22.841221
2320.000000	22.723168
2319.000000	22.528037
2318.000000	22.395396
2317.000000	22.414348
2316.000000	22.460477
2315.000000	22.099858
2314.000000	21.991929
2313.000000	22.003164
2312.000000	22.004231
2311.000000	22.019498
2310.000000	21.846772
2309.000000	21.993647
2308.000000	21.860609
2307.000000	21.806858
2306.000000	21.674438
2305.000000	21.814511
2304.000000	21.672412
2303.000000	21.730335
2302.000000	21.743821
2301.000000	21.620134
2300.000000	21.427642
2299.000000	21.198100
2298.000000	21.330631
2297.000000	21.268844
2296.000000	21.263445
2295.000000	20.921041
2294.000000	20.820142
2293.000000	21.034352
2292.000000	20.970428
2291.000000	20.993976
2290.000000	21.076458
2289.000000	21.024380
2288.000000	21.048946
2287.000000	21.085779
2286.000000	20.842767
2285.000000	20.697792
2284.000000	20.799990
2283.000000	20.880415
2282.000000	20.834808
2281.000000	20.853546
2280.000000	20.787902
2279.000000	20.890677
2278.000000	20.907091
2277.000000	20.787309
2276.000000	20.875522
2275.000000	21.058360
2274.000000	21.110154
2273.000000	21.160352
2272.000000	21.235504
2271.000000	21.271091
2270.000000	21.381399
2269.000000	21.375543
2268.000000	21.371088
2267.000000	21.489687
2266.000000	21.623601
2265.000000	21.739376
2264.000000	21.864566
2263.000000	21.945794
2262.000000	22.123955
2261.000000	22.301294
2260.000000	22.528698
2259.000000	22.704091
2258.000000	22.776119
2257.000000	22.843645
2256.000000	23.039692
2255.000000	23.242855
2254.000000	23.381627
2253.000000	23.589803
2252.000000	23.724847
2251.000000	23.957749
2250.000000	24.240927
2249.000000	24.386621
2248.000000	24.654293
2247.000000	24.826059
2246.000000	24.912852
2245.000000	25.103120
2244.000000	25.375771
2243.000000	25.573955
2242.000000	25.744041
2241.000000	25.816377
2240.000000	25.885724
2239.000000	26.057278
2238.000000	26.186126
2237.000000	26.294759
2236.000000	26.267168
2235.000000	26.434596
2234.000000	26.639529
2233.000000	26.631938
2232.000000	26.822782
2231.000000	26.826432
2230.000000	26.755409
2229.000000	26.919990
2228.000000	26.927029
2227.000000	26.801857
2226.000000	26.975207
2225.000000	27.023505
2224.000000	26.988051
2223.000000	26.976889
2222.000000	26.907736
2221.000000	26.906039
2220.000000	26.934897
2219.000000	26.964551
2218.000000	26.864898
2217.000000	26.845240
2216.000000	26.814418
2215.000000	26.717164
2214.000000	26.589875
2213.000000	26.607386
2212.000000	26.506280
2211.000000	26.464587
2210.000000	26.398010
2209.000000	26.309176
2208.000000	26.302666
2207.000000	26.269528
2206.000000	26.190034
2205.000000	26.068674
2204.000000	25.866352
2203.000000	25.908033
2202.000000	25.811731
2201.000000	25.734551
2200.000000	25.802339
2199.000000	25.761968
2198.000000	25.734465
2197.000000	25.601342
2196.000000	25.363484
2195.000000	25.274685
2194.000000	25.197240
2193.000000	25.064310
2192.000000	25.117091
2191.000000	25.051770
2190.000000	24.997881
2189.000000	24.991592
2188.000000	24.827633
2187.000000	24.817009
2186.000000	24.805473
2185.000000	24.746185
2184.000000	24.782029
2183.000000	24.713136
2182.000000	24.686879
2181.000000	24.589791
2180.000000	24.590796
2179.000000	24.601714
2178.000000	24.552371
2177.000000	24.472845
2176.000000	24.312799
2175.000000	24.433485
2174.000000	24.558013
2173.000000	24.675165
2172.000000	24.698225
2171.000000	24.695030
2170.000000	24.756977
2169.000000	24.724279
2168.000000	24.899910
2167.000000	24.863212
2166.000000	24.876410
2165.000000	24.995446
2164.000000	25.061253
2163.000000	25.161549
2162.000000	25.283606
2161.000000	25.438054
2160.000000	25.533922
2159.000000	25.677760
2158.000000	25.817271
2157.000000	25.898050
2156.000000	26.000459
2155.000000	26.232692
2154.000000	26.348736
2153.000000	26.553924
2152.000000	26.666392
2151.000000	26.880576
2150.000000	26.795921
2149.000000	26.973912
2148.000000	27.035218
2147.000000	27.079828
2146.000000	27.383686
2145.000000	27.514052
2144.000000	27.602419
2143.000000	27.589753
2142.000000	27.941854
2141.000000	28.080650
2140.000000	28.189500
2139.000000	28.260237
2138.000000	28.497673
2137.000000	28.509713
2136.000000	28.536987
2135.000000	28.805462
2134.000000	28.838395
2133.000000	28.840688
2132.000000	28.895218
2131.000000	29.156391
2130.000000	29.291971
2129.000000	29.319418
2128.000000	29.201332
2127.000000	29.377564
2126.000000	29.610062
2125.000000	29.562950
2124.000000	29.502712
2123.000000	29.710440
2122.000000	29.708930
2121.000000	29.764711
2120.000000	29.788598
2119.000000	29.906476
2118.000000	29.974136
2117.000000	29.975008
2116.000000	29.848186
2115.000000	29.950143
2114.000000	29.974102
2113.000000	30.096291
2112.000000	30.141519
2111.000000	30.120868
2110.000000	30.069268
2109.000000	29.990730
2108.000000	30.060162
2107.000000	30.279003
2106.000000	30.197359
2105.000000	30.159369
2104.000000	30.189244
2103.000000	30.202002
2102.000000	30.180518
2101.000000	30.325253
2100.000000	30.306025
2099.000000	30.274322
2098.000000	30.235047
2097.000000	30.301448
2096.000000	30.307285
2095.000000	30.297585
2094.000000	30.293323
2093.000000	30.191170
2092.000000	30.281538
2091.000000	30.303256
2090.000000	30.203730
2089.000000	30.213969
2088.000000	30.120317
2087.000000	30.132147
2086.000000	30.042694
2085.000000	30.085152
2084.000000	29.949757
2083.000000	29.933663
2082.000000	29.891842
2081.000000	29.723844
2080.000000	29.661496
2079.000000	29.609510
2078.000000	29.519432
2077.000000	29.476116
2076.000000	29.393172
2075.000000	29.240965
2074.000000	29.149693
2073.000000	29.035025
2072.000000	28.904978
2071.000000	28.770723
2070.000000	28.636982
2069.000000	28.498173
2068.000000	28.305632
2067.000000	28.174983
2066.000000	28.052186
2065.000000	27.889903
2064.000000	27.733168
2063.000000	27.584311
2062.000000	27.426143
2061.000000	27.270225
2060.000000	27.131652
2059.000000	26.941073
2058.000000	26.876597
2057.000000	26.758050
2056.000000	26.550807
2055.000000	26.482937
2054.000000	26.363921
2053.000000	26.228736
2052.000000	26.035319
2051.000000	25.898185
2050.000000	25.836904
2049.000000	25.763359
2048.000000	25.684371
2047.000000	25.652965
2046.000000	25.565777
2045.000000	25.473957
2044.000000	25.457371
2043.000000	25.469550
2042.000000	25.510687
2041.000000	25.483218
2040.000000	25.513557
2039.000000	25.543256
2038.000000	25.570890
2037.000000	25.565597
2036.000000	25.652864
2035.000000	25.774026
2034.000000	25.829534
2033.000000	25.914310
2032.000000	26.008928
2031.000000	26.075992
2030.000000	26.165546
2029.000000	26.270465
2028.000000	26.405065
2027.000000	26.534948
2026.000000	26.630572
2025.000000	26.698152
2024.000000	26.756787
2023.000000	26.840121
2022.000000	26.852860
2021.000000	26.890655
2020.000000	26.934805
2019.000000	26.942112
2018.000000	26.957764
2017.000000	26.947133
2016.000000	26.921713
2015.000000	26.922164
2014.000000	26.918449
2013.000000	26.854932
2012.000000	26.810373
2011.000000	26.800117
2010.000000	26.715232
2009.000000	26.649947
2008.000000	26.588138
2007.000000	26.488049
2006.000000	26.377072
2005.000000	26.295693
2004.000000	26.237269
2003.000000	26.120393
2002.000000	26.017003
2001.000000	25.884591
2000.000000	25.761263
1999.000000	25.692076
1998.000000	25.574426
1997.000000	25.494641
1996.000000	25.384974
1995.000000	25.202496
1994.000000	25.092398
1993.000000	25.003946
1992.000000	24.903598
1991.000000	24.753982
1990.000000	24.641559
1989.000000	24.521527
1988.000000	24.426363
1987.000000	24.324565
1986.000000	24.192091
1985.000000	24.081376
1984.000000	23.979847
1983.000000	23.895791
1982.000000	23.783989
1981.000000	23.708849
1980.000000	23.605424
1979.000000	23.448535
1978.000000	23.365044
1977.000000	23.233145
1976.000000	23.115353
1975.000000	23.012360
1974.000000	22.900414
1973.000000	22.803717
1972.000000	22.700171
1971.000000	22.611536
1970.000000	22.503369
1969.000000	22.440737
1968.000000	22.344866
1967.000000	22.229605
1966.000000	22.134172
1965.000000	22.021462
1964.000000	21.968392
1963.000000	21.902037
1962.000000	21.795383
1961.000000	21.706148
1960.000000	21.614552
1959.000000	21.544141
1958.000000	21.442450
1957.000000	21.373456
1956.000000	21.285152
1955.000000	21.207464
1954.000000	21.160342
1953.000000	21.122202
1952.000000	21.075882
1951.000000	20.980873
1950.000000	20.936453
1949.000000	20.897818
1948.000000	20.824883
1947.000000	20.848268
1946.000000	20.765584
1945.000000	20.741990
1944.000000	20.797793
1943.000000	20.808279
1942.000000	20.792286
1941.000000	20.814476
1940.000000	20.881010
1939.000000	20.899860
1938.000000	21.004788
1937.000000	21.077630
1936.000000	21.158377
1935.000000	21.172498
1934.000000	21.227105
1933.000000	21.304652
1932.000000	21.502891
1931.000000	21.526077
1930.000000	21.767298
1929.000000	21.836803
1928.000000	21.962754
1927.000000	22.094358
1926.000000	22.354710
1925.000000	22.523953
1924.000000	22.773530
1923.000000	23.026023
1922.000000	23.224424
1921.000000	23.499109
1920.000000	23.771133
1919.000000	24.095934
1918.000000	24.326634
1917.000000	24.613126
1916.000000	24.815580
1915.000000	25.302370
1914.000000	25.668691
1913.000000	26.045648
1912.000000	26.396222
1911.000000	26.763802
1910.000000	27.244218
1909.000000	27.647551
1908.000000	28.175920
1907.000000	28.640915
1906.000000	29.154822
1905.000000	29.576424
1904.000000	30.102693
1903.000000	30.612645
1902.000000	31.155441
1901.000000	31.733288
1900.000000	32.240718
1899.000000	32.864325
1898.000000	33.484938
1897.000000	33.956664
1896.000000	34.606252
1895.000000	35.118581
1894.000000	35.619125
1893.000000	36.204336
1892.000000	36.777644
1891.000000	37.361437
1890.000000	37.856688
1889.000000	38.329634
1888.000000	38.735238
1887.000000	39.295905
1886.000000	39.708142
1885.000000	40.198528
1884.000000	40.612316
1883.000000	41.082112
1882.000000	41.426955
1881.000000	41.873822
1880.000000	42.261492
1879.000000	42.596174
1878.000000	42.965897
1877.000000	43.273722
1876.000000	43.586803
1875.000000	43.886073
1874.000000	44.206799
1873.000000	44.431004
1872.000000	44.641978
1871.000000	44.853991
1870.000000	45.095059
1869.000000	45.261445
1868.000000	45.442772
1867.000000	45.552192
1866.000000	45.729575
1865.000000	45.832598
1864.000000	45.920000
1863.000000	46.010583
1862.000000	46.132905
1861.000000	46.205457
1860.000000	46.286859
1859.000000	46.345104
1858.000000	46.407769
1857.000000	46.427362
1856.000000	46.510226
1855.000000	46.577628
1854.000000	46.582291
1853.000000	46.621929
1852.000000	46.599850
1851.000000	46.620621
1850.000000	46.662545
1849.000000	46.628906
1848.000000	46.645206
1847.000000	46.678221
1846.000000	46.655086
1845.000000	46.635681
1844.000000	46.623459
1843.000000	46.590679
1842.000000	46.557837
1841.000000	46.508857
1840.000000	46.466542
1839.000000	46.436229
1838.000000	46.409048
1837.000000	46.325104
1836.000000	46.304019
1835.000000	46.247118
1834.000000	46.173810
1833.000000	46.135893
1832.000000	46.124293
1831.000000	46.071100
1830.000000	46.001246
1829.000000	45.960402
1828.000000	45.917896
1827.000000	45.877519
1826.000000	45.829541
1825.000000	45.791336
1824.000000	45.747778
1823.000000	45.705496
1822.000000	45.650239
1821.000000	45.615055
1820.000000	45.578325
1819.000000	45.549463
1818.000000	45.530621
1817.000000	45.497310
1816.000000	45.449571
1815.000000	45.401684
1814.000000	45.350977
1813.000000	45.298680
1812.000000	45.274707
1811.000000	45.239141
1810.000000	45.184181
1809.000000	45.151123
1808.000000	45.108815
1807.000000	45.065385
1806.000000	45.048934
1805.000000	45.009463
1804.000000	44.950165
1803.000000	44.929151
1802.000000	44.904294
1801.000000	44.852786
1800.000000	44.825719
1799.000000	44.820968
1798.000000	44.792072
1797.000000	44.762739
1796.000000	44.736261
1795.000000	44.703952
1794.000000	44.688493
1793.000000	44.646957
1792.000000	44.615424
1791.000000	44.605303
1790.000000	44.578702
1789.000000	44.558320
1788.000000	44.547773
1787.000000	44.508112
1786.000000	44.501271
1785.000000	44.484478
1784.000000	44.444422
1783.000000	44.409034
1782.000000	44.364760
1781.000000	44.342747
1780.000000	44.302080
1779.000000	44.266440
1778.000000	44.208544
1777.000000	44.148502
1776.000000	44.093587
1775.000000	44.020420
1774.000000	43.954618
1773.000000	43.904810
1772.000000	43.834507
1771.000000	43.779926
1770.000000	43.722124
1769.000000	43.661029
1768.000000	43.612221
1767.000000	43.555883
1766.000000	43.483513
1765.000000	43.439305
1764.000000	43.379099
1763.000000	43.333988
1762.000000	43.255346
1761.000000	43.209602
1760.000000	43.142466
1759.000000	43.088134
1758.000000	43.037340
1757.000000	42.984708
1756.000000	42.929036
1755.000000	42.876154
1754.000000	42.823230
1753.000000	42.734238
1752.000000	42.688426
1751.000000	42.642651
1750.000000	42.571345
1749.000000	42.512852
1748.000000	42.456240
1747.000000	42.358165
1746.000000	42.277719
1745.000000	42.185364
1744.000000	42.131535
1743.000000	42.072361
1742.000000	42.017313
1741.000000	41.931907
1740.000000	41.874625
1739.000000	41.801957
1738.000000	41.755568
1737.000000	41.696174
1736.000000	41.652093
1735.000000	41.632170
1734.000000	41.609647
1733.000000	41.587236
1732.000000	41.547964
1731.000000	41.583677
1730.000000	41.586553
1729.000000	41.582443
1728.000000	41.623931
1727.000000	41.684621
1726.000000	41.733612
1725.000000	41.787237
1724.000000	41.881760
1723.000000	41.957869
1722.000000	42.067655
1721.000000	42.163415
1720.000000	42.289830
1719.000000	42.383285
1718.000000	42.471765
1717.000000	42.580537
1716.000000	42.696308
1715.000000	42.803331
1714.000000	42.929480
1713.000000	42.985880
1712.000000	43.078803
1711.000000	43.197442
1710.000000	43.280457
1709.000000	43.352843
1708.000000	43.393190
1707.000000	43.414788
1706.000000	43.474996
1705.000000	43.526287
1704.000000	43.576463
1703.000000	43.602578
1702.000000	43.616372
1701.000000	43.664059
1700.000000	43.670649
1699.000000	43.698808
1698.000000	43.753542
1697.000000	43.768535
1696.000000	43.794983
1695.000000	43.822190
1694.000000	43.854697
1693.000000	43.920927
1692.000000	43.974488
1691.000000	44.067354
1690.000000	44.127521
1689.000000	44.242754
1688.000000	44.327385
1687.000000	44.473217
1686.000000	44.568506
1685.000000	44.659230
1684.000000	44.832772
1683.000000	44.978835
1682.000000	45.132875
1681.000000	45.330657
1680.000000	45.453147
1679.000000	45.624848
1678.000000	45.803643
1677.000000	46.008794
1676.000000	46.175331
1675.000000	46.343893
1674.000000	46.515666
1673.000000	46.706640
1672.000000	46.843052
1671.000000	47.004861
1670.000000	47.166737
1669.000000	47.336238
1668.000000	47.478663
1667.000000	47.595906
1666.000000	47.708402
1665.000000	47.800978
1664.000000	47.909205
1663.000000	47.979064
1662.000000	48.073322
1661.000000	48.131779
1660.000000	48.185362
1659.000000	48.262465
1658.000000	48.324792
1657.000000	48.364532
1656.000000	48.415323
1655.000000	48.439575
1654.000000	48.460653
1653.000000	48.479162
1652.000000	48.495933
1651.000000	48.480438
1650.000000	48.485290
1649.000000	48.503236
1648.000000	48.473893
1647.000000	48.470094
1646.000000	48.462724
1645.000000	48.454475
1644.000000	48.429417
1643.000000	48.408212
1642.000000	48.384875
1641.000000	48.334817
1640.000000	48.318978
1639.000000	48.303550
1638.000000	48.280539
1637.000000	48.249169
1636.000000	48.200303
1635.000000	48.161676
1634.000000	48.105200
1633.000000	48.055827
1632.000000	48.033116
1631.000000	47.989261
1630.000000	47.939393
1629.000000	47.891493
1628.000000	47.843570
1627.000000	47.782162
1626.000000	47.728300
1625.000000	47.686393
1624.000000	47.641465
1623.000000	47.594306
1622.000000	47.537164
1621.000000	47.466028
1620.000000	47.412742
1619.000000	47.373654
1618.000000	47.307304
1617.000000	47.243661
1616.000000	47.187841
1615.000000	47.127176
1614.000000	47.055260
1613.000000	46.987553
1612.000000	46.926333
1611.000000	46.859109
1610.000000	46.794959
1609.000000	46.732908
1608.000000	46.673370
1607.000000	46.605761
1606.000000	46.523103
1605.000000	46.456824
1604.000000	46.383724
1603.000000	46.307849
1602.000000	46.230449
1601.000000	46.163471
1600.000000	46.097501
1599.000000	46.024018
1598.000000	45.960625
1597.000000	45.893746
1596.000000	45.835638
1595.000000	45.769972
1594.000000	45.700002
1593.000000	45.643010
1592.000000	45.586355
1591.000000	45.534221
1590.000000	45.474554
1589.000000	45.399714
1588.000000	45.350063
1587.000000	45.297234
1586.000000	45.230874
1585.000000	45.186809
1584.000000	45.144133
1583.000000	45.081078
1582.000000	45.019413
1581.000000	44.964979
1580.000000	44.905330
1579.000000	44.855934
1578.000000	44.814847
1577.000000	44.749954
1576.000000	44.696776
1575.000000	44.648183
1574.000000	44.582582
1573.000000	44.521049
1572.000000	44.472289
1571.000000	44.425984
1570.000000	44.376331
1569.000000	44.325467
1568.000000	44.282550
1567.000000	44.245133
1566.000000	44.196221
1565.000000	44.155972
1564.000000	44.113671
1563.000000	44.082512
1562.000000	44.050759
1561.000000	44.004877
1560.000000	43.959293
1559.000000	43.925953
1558.000000	43.884928
1557.000000	43.862684
1556.000000	43.841066
1555.000000	43.794159
1554.000000	43.739771
1553.000000	43.710138
1552.000000	43.683573
1551.000000	43.629924
1550.000000	43.565035
1549.000000	43.514529
1548.000000	43.468835
1547.000000	43.416009
1546.000000	43.344588
1545.000000	43.283989
1544.000000	43.185402
1543.000000	43.106245
1542.000000	43.036164
1541.000000	42.949412
1540.000000	42.864160
1539.000000	42.759785
1538.000000	42.646826
1537.000000	42.554748
1536.000000	42.459575
1535.000000	42.366193
1534.000000	42.283874
1533.000000	42.199078
1532.000000	42.103774
1531.000000	42.008572
1530.000000	41.933844
1529.000000	41.846617
1528.000000	41.758618
1527.000000	41.682925
1526.000000	41.613437
1525.000000	41.531560
1524.000000	41.467729
1523.000000	41.404929
1522.000000	41.339732
1521.000000	41.287079
1520.000000	41.227000
1519.000000	41.177713
1518.000000	41.145261
1517.000000	41.096205
1516.000000	41.063705
1515.000000	41.007131
1514.000000	40.964579
1513.000000	40.967038
1512.000000	40.916054
1511.000000	40.872726
1510.000000	40.845648
1509.000000	40.864711
1508.000000	40.843121
1507.000000	40.858114
1506.000000	40.864050
1505.000000	40.827282
1504.000000	40.793613
1503.000000	40.745567
1502.000000	40.730282
1501.000000	40.700980
1500.000000	40.699599
1499.000000	40.676995
1498.000000	40.685425
1497.000000	40.659482
1496.000000	40.666481
1495.000000	40.656908
1494.000000	40.654453
1493.000000	40.665116
1492.000000	40.689105
1491.000000	40.706209
1490.000000	40.717248
1489.000000	40.754511
1488.000000	40.764710
1487.000000	40.764436
1486.000000	40.807485
1485.000000	40.819391
1484.000000	40.816310
1483.000000	40.841433
1482.000000	40.852196
1481.000000	40.922285
1480.000000	40.932288
1479.000000	40.968892
1478.000000	41.000306
1477.000000	41.029716
1476.000000	41.065974
1475.000000	41.085317
1474.000000	41.096270
1473.000000	41.145596
1472.000000	41.174723
1471.000000	41.191048
1470.000000	41.207415
