PE UV       SUBTECH     SPECTRUM    ASCII       PEDS        4.00        
   -1
RTms148361.Sample.asc
18/03/13
17:30:48.00
18/03/13
17:30:48.00
Administrator

200.000000
1
Lambda 750
750N8071901
PerkinElmer UV WinLab 6.0.4.0738 / 1.61.00 Lambda 900

0
0
3350/servo 860.8/2
0
0
UV/VIS
1
1
1
CommonBeamDepol,150mm sphere / downward view
0
0
0
0
Program
Program
3350/servo 860.8/2
3350/0.2 860.8/0.2
3350/0.2 860.8/0.2
0
1
 
 
 
0
 
860.8
319.2
860.8
Front
100
on
 
 
0
0
0
 
0
 
 
 
0
 
 
0
0
0
0
0
 
 
 
 
0
0


0
0
#HDR
-1
-1
#GR
nm
%R
1.0
0.0
2350.000000
-1.000000
2151
8
58.508090
8.236829
#DATA
2350.000000	38.035584
2349.000000	38.561182
2348.000000	37.915338
2347.000000	38.648511
2346.000000	38.202091
2345.000000	38.131792
2344.000000	38.493355
2343.000000	38.344261
2342.000000	38.378571
2341.000000	38.610204
2340.000000	38.554849
2339.000000	38.763627
2338.000000	38.786956
2337.000000	38.675889
2336.000000	38.926405
2335.000000	38.951682
2334.000000	39.199307
2333.000000	39.016416
2332.000000	38.969545
2331.000000	39.083877
2330.000000	38.987154
2329.000000	38.924850
2328.000000	38.672566
2327.000000	38.545819
2326.000000	38.987898
2325.000000	38.763975
2324.000000	38.709671
2323.000000	38.572222
2322.000000	38.562396
2321.000000	38.869526
2320.000000	38.633187
2319.000000	38.689233
2318.000000	38.635871
2317.000000	38.425865
2316.000000	38.455511
2315.000000	38.388776
2314.000000	38.179992
2313.000000	38.103262
2312.000000	38.122283
2311.000000	38.228476
2310.000000	38.005624
2309.000000	37.816862
2308.000000	37.808229
2307.000000	37.779691
2306.000000	37.963708
2305.000000	37.712182
2304.000000	37.833434
2303.000000	37.903926
2302.000000	38.038517
2301.000000	37.803400
2300.000000	37.789562
2299.000000	37.707381
2298.000000	37.711485
2297.000000	37.657906
2296.000000	37.735586
2295.000000	37.681592
2294.000000	37.444806
2293.000000	37.210840
2292.000000	37.063091
2291.000000	37.127198
2290.000000	37.029085
2289.000000	37.134555
2288.000000	37.173546
2287.000000	37.135458
2286.000000	36.994780
2285.000000	37.092141
2284.000000	37.025213
2283.000000	36.844517
2282.000000	36.916887
2281.000000	37.083826
2280.000000	37.211139
2279.000000	37.088118
2278.000000	37.029302
2277.000000	36.920028
2276.000000	37.006264
2275.000000	37.160312
2274.000000	37.230221
2273.000000	37.221956
2272.000000	37.265135
2271.000000	37.325603
2270.000000	37.470415
2269.000000	37.447298
2268.000000	37.464099
2267.000000	37.710449
2266.000000	37.790926
2265.000000	37.821880
2264.000000	38.000944
2263.000000	38.065772
2262.000000	38.147907
2261.000000	38.219129
2260.000000	38.392102
2259.000000	38.560449
2258.000000	38.633096
2257.000000	38.742559
2256.000000	38.778707
2255.000000	38.909903
2254.000000	39.118499
2253.000000	39.387624
2252.000000	39.494129
2251.000000	39.620416
2250.000000	39.810114
2249.000000	39.976263
2248.000000	40.047678
2247.000000	40.107521
2246.000000	40.295038
2245.000000	40.621953
2244.000000	40.749119
2243.000000	40.778468
2242.000000	40.914712
2241.000000	40.962955
2240.000000	41.020527
2239.000000	41.086130
2238.000000	41.099461
2237.000000	41.277896
2236.000000	41.558327
2235.000000	41.654832
2234.000000	41.541339
2233.000000	41.536954
2232.000000	41.599328
2231.000000	41.601664
2230.000000	41.637253
2229.000000	41.683222
2228.000000	41.755551
2227.000000	41.748056
2226.000000	41.742585
2225.000000	41.801311
2224.000000	41.776536
2223.000000	41.754201
2222.000000	41.805866
2221.000000	41.790323
2220.000000	41.698709
2219.000000	41.754777
2218.000000	41.746422
2217.000000	41.740450
2216.000000	41.755038
2215.000000	41.650540
2214.000000	41.652969
2213.000000	41.801080
2212.000000	41.698505
2211.000000	41.561688
2210.000000	41.521302
2209.000000	41.494647
2208.000000	41.469804
2207.000000	41.487797
2206.000000	41.476915
2205.000000	41.443341
2204.000000	41.314684
2203.000000	41.209124
2202.000000	41.213185
2201.000000	41.230589
2200.000000	41.183976
2199.000000	41.099416
2198.000000	41.117436
2197.000000	41.056822
2196.000000	41.028475
2195.000000	40.963353
2194.000000	40.975698
2193.000000	40.832646
2192.000000	40.760993
2191.000000	40.789038
2190.000000	40.744216
2189.000000	40.702162
2188.000000	40.730914
2187.000000	40.597240
2186.000000	40.497052
2185.000000	40.645961
2184.000000	40.709746
2183.000000	40.667342
2182.000000	40.581505
2181.000000	40.565313
2180.000000	40.404813
2179.000000	40.526404
2178.000000	40.603806
2177.000000	40.565746
2176.000000	40.611286
2175.000000	40.536243
2174.000000	40.772271
2173.000000	40.645854
2172.000000	40.681815
2171.000000	40.931466
2170.000000	40.833674
2169.000000	40.868944
2168.000000	40.990567
2167.000000	41.108001
2166.000000	41.031828
2165.000000	41.023804
2164.000000	41.156424
2163.000000	41.262707
2162.000000	41.443234
2161.000000	41.617535
2160.000000	41.579587
2159.000000	41.540335
2158.000000	41.795094
2157.000000	41.769537
2156.000000	42.005398
2155.000000	41.942421
2154.000000	42.024454
2153.000000	42.334844
2152.000000	42.460294
2151.000000	42.364141
2150.000000	42.422150
2149.000000	42.601989
2148.000000	42.713771
2147.000000	42.860732
2146.000000	42.797071
2145.000000	43.053522
2144.000000	43.116983
2143.000000	43.201145
2142.000000	43.354335
2141.000000	43.312737
2140.000000	43.535221
2139.000000	43.536402
2138.000000	43.730878
2137.000000	43.605764
2136.000000	43.753404
2135.000000	43.797781
2134.000000	43.931617
2133.000000	43.653384
2132.000000	43.932378
2131.000000	43.968214
2130.000000	44.068569
2129.000000	44.044456
2128.000000	44.087841
2127.000000	44.186351
2126.000000	44.156646
2125.000000	44.225705
2124.000000	44.197866
2123.000000	44.281234
2122.000000	44.291082
2121.000000	44.432821
2120.000000	44.282128
2119.000000	44.224947
2118.000000	44.334293
2117.000000	44.318438
2116.000000	44.436889
2115.000000	44.397793
2114.000000	44.367376
2113.000000	44.431486
2112.000000	44.387717
2111.000000	44.493248
2110.000000	44.279460
2109.000000	44.540337
2108.000000	44.380191
2107.000000	44.418532
2106.000000	44.323449
2105.000000	44.409790
2104.000000	44.394700
2103.000000	44.372866
2102.000000	44.351852
2101.000000	44.420732
2100.000000	44.556751
2099.000000	44.516336
2098.000000	44.455576
2097.000000	44.550388
2096.000000	44.469078
2095.000000	44.441256
2094.000000	44.510665
2093.000000	44.444836
2092.000000	44.394798
2091.000000	44.440438
2090.000000	44.338933
2089.000000	44.350014
2088.000000	44.286731
2087.000000	44.352848
2086.000000	44.443033
2085.000000	44.379245
2084.000000	44.257757
2083.000000	44.184640
2082.000000	44.268888
2081.000000	44.157573
2080.000000	44.034839
2079.000000	44.111911
2078.000000	44.010537
2077.000000	43.967458
2076.000000	43.862736
2075.000000	43.834191
2074.000000	43.793274
2073.000000	43.761813
2072.000000	43.620314
2071.000000	43.581291
2070.000000	43.550280
2069.000000	43.451310
2068.000000	43.268835
2067.000000	43.231983
2066.000000	43.164172
2065.000000	43.051607
2064.000000	42.945360
2063.000000	42.909623
2062.000000	42.862186
2061.000000	42.693373
2060.000000	42.519779
2059.000000	42.417878
2058.000000	42.385144
2057.000000	42.317405
2056.000000	42.208195
2055.000000	42.107147
2054.000000	42.056951
2053.000000	41.953367
2052.000000	41.849135
2051.000000	41.720363
2050.000000	41.692486
2049.000000	41.693930
2048.000000	41.609213
2047.000000	41.565562
2046.000000	41.485542
2045.000000	41.432478
2044.000000	41.406533
2043.000000	41.400212
2042.000000	41.406049
2041.000000	41.455230
2040.000000	41.468591
2039.000000	41.424499
2038.000000	41.442077
2037.000000	41.442794
2036.000000	41.464321
2035.000000	41.570366
2034.000000	41.618870
2033.000000	41.639697
2032.000000	41.713742
2031.000000	41.747603
2030.000000	41.808658
2029.000000	41.888189
2028.000000	41.947246
2027.000000	42.022894
2026.000000	42.090739
2025.000000	42.107315
2024.000000	42.095697
2023.000000	42.142029
2022.000000	42.173513
2021.000000	42.176977
2020.000000	42.205516
2019.000000	42.211289
2018.000000	42.210984
2017.000000	42.193076
2016.000000	42.156533
2015.000000	42.165161
2014.000000	42.133676
2013.000000	42.083062
2012.000000	42.060368
2011.000000	42.018031
2010.000000	41.941369
2009.000000	41.864292
2008.000000	41.813684
2007.000000	41.772002
2006.000000	41.699569
2005.000000	41.640113
2004.000000	41.552769
2003.000000	41.481999
2002.000000	41.447585
2001.000000	41.360680
2000.000000	41.274075
1999.000000	41.210010
1998.000000	41.095139
1997.000000	41.031554
1996.000000	40.990773
1995.000000	40.907321
1994.000000	40.797822
1993.000000	40.694935
1992.000000	40.625190
1991.000000	40.554994
1990.000000	40.476222
1989.000000	40.373086
1988.000000	40.273913
1987.000000	40.196757
1986.000000	40.134123
1985.000000	40.041979
1984.000000	39.978321
1983.000000	39.924507
1982.000000	39.841158
1981.000000	39.761101
1980.000000	39.669584
1979.000000	39.568144
1978.000000	39.472749
1977.000000	39.408083
1976.000000	39.319744
1975.000000	39.241804
1974.000000	39.143183
1973.000000	39.089021
1972.000000	39.024351
1971.000000	38.916389
1970.000000	38.834204
1969.000000	38.778519
1968.000000	38.711847
1967.000000	38.643227
1966.000000	38.584995
1965.000000	38.539127
1964.000000	38.394421
1963.000000	38.316044
1962.000000	38.256127
1961.000000	38.207459
1960.000000	38.184957
1959.000000	38.077090
1958.000000	38.033084
1957.000000	37.969388
1956.000000	37.850909
1955.000000	37.858272
1954.000000	37.802713
1953.000000	37.713423
1952.000000	37.720971
1951.000000	37.729123
1950.000000	37.659292
1949.000000	37.640015
1948.000000	37.608757
1947.000000	37.543591
1946.000000	37.539882
1945.000000	37.545173
1944.000000	37.501769
1943.000000	37.508464
1942.000000	37.539455
1941.000000	37.576770
1940.000000	37.619091
1939.000000	37.625202
1938.000000	37.681603
1937.000000	37.730063
1936.000000	37.834062
1935.000000	37.841756
1934.000000	37.884574
1933.000000	38.024968
1932.000000	38.118348
1931.000000	38.178767
1930.000000	38.339957
1929.000000	38.444760
1928.000000	38.557918
1927.000000	38.680843
1926.000000	38.858962
1925.000000	38.947442
1924.000000	39.218419
1923.000000	39.314666
1922.000000	39.471660
1921.000000	39.804601
1920.000000	39.963043
1919.000000	40.178931
1918.000000	40.306744
1917.000000	40.617809
1916.000000	40.750988
1915.000000	41.019759
1914.000000	41.363306
1913.000000	41.644601
1912.000000	41.859322
1911.000000	42.133400
1910.000000	42.394492
1909.000000	42.669921
1908.000000	42.964195
1907.000000	43.268318
1906.000000	43.615908
1905.000000	43.890817
1904.000000	44.198590
1903.000000	44.570927
1902.000000	44.907168
1901.000000	45.220867
1900.000000	45.486943
1899.000000	45.895897
1898.000000	46.238112
1897.000000	46.464150
1896.000000	46.814388
1895.000000	47.110117
1894.000000	47.360284
1893.000000	47.693332
1892.000000	48.017475
1891.000000	48.293181
1890.000000	48.479921
1889.000000	48.768262
1888.000000	49.026924
1887.000000	49.271874
1886.000000	49.489133
1885.000000	49.707465
1884.000000	49.987076
1883.000000	50.209015
1882.000000	50.362542
1881.000000	50.583136
1880.000000	50.775732
1879.000000	50.926758
1878.000000	51.032089
1877.000000	51.228763
1876.000000	51.397554
1875.000000	51.574440
1874.000000	51.685176
1873.000000	51.789399
1872.000000	51.904064
1871.000000	52.030642
1870.000000	52.180819
1869.000000	52.273078
1868.000000	52.377790
1867.000000	52.419197
1866.000000	52.510051
1865.000000	52.553023
1864.000000	52.546038
1863.000000	52.605760
1862.000000	52.685568
1861.000000	52.711483
1860.000000	52.743286
1859.000000	52.754296
1858.000000	52.750946
1857.000000	52.773308
1856.000000	52.816979
1855.000000	52.854171
1854.000000	52.879273
1853.000000	52.895929
1852.000000	52.903664
1851.000000	52.903496
1850.000000	52.896200
1849.000000	52.893513
1848.000000	52.915036
1847.000000	52.915864
1846.000000	52.905640
1845.000000	52.925543
1844.000000	52.902073
1843.000000	52.868802
1842.000000	52.869083
1841.000000	52.836314
1840.000000	52.828329
1839.000000	52.860926
1838.000000	52.855461
1837.000000	52.818721
1836.000000	52.806258
1835.000000	52.796864
1834.000000	52.769781
1833.000000	52.761374
1832.000000	52.758784
1831.000000	52.751311
1830.000000	52.706713
1829.000000	52.693688
1828.000000	52.702565
1827.000000	52.704548
1826.000000	52.664938
1825.000000	52.657758
1824.000000	52.621101
1823.000000	52.578441
1822.000000	52.545229
1821.000000	52.543036
1820.000000	52.560886
1819.000000	52.557065
1818.000000	52.542395
1817.000000	52.505237
1816.000000	52.480020
1815.000000	52.493327
1814.000000	52.489463
1813.000000	52.463771
1812.000000	52.455914
1811.000000	52.452199
1810.000000	52.438210
1809.000000	52.441285
1808.000000	52.441570
1807.000000	52.407346
1806.000000	52.396911
1805.000000	52.374219
1804.000000	52.343596
1803.000000	52.365161
1802.000000	52.365395
1801.000000	52.333800
1800.000000	52.324995
1799.000000	52.318141
1798.000000	52.302376
1797.000000	52.298124
1796.000000	52.294352
1795.000000	52.279742
1794.000000	52.286180
1793.000000	52.277503
1792.000000	52.262810
1791.000000	52.237465
1790.000000	52.223948
1789.000000	52.232549
1788.000000	52.264274
1787.000000	52.228470
1786.000000	52.214625
1785.000000	52.223966
1784.000000	52.190679
1783.000000	52.176911
1782.000000	52.160904
1781.000000	52.161410
1780.000000	52.141340
1779.000000	52.127276
1778.000000	52.104120
1777.000000	52.056925
1776.000000	52.044494
1775.000000	51.991236
1774.000000	51.962851
1773.000000	51.958380
1772.000000	51.932869
1771.000000	51.923170
1770.000000	51.896863
1769.000000	51.868662
1768.000000	51.861263
1767.000000	51.819929
1766.000000	51.803607
1765.000000	51.780765
1764.000000	51.758659
1763.000000	51.711890
1762.000000	51.696594
1761.000000	51.668030
1760.000000	51.641791
1759.000000	51.637394
1758.000000	51.616350
1757.000000	51.613374
1756.000000	51.585096
1755.000000	51.572797
1754.000000	51.565755
1753.000000	51.525579
1752.000000	51.504399
1751.000000	51.485702
1750.000000	51.473969
1749.000000	51.470414
1748.000000	51.421232
1747.000000	51.378746
1746.000000	51.364054
1745.000000	51.365093
1744.000000	51.341752
1743.000000	51.294859
1742.000000	51.271845
1741.000000	51.252786
1740.000000	51.236203
1739.000000	51.194683
1738.000000	51.193122
1737.000000	51.178365
1736.000000	51.160258
1735.000000	51.144135
1734.000000	51.158259
1733.000000	51.153272
1732.000000	51.134398
1731.000000	51.155305
1730.000000	51.152435
1729.000000	51.195869
1728.000000	51.203017
1727.000000	51.239126
1726.000000	51.260705
1725.000000	51.324998
1724.000000	51.337926
1723.000000	51.391189
1722.000000	51.444794
1721.000000	51.490548
1720.000000	51.583587
1719.000000	51.612443
1718.000000	51.620417
1717.000000	51.697287
1716.000000	51.757494
1715.000000	51.804963
1714.000000	51.859731
1713.000000	51.881657
1712.000000	51.936437
1711.000000	52.004552
1710.000000	52.019392
1709.000000	52.060705
1708.000000	52.099337
1707.000000	52.103756
1706.000000	52.140014
1705.000000	52.173693
1704.000000	52.202823
1703.000000	52.199215
1702.000000	52.208446
1701.000000	52.238209
1700.000000	52.270004
1699.000000	52.251380
1698.000000	52.276371
1697.000000	52.331372
1696.000000	52.346805
1695.000000	52.343719
1694.000000	52.367775
1693.000000	52.385893
1692.000000	52.412655
1691.000000	52.423560
1690.000000	52.478709
1689.000000	52.530767
1688.000000	52.611819
1687.000000	52.646748
1686.000000	52.671117
1685.000000	52.731733
1684.000000	52.807102
1683.000000	52.867264
1682.000000	52.930800
1681.000000	53.034931
1680.000000	53.089269
1679.000000	53.157943
1678.000000	53.201394
1677.000000	53.283862
1676.000000	53.361689
1675.000000	53.440221
1674.000000	53.517134
1673.000000	53.589615
1672.000000	53.671003
1671.000000	53.709677
1670.000000	53.770717
1669.000000	53.854333
1668.000000	53.923497
1667.000000	53.961335
1666.000000	54.003747
1665.000000	54.042120
1664.000000	54.081936
1663.000000	54.110847
1662.000000	54.149795
1661.000000	54.175034
1660.000000	54.216486
1659.000000	54.244785
1658.000000	54.259843
1657.000000	54.272629
1656.000000	54.297670
1655.000000	54.323725
1654.000000	54.337728
1653.000000	54.359492
1652.000000	54.355710
1651.000000	54.332120
1650.000000	54.326645
1649.000000	54.359583
1648.000000	54.344048
1647.000000	54.350513
1646.000000	54.347213
1645.000000	54.346612
1644.000000	54.328523
1643.000000	54.325089
1642.000000	54.326978
1641.000000	54.297662
1640.000000	54.298686
1639.000000	54.292554
1638.000000	54.277970
1637.000000	54.262869
1636.000000	54.233040
1635.000000	54.237835
1634.000000	54.222776
1633.000000	54.211195
1632.000000	54.191039
1631.000000	54.165575
1630.000000	54.165980
1629.000000	54.152323
1628.000000	54.133346
1627.000000	54.114246
1626.000000	54.078601
1625.000000	54.081673
1624.000000	54.072133
1623.000000	54.053319
1622.000000	54.028671
1621.000000	53.997921
1620.000000	53.993709
1619.000000	53.978182
1618.000000	53.938972
1617.000000	53.914454
1616.000000	53.893028
1615.000000	53.882490
1614.000000	53.861653
1613.000000	53.833527
1612.000000	53.804927
1611.000000	53.774612
1610.000000	53.753653
1609.000000	53.745343
1608.000000	53.718094
1607.000000	53.686259
1606.000000	53.662514
1605.000000	53.638961
1604.000000	53.599691
1603.000000	53.569077
1602.000000	53.556951
1601.000000	53.537537
1600.000000	53.509857
1599.000000	53.476772
1598.000000	53.457525
1597.000000	53.427769
1596.000000	53.400291
1595.000000	53.379319
1594.000000	53.357916
1593.000000	53.348808
1592.000000	53.327352
1591.000000	53.296132
1590.000000	53.278411
1589.000000	53.254842
1588.000000	53.235548
1587.000000	53.214472
1586.000000	53.185165
1585.000000	53.164818
1584.000000	53.155780
1583.000000	53.134149
1582.000000	53.101151
1581.000000	53.084836
1580.000000	53.069017
1579.000000	53.053577
1578.000000	53.053144
1577.000000	53.037653
1576.000000	53.016566
1575.000000	53.002695
1574.000000	52.967342
1573.000000	52.942628
1572.000000	52.939088
1571.000000	52.918090
1570.000000	52.901482
1569.000000	52.879735
1568.000000	52.863705
1567.000000	52.849249
1566.000000	52.830254
1565.000000	52.807665
1564.000000	52.790480
1563.000000	52.791537
1562.000000	52.786234
1561.000000	52.773178
1560.000000	52.767449
1559.000000	52.739066
1558.000000	52.725997
1557.000000	52.730083
1556.000000	52.728800
1555.000000	52.716518
1554.000000	52.691303
1553.000000	52.681199
1552.000000	52.674360
1551.000000	52.656317
1550.000000	52.637925
1549.000000	52.612632
1548.000000	52.594163
1547.000000	52.573874
1546.000000	52.551329
1545.000000	52.522339
1544.000000	52.476805
1543.000000	52.448972
1542.000000	52.426297
1541.000000	52.393356
1540.000000	52.351021
1539.000000	52.313718
1538.000000	52.271590
1537.000000	52.234642
1536.000000	52.202268
1535.000000	52.158733
1534.000000	52.120485
1533.000000	52.099630
1532.000000	52.056082
1531.000000	52.009795
1530.000000	51.987019
1529.000000	51.926213
1528.000000	51.902783
1527.000000	51.879790
1526.000000	51.860064
1525.000000	51.818850
1524.000000	51.801277
1523.000000	51.766926
1522.000000	51.737470
1521.000000	51.712770
1520.000000	51.692482
1519.000000	51.664162
1518.000000	51.669688
1517.000000	51.641315
1516.000000	51.616249
1515.000000	51.600200
1514.000000	51.589439
1513.000000	51.603926
1512.000000	51.630849
1511.000000	51.666318
1510.000000	51.704943
1509.000000	51.708466
1508.000000	51.686889
1507.000000	51.638570
1506.000000	51.610996
1505.000000	51.617900
1504.000000	51.602148
1503.000000	51.567880
1502.000000	51.564002
1501.000000	51.563552
1500.000000	51.551861
1499.000000	51.534585
1498.000000	51.555193
1497.000000	51.546763
1496.000000	51.536011
1495.000000	51.543298
1494.000000	51.543702
1493.000000	51.545850
1492.000000	51.538508
1491.000000	51.553657
1490.000000	51.574426
1489.000000	51.597877
1488.000000	51.581522
1487.000000	51.605858
1486.000000	51.560509
1485.000000	51.560687
1484.000000	51.598370
1483.000000	51.605133
1482.000000	51.618265
1481.000000	51.662714
1480.000000	51.675509
1479.000000	51.687449
1478.000000	51.698880
1477.000000	51.712270
1476.000000	51.723490
1475.000000	51.754328
1474.000000	51.766018
1473.000000	51.784336
1472.000000	51.799406
1471.000000	51.837600
1470.000000	51.834213
