PE UV       SUBTECH     SPECTRUM    ASCII       PEDS        4.00        
   -1
TDms148361.Sample.Cycle1.asc
18/03/13
18:01:03.00
18/03/13
18:01:03.00
Administrator

200.000000
1
Lambda 750
750N8071901
PerkinElmer UV WinLab 6.0.4.0738 / 1.61.00 Lambda 900

0
0
3350/servo 860.8/2
0
0
UV/VIS
1
1
1
CommonBeamDepol,150mm sphere / downward view
0
0
0
0
Program
Program
3350/servo 860.8/2
3350/0.2 860.8/0.2
3350/0.2 860.8/0.2
0
1
 
 
 
0
 
860.8
319.2
860.8
Front
100
on
 
 
0
0
0
 
0
 
 
 
0
 
 
0
0
0
0
0
 
 
 
 
0
0


0
0
#HDR
-1
-1
#GR
nm
%T
1.0
0.0
2350.000000
-1.000000
2151
8
12.557165
0.013700
#DATA
2350.000000	8.380413
2349.000000	8.890451
2348.000000	8.221031
2347.000000	8.867613
2346.000000	8.493674
2345.000000	8.473296
2344.000000	8.553294
2343.000000	8.479150
2342.000000	8.724052
2341.000000	8.408921
2340.000000	8.972144
2339.000000	8.857740
2338.000000	9.094953
2337.000000	9.057436
2336.000000	9.211214
2335.000000	9.464271
2334.000000	9.182889
2333.000000	9.165051
2332.000000	9.493297
2331.000000	9.436546
2330.000000	9.169176
2329.000000	9.262794
2328.000000	9.150713
2327.000000	8.978696
2326.000000	9.095630
2325.000000	9.243562
2324.000000	9.426781
2323.000000	9.180677
2322.000000	8.885134
2321.000000	9.088525
2320.000000	9.064789
2319.000000	9.088908
2318.000000	8.997251
2317.000000	9.026491
2316.000000	8.809820
2315.000000	8.837276
2314.000000	8.930199
2313.000000	8.824331
2312.000000	8.817201
2311.000000	8.920807
2310.000000	8.678604
2309.000000	8.740117
2308.000000	8.514971
2307.000000	8.596171
2306.000000	8.512002
2305.000000	8.636621
2304.000000	8.706592
2303.000000	8.671461
2302.000000	8.761171
2301.000000	8.432498
2300.000000	8.222033
2299.000000	8.320148
2298.000000	8.314474
2297.000000	8.262216
2296.000000	8.375737
2295.000000	8.495189
2294.000000	8.517615
2293.000000	8.601897
2292.000000	8.674980
2291.000000	8.373185
2290.000000	8.254278
2289.000000	8.269588
2288.000000	8.277199
2287.000000	8.412747
2286.000000	8.337349
2285.000000	8.259222
2284.000000	8.347265
2283.000000	8.302001
2282.000000	8.320653
2281.000000	8.406592
2280.000000	8.283067
2279.000000	8.349684
2278.000000	8.202927
2277.000000	8.285017
2276.000000	8.396720
2275.000000	8.438421
2274.000000	8.332308
2273.000000	8.565779
2272.000000	8.577936
2271.000000	8.501477
2270.000000	8.485792
2269.000000	8.502918
2268.000000	8.435025
2267.000000	8.381849
2266.000000	8.476362
2265.000000	8.562231
2264.000000	8.639866
2263.000000	8.559764
2262.000000	8.531292
2261.000000	8.734034
2260.000000	8.810457
2259.000000	8.810703
2258.000000	8.933794
2257.000000	8.989848
2256.000000	8.904772
2255.000000	8.845610
2254.000000	8.927479
2253.000000	9.070577
2252.000000	9.057445
2251.000000	9.104121
2250.000000	9.183530
2249.000000	9.157169
2248.000000	9.191500
2247.000000	9.334900
2246.000000	9.470229
2245.000000	9.488285
2244.000000	9.500924
2243.000000	9.463851
2242.000000	9.506687
2241.000000	9.645205
2240.000000	9.553032
2239.000000	9.582458
2238.000000	9.771233
2237.000000	9.787741
2236.000000	9.681795
2235.000000	9.715980
2234.000000	9.758157
2233.000000	9.725524
2232.000000	9.760024
2231.000000	9.742451
2230.000000	9.812309
2229.000000	9.852306
2228.000000	9.926726
2227.000000	9.884342
2226.000000	9.720959
2225.000000	9.707839
2224.000000	9.763186
2223.000000	9.771250
2222.000000	9.771675
2221.000000	9.753179
2220.000000	9.725351
2219.000000	9.699965
2218.000000	9.743397
2217.000000	9.766648
2216.000000	9.826359
2215.000000	9.847016
2214.000000	9.740118
2213.000000	9.808502
2212.000000	9.908231
2211.000000	9.841908
2210.000000	9.709911
2209.000000	9.715819
2208.000000	9.666856
2207.000000	9.668348
2206.000000	9.597651
2205.000000	9.608473
2204.000000	9.585067
2203.000000	9.529899
2202.000000	9.463522
2201.000000	9.528527
2200.000000	9.367357
2199.000000	9.408731
2198.000000	9.456118
2197.000000	9.488790
2196.000000	9.411115
2195.000000	9.333703
2194.000000	9.376519
2193.000000	9.235720
2192.000000	9.364856
2191.000000	9.430150
2190.000000	9.219762
2189.000000	9.144871
2188.000000	9.235188
2187.000000	9.209568
2186.000000	9.234315
2185.000000	9.186573
2184.000000	9.308871
2183.000000	9.284209
2182.000000	9.286138
2181.000000	9.117631
2180.000000	9.238355
2179.000000	9.329140
2178.000000	9.088234
2177.000000	9.234319
2176.000000	9.095083
2175.000000	9.223159
2174.000000	9.145181
2173.000000	9.171884
2172.000000	9.323417
2171.000000	9.464733
2170.000000	9.355889
2169.000000	9.274343
2168.000000	9.392501
2167.000000	9.384960
2166.000000	9.345055
2165.000000	9.373493
2164.000000	9.463947
2163.000000	9.447305
2162.000000	9.494879
2161.000000	9.489753
2160.000000	9.651445
2159.000000	9.459356
2158.000000	9.529692
2157.000000	9.648083
2156.000000	9.655862
2155.000000	9.650690
2154.000000	9.807167
2153.000000	9.892682
2152.000000	9.738100
2151.000000	9.659959
2150.000000	9.678125
2149.000000	9.638659
2148.000000	9.663358
2147.000000	9.812234
2146.000000	9.663495
2145.000000	9.663723
2144.000000	9.965056
2143.000000	10.047103
2142.000000	9.902424
2141.000000	10.006235
2140.000000	10.056881
2139.000000	10.017594
2138.000000	9.958908
2137.000000	10.123241
2136.000000	10.076075
2135.000000	9.912044
2134.000000	10.289182
2133.000000	10.058182
2132.000000	10.148036
2131.000000	10.417992
2130.000000	10.246718
2129.000000	10.059308
2128.000000	10.169614
2127.000000	10.089063
2126.000000	10.284632
2125.000000	10.193882
2124.000000	10.035350
2123.000000	10.242167
2122.000000	10.112463
2121.000000	10.034790
2120.000000	10.204412
2119.000000	10.213510
2118.000000	10.257959
2117.000000	10.084517
2116.000000	10.177910
2115.000000	10.225765
2114.000000	10.216276
2113.000000	10.259953
2112.000000	10.222893
2111.000000	10.131527
2110.000000	10.072705
2109.000000	10.156652
2108.000000	9.966072
2107.000000	10.050288
2106.000000	10.133561
2105.000000	10.294375
2104.000000	10.287482
2103.000000	10.105713
2102.000000	10.152754
2101.000000	10.251194
2100.000000	10.228223
2099.000000	10.263934
2098.000000	10.206050
2097.000000	10.225431
2096.000000	10.157223
2095.000000	10.201316
2094.000000	10.122339
2093.000000	10.106948
2092.000000	10.155113
2091.000000	10.081212
2090.000000	10.109113
2089.000000	10.190542
2088.000000	10.085342
2087.000000	10.073664
2086.000000	10.100305
2085.000000	10.114981
2084.000000	10.055761
2083.000000	9.977888
2082.000000	9.975220
2081.000000	10.005809
2080.000000	9.964357
2079.000000	9.895234
2078.000000	9.774711
2077.000000	9.877634
2076.000000	9.775820
2075.000000	9.816585
2074.000000	9.891162
2073.000000	9.869606
2072.000000	9.791516
2071.000000	9.770244
2070.000000	9.732241
2069.000000	9.728765
2068.000000	9.672762
2067.000000	9.555933
2066.000000	9.564574
2065.000000	9.477275
2064.000000	9.352836
2063.000000	9.346248
2062.000000	9.427529
2061.000000	9.395322
2060.000000	9.299448
2059.000000	9.245409
2058.000000	9.278898
2057.000000	9.275085
2056.000000	9.149476
2055.000000	9.096674
2054.000000	9.079657
2053.000000	9.059424
2052.000000	9.005598
2051.000000	8.984577
2050.000000	8.906801
2049.000000	8.886444
2048.000000	8.899064
2047.000000	8.860365
2046.000000	8.809734
2045.000000	8.804802
2044.000000	8.801040
2043.000000	8.784642
2042.000000	8.852812
2041.000000	8.890391
2040.000000	8.904069
2039.000000	8.912256
2038.000000	8.799088
2037.000000	8.793719
2036.000000	8.873517
2035.000000	8.856301
2034.000000	8.816171
2033.000000	8.813459
2032.000000	8.878670
2031.000000	8.909577
2030.000000	8.859004
2029.000000	8.862196
2028.000000	8.868227
2027.000000	8.911458
2026.000000	8.980288
2025.000000	9.011148
2024.000000	9.027875
2023.000000	9.036829
2022.000000	9.022232
2021.000000	8.992435
2020.000000	9.018615
2019.000000	9.043970
2018.000000	9.012669
2017.000000	8.973183
2016.000000	8.989359
2015.000000	8.987789
2014.000000	8.997301
2013.000000	8.995234
2012.000000	8.978931
2011.000000	8.961774
2010.000000	8.931459
2009.000000	8.884057
2008.000000	8.856512
2007.000000	8.849498
2006.000000	8.789393
2005.000000	8.748686
2004.000000	8.761568
2003.000000	8.742292
2002.000000	8.703144
2001.000000	8.688363
2000.000000	8.644584
1999.000000	8.597729
1998.000000	8.602537
1997.000000	8.583784
1996.000000	8.530671
1995.000000	8.541916
1994.000000	8.484092
1993.000000	8.386054
1992.000000	8.417361
1991.000000	8.396235
1990.000000	8.345265
1989.000000	8.298582
1988.000000	8.282153
1987.000000	8.222489
1986.000000	8.215855
1985.000000	8.223595
1984.000000	8.181563
1983.000000	8.129045
1982.000000	8.092702
1981.000000	8.069029
1980.000000	8.048530
1979.000000	8.022706
1978.000000	8.019085
1977.000000	7.983060
1976.000000	7.931195
1975.000000	7.887711
1974.000000	7.832078
1973.000000	7.810457
1972.000000	7.799142
1971.000000	7.758290
1970.000000	7.723482
1969.000000	7.739050
1968.000000	7.713075
1967.000000	7.679331
1966.000000	7.690331
1965.000000	7.668912
1964.000000	7.577617
1963.000000	7.561484
1962.000000	7.550999
1961.000000	7.559045
1960.000000	7.529693
1959.000000	7.505252
1958.000000	7.516652
1957.000000	7.459828
1956.000000	7.445572
1955.000000	7.422324
1954.000000	7.429397
1953.000000	7.358724
1952.000000	7.426329
1951.000000	7.450049
1950.000000	7.398440
1949.000000	7.394656
1948.000000	7.336013
1947.000000	7.353572
1946.000000	7.366000
1945.000000	7.353282
1944.000000	7.330733
1943.000000	7.355685
1942.000000	7.365059
1941.000000	7.339115
1940.000000	7.383636
1939.000000	7.444269
1938.000000	7.463048
1937.000000	7.505451
1936.000000	7.418964
1935.000000	7.410309
1934.000000	7.491563
1933.000000	7.520239
1932.000000	7.575926
1931.000000	7.554194
1930.000000	7.700223
1929.000000	7.600676
1928.000000	7.742667
1927.000000	7.788435
1926.000000	7.787227
1925.000000	7.908159
1924.000000	8.019405
1923.000000	8.058357
1922.000000	8.137935
1921.000000	8.181814
1920.000000	8.244429
1919.000000	8.274926
1918.000000	8.295074
1917.000000	8.431367
1916.000000	8.409898
1915.000000	8.560745
1914.000000	8.620251
1913.000000	8.714444
1912.000000	8.812701
1911.000000	8.818506
1910.000000	8.935199
1909.000000	9.032825
1908.000000	9.084725
1907.000000	9.243714
1906.000000	9.320859
1905.000000	9.396344
1904.000000	9.544407
1903.000000	9.595593
1902.000000	9.770071
1901.000000	9.859077
1900.000000	9.961718
1899.000000	10.103323
1898.000000	10.135646
1897.000000	10.243661
1896.000000	10.373300
1895.000000	10.475831
1894.000000	10.594813
1893.000000	10.626735
1892.000000	10.761022
1891.000000	10.840893
1890.000000	10.958167
1889.000000	11.042650
1888.000000	11.118419
1887.000000	11.242995
1886.000000	11.281955
1885.000000	11.351229
1884.000000	11.478985
1883.000000	11.635380
1882.000000	11.682237
1881.000000	11.748056
1880.000000	11.891064
1879.000000	11.936846
1878.000000	11.959170
1877.000000	12.067084
1876.000000	12.102756
1875.000000	12.232795
1874.000000	12.256823
1873.000000	12.273232
1872.000000	12.302152
1871.000000	12.359087
1870.000000	12.438053
1869.000000	12.447290
1868.000000	12.448019
1867.000000	12.440319
1866.000000	12.470914
1865.000000	12.466254
1864.000000	12.423808
1863.000000	12.432644
1862.000000	12.470787
1861.000000	12.458722
1860.000000	12.491051
1859.000000	12.453969
1858.000000	12.469401
1857.000000	12.470513
1856.000000	12.468904
1855.000000	12.505282
1854.000000	12.502257
1853.000000	12.519757
1852.000000	12.505507
1851.000000	12.505042
1850.000000	12.525505
1849.000000	12.486868
1848.000000	12.503163
1847.000000	12.532856
1846.000000	12.557165
1845.000000	12.504411
1844.000000	12.493395
1843.000000	12.513397
1842.000000	12.503944
1841.000000	12.485285
1840.000000	12.506237
1839.000000	12.523778
1838.000000	12.533095
1837.000000	12.496218
1836.000000	12.472360
1835.000000	12.472237
1834.000000	12.395976
1833.000000	12.379092
1832.000000	12.374192
1831.000000	12.346717
1830.000000	12.328208
1829.000000	12.295288
1828.000000	12.295147
1827.000000	12.304917
1826.000000	12.290826
1825.000000	12.274386
1824.000000	12.276505
1823.000000	12.249235
1822.000000	12.215121
1821.000000	12.196283
1820.000000	12.185311
1819.000000	12.166724
1818.000000	12.168770
1817.000000	12.155953
1816.000000	12.154839
1815.000000	12.163965
1814.000000	12.146745
1813.000000	12.122162
1812.000000	12.119634
1811.000000	12.126258
1810.000000	12.111227
1809.000000	12.118094
1808.000000	12.110051
1807.000000	12.075086
1806.000000	12.080663
1805.000000	12.071293
1804.000000	12.034982
1803.000000	12.042126
1802.000000	12.043172
1801.000000	12.031203
1800.000000	12.018802
1799.000000	12.009244
1798.000000	12.022337
1797.000000	12.021821
1796.000000	12.009438
1795.000000	12.018358
1794.000000	12.024676
1793.000000	12.028051
1792.000000	12.036731
1791.000000	12.030636
1790.000000	12.033500
1789.000000	12.042012
1788.000000	12.051683
1787.000000	12.042782
1786.000000	12.046778
1785.000000	12.036997
1784.000000	12.047493
1783.000000	12.039977
1782.000000	12.039686
1781.000000	12.039819
1780.000000	12.039720
1779.000000	12.027393
1778.000000	12.022906
1777.000000	12.013869
1776.000000	11.989661
1775.000000	11.984472
1774.000000	11.958639
1773.000000	11.953418
1772.000000	11.939491
1771.000000	11.947253
1770.000000	11.919953
1769.000000	11.907691
1768.000000	11.892981
1767.000000	11.876972
1766.000000	11.872525
1765.000000	11.815195
1764.000000	11.834511
1763.000000	11.841778
1762.000000	11.811246
1761.000000	11.800971
1760.000000	11.777135
1759.000000	11.768256
1758.000000	11.753274
1757.000000	11.747034
1756.000000	11.757195
1755.000000	11.717260
1754.000000	11.722933
1753.000000	11.706231
1752.000000	11.683917
1751.000000	11.703716
1750.000000	11.681214
1749.000000	11.685749
1748.000000	11.656900
1747.000000	11.615617
1746.000000	11.618124
1745.000000	11.602231
1744.000000	11.568003
1743.000000	11.579676
1742.000000	11.562495
1741.000000	11.556157
1740.000000	11.554365
1739.000000	11.528149
1738.000000	11.512975
1737.000000	11.504979
1736.000000	11.503093
1735.000000	11.511201
1734.000000	11.525188
1733.000000	11.491817
1732.000000	11.474854
1731.000000	11.473660
1730.000000	11.457942
1729.000000	11.496785
1728.000000	11.497191
1727.000000	11.512971
1726.000000	11.492486
1725.000000	11.504884
1724.000000	11.515533
1723.000000	11.534934
1722.000000	11.547517
1721.000000	11.529408
1720.000000	11.549385
1719.000000	11.611431
1718.000000	11.581176
1717.000000	11.590023
1716.000000	11.591239
1715.000000	11.625256
1714.000000	11.671626
1713.000000	11.673234
1712.000000	11.662454
1711.000000	11.671638
1710.000000	11.690489
1709.000000	11.684682
1708.000000	11.689470
1707.000000	11.684027
1706.000000	11.710007
1705.000000	11.720150
1704.000000	11.741639
1703.000000	11.723275
1702.000000	11.710327
1701.000000	11.695455
1700.000000	11.717017
1699.000000	11.703269
1698.000000	11.755109
1697.000000	11.745219
1696.000000	11.765194
1695.000000	11.766313
1694.000000	11.753751
1693.000000	11.746342
1692.000000	11.761425
1691.000000	11.758925
1690.000000	11.797789
1689.000000	11.810551
1688.000000	11.815818
1687.000000	11.797314
1686.000000	11.842923
1685.000000	11.875607
1684.000000	11.908109
1683.000000	11.934443
1682.000000	11.947063
1681.000000	11.965241
1680.000000	11.995818
1679.000000	12.016942
1678.000000	12.024584
1677.000000	12.066540
1676.000000	12.084330
1675.000000	12.082776
1674.000000	12.142048
1673.000000	12.152696
1672.000000	12.170619
1671.000000	12.189958
1670.000000	12.208159
1669.000000	12.174826
1668.000000	12.212415
1667.000000	12.262491
1666.000000	12.225803
1665.000000	12.245777
1664.000000	12.246921
1663.000000	12.243034
1662.000000	12.254202
1661.000000	12.278416
1660.000000	12.288129
1659.000000	12.309266
1658.000000	12.330785
1657.000000	12.346196
1656.000000	12.333125
1655.000000	12.338458
1654.000000	12.323577
1653.000000	12.353336
1652.000000	12.349869
1651.000000	12.346448
1650.000000	12.370773
1649.000000	12.354901
1648.000000	12.319314
1647.000000	12.325021
1646.000000	12.313081
1645.000000	12.307037
1644.000000	12.285920
1643.000000	12.268453
1642.000000	12.263522
1641.000000	12.267809
1640.000000	12.241591
1639.000000	12.234503
1638.000000	12.251755
1637.000000	12.240091
1636.000000	12.229727
1635.000000	12.219684
1634.000000	12.224732
1633.000000	12.195837
1632.000000	12.184556
1631.000000	12.181370
1630.000000	12.173347
1629.000000	12.156072
1628.000000	12.150016
1627.000000	12.154836
1626.000000	12.133600
1625.000000	12.125108
1624.000000	12.117371
1623.000000	12.109991
1622.000000	12.089148
1621.000000	12.082054
1620.000000	12.073468
1619.000000	12.066798
1618.000000	12.033746
1617.000000	12.021666
1616.000000	12.015976
1615.000000	12.009480
1614.000000	12.004827
1613.000000	11.988696
1612.000000	11.964337
1611.000000	11.957454
1610.000000	11.959012
1609.000000	11.951131
1608.000000	11.943378
1607.000000	11.934685
1606.000000	11.918102
1605.000000	11.900675
1604.000000	11.877478
1603.000000	11.861563
1602.000000	11.861695
1601.000000	11.862694
1600.000000	11.841968
1599.000000	11.833384
1598.000000	11.825734
1597.000000	11.801833
1596.000000	11.788835
1595.000000	11.795227
1594.000000	11.792959
1593.000000	11.790414
1592.000000	11.774136
1591.000000	11.756352
1590.000000	11.747154
1589.000000	11.731166
1588.000000	11.719861
1587.000000	11.709834
1586.000000	11.719106
1585.000000	11.714686
1584.000000	11.691157
1583.000000	11.680664
1582.000000	11.665083
1581.000000	11.668148
1580.000000	11.669675
1579.000000	11.666860
1578.000000	11.673963
1577.000000	11.654374
1576.000000	11.636562
1575.000000	11.625969
1574.000000	11.603531
1573.000000	11.588392
1572.000000	11.578770
1571.000000	11.568709
1570.000000	11.565478
1569.000000	11.546138
1568.000000	11.532368
1567.000000	11.535821
1566.000000	11.525457
1565.000000	11.513652
1564.000000	11.514956
1563.000000	11.504758
1562.000000	11.473229
1561.000000	11.469094
1560.000000	11.467932
1559.000000	11.449415
1558.000000	11.437888
1557.000000	11.427500
1556.000000	11.416052
1555.000000	11.398833
1554.000000	11.397233
1553.000000	11.386035
1552.000000	11.373915
1551.000000	11.361833
1550.000000	11.354429
1549.000000	11.362522
1548.000000	11.355089
1547.000000	11.331638
1546.000000	11.301038
1545.000000	11.279129
1544.000000	11.263872
1543.000000	11.250868
1542.000000	11.229326
1541.000000	11.204001
1540.000000	11.187250
1539.000000	11.164868
1538.000000	11.145592
1537.000000	11.151836
1536.000000	11.126551
1535.000000	11.103049
1534.000000	11.073450
1533.000000	11.059568
1532.000000	11.045207
1531.000000	11.032372
1530.000000	11.007309
1529.000000	10.984242
1528.000000	10.981433
1527.000000	10.959497
1526.000000	10.928960
1525.000000	10.914515
1524.000000	10.904505
1523.000000	10.897720
1522.000000	10.881584
1521.000000	10.866037
1520.000000	10.857333
1519.000000	10.850379
1518.000000	10.836012
1517.000000	10.837421
1516.000000	10.840627
1515.000000	10.830398
1514.000000	10.812245
1513.000000	10.817996
1512.000000	10.807411
1511.000000	10.782575
1510.000000	10.787729
1509.000000	10.784117
1508.000000	10.789480
1507.000000	10.781164
1506.000000	10.795571
1505.000000	10.779092
1504.000000	10.761223
1503.000000	10.772578
1502.000000	10.770834
1501.000000	10.775933
1500.000000	10.780384
1499.000000	10.765195
1498.000000	10.752392
1497.000000	10.754964
1496.000000	10.787352
1495.000000	10.783679
1494.000000	10.784338
1493.000000	10.772283
1492.000000	10.762078
1491.000000	10.764057
1490.000000	10.779142
1489.000000	10.761890
1488.000000	10.765670
1487.000000	10.777949
1486.000000	10.775358
1485.000000	10.778383
1484.000000	10.757804
1483.000000	10.775926
1482.000000	10.763038
1481.000000	10.785188
1480.000000	10.789798
1479.000000	10.784520
1478.000000	10.793026
1477.000000	10.771958
1476.000000	10.774793
1475.000000	10.778010
1474.000000	10.783392
1473.000000	10.770162
1472.000000	10.767944
1471.000000	10.777380
1470.000000	10.780836
1469.000000	10.782623
1468.000000	10.773829
1467.000000	10.785999
1466.000000	10.782856
1465.000000	10.806789
1464.000000	10.811559
1463.000000	10.796589
1462.000000	10.808059
1461.000000	10.817725
1460.000000	10.821924
1459.000000	10.809225
1458.000000	10.832536
1457.000000	10.825409
1456.000000	10.834510
1455.000000	10.827378
1454.000000	10.817400
1453.000000	10.839385
1452.000000	10.875338
