PE UV       SUBTECH     SPECTRUM    ASCII       PEDS        4.00        
   -1
TDms159341.Sample.asc
18/03/13
14:52:41.00
18/03/13
14:52:41.00
Administrator

200.000000
1
Lambda 750
750N8071901
PerkinElmer UV WinLab 6.0.4.0738 / 1.61.00 Lambda 900

0
0
3350/servo 860.8/2
0
0
UV/VIS
1
1
1
CommonBeamDepol,150mm sphere / downward view
0
0
0
0
Program
Program
3350/servo 860.8/2
3350/0.2 860.8/0.2
3350/0.2 860.8/0.2
0
1
 
 
 
0
 
860.8
319.2
860.8
Front
100
on
 
 
0
0
0
 
0
 
 
 
0
 
 
0
0
0
0
0
 
 
 
 
0
0


0
0
#HDR
-1
-1
#GR
nm
%T
1.0
0.0
2350.000000
-1.000000
2151
8
8.343885
-0.035284
#DATA
2350.000000	1.885809
2349.000000	2.056462
2348.000000	1.467449
2347.000000	2.394557
2346.000000	2.197799
2345.000000	2.120257
2344.000000	1.702506
2343.000000	1.809547
2342.000000	1.864190
2341.000000	2.197569
2340.000000	2.180413
2339.000000	2.074536
2338.000000	2.494186
2337.000000	2.483487
2336.000000	2.838742
2335.000000	2.648488
2334.000000	2.812967
2333.000000	2.800187
2332.000000	2.858176
2331.000000	2.786555
2330.000000	2.475375
2329.000000	2.682475
2328.000000	2.991477
2327.000000	2.626607
2326.000000	2.552540
2325.000000	2.636681
2324.000000	2.757159
2323.000000	2.578406
2322.000000	2.699535
2321.000000	2.304352
2320.000000	2.306048
2319.000000	2.637820
2318.000000	2.585678
2317.000000	2.573016
2316.000000	2.427377
2315.000000	2.248412
2314.000000	2.307240
2313.000000	2.374202
2312.000000	2.273615
2311.000000	2.214961
2310.000000	2.235684
2309.000000	1.971359
2308.000000	2.161218
2307.000000	2.227559
2306.000000	2.249667
2305.000000	2.304618
2304.000000	2.325056
2303.000000	2.500878
2302.000000	2.138597
2301.000000	2.142736
2300.000000	2.140907
2299.000000	2.017125
2298.000000	2.333696
2297.000000	2.209530
2296.000000	2.187870
2295.000000	2.333790
2294.000000	2.245897
2293.000000	2.036537
2292.000000	2.152528
2291.000000	2.059515
2290.000000	2.157695
2289.000000	2.119598
2288.000000	1.926437
2287.000000	1.978184
2286.000000	2.017452
2285.000000	1.845572
2284.000000	1.799533
2283.000000	1.783467
2282.000000	1.929466
2281.000000	1.953273
2280.000000	1.952183
2279.000000	2.050847
2278.000000	1.975809
2277.000000	2.038556
2276.000000	2.040487
2275.000000	2.066270
2274.000000	2.188987
2273.000000	2.180364
2272.000000	2.266609
2271.000000	1.977374
2270.000000	1.881461
2269.000000	1.957592
2268.000000	1.971731
2267.000000	2.070338
2266.000000	2.114798
2265.000000	2.157654
2264.000000	2.134153
2263.000000	2.117192
2262.000000	2.102125
2261.000000	2.227476
2260.000000	2.387282
2259.000000	2.320359
2258.000000	2.330111
2257.000000	2.375295
2256.000000	2.387107
2255.000000	2.441080
2254.000000	2.366250
2253.000000	2.339595
2252.000000	2.517948
2251.000000	2.547089
2250.000000	2.529956
2249.000000	2.539503
2248.000000	2.637528
2247.000000	2.630342
2246.000000	2.552044
2245.000000	2.603196
2244.000000	2.640643
2243.000000	2.824764
2242.000000	2.977678
2241.000000	2.982364
2240.000000	2.927298
2239.000000	2.929375
2238.000000	2.955777
2237.000000	2.935575
2236.000000	3.005385
2235.000000	3.056047
2234.000000	2.950107
2233.000000	2.917728
2232.000000	3.007269
2231.000000	2.902728
2230.000000	2.931376
2229.000000	3.075694
2228.000000	3.099213
2227.000000	3.225220
2226.000000	3.228408
2225.000000	3.079366
2224.000000	3.014432
2223.000000	2.955503
2222.000000	2.941111
2221.000000	2.949371
2220.000000	2.887217
2219.000000	2.986919
2218.000000	3.115956
2217.000000	3.113683
2216.000000	2.972360
2215.000000	3.023665
2214.000000	3.105128
2213.000000	3.023638
2212.000000	3.023199
2211.000000	2.953974
2210.000000	2.872125
2209.000000	2.802248
2208.000000	2.766040
2207.000000	2.779456
2206.000000	2.831229
2205.000000	3.104252
2204.000000	2.929816
2203.000000	2.843640
2202.000000	2.877757
2201.000000	2.892148
2200.000000	2.788583
2199.000000	2.810079
2198.000000	2.859800
2197.000000	2.828831
2196.000000	2.608798
2195.000000	2.759212
2194.000000	2.802506
2193.000000	2.688193
2192.000000	2.779289
2191.000000	2.600088
2190.000000	2.687638
2189.000000	2.732695
2188.000000	2.675550
2187.000000	2.444654
2186.000000	2.487172
2185.000000	2.554611
2184.000000	2.667484
2183.000000	2.594973
2182.000000	2.585418
2181.000000	2.537057
2180.000000	2.572555
2179.000000	2.554304
2178.000000	2.532522
2177.000000	2.598806
2176.000000	2.482061
2175.000000	2.455642
2174.000000	2.605694
2173.000000	2.614786
2172.000000	2.545815
2171.000000	2.590133
2170.000000	2.699926
2169.000000	2.813281
2168.000000	2.752257
2167.000000	2.507435
2166.000000	2.653025
2165.000000	2.804882
2164.000000	2.668610
2163.000000	2.666522
2162.000000	2.636131
2161.000000	2.675327
2160.000000	2.759233
2159.000000	2.792075
2158.000000	2.718285
2157.000000	2.891716
2156.000000	3.138508
2155.000000	2.992138
2154.000000	2.940244
2153.000000	2.863158
2152.000000	2.862783
2151.000000	2.965970
2150.000000	3.085689
2149.000000	2.886147
2148.000000	2.961979
2147.000000	3.092178
2146.000000	3.029107
2145.000000	3.132059
2144.000000	3.097466
2143.000000	3.093048
2142.000000	3.125518
2141.000000	3.228455
2140.000000	3.221316
2139.000000	3.232903
2138.000000	3.126694
2137.000000	3.241950
2136.000000	3.176962
2135.000000	3.334706
2134.000000	3.405204
2133.000000	3.124389
2132.000000	3.135150
2131.000000	3.405741
2130.000000	3.406571
2129.000000	3.387858
2128.000000	3.222510
2127.000000	3.315073
2126.000000	3.338213
2125.000000	3.279960
2124.000000	3.184086
2123.000000	3.241448
2122.000000	3.306353
2121.000000	3.226753
2120.000000	3.352186
2119.000000	3.533538
2118.000000	3.261663
2117.000000	3.300132
2116.000000	3.441487
2115.000000	3.432009
2114.000000	3.523173
2113.000000	3.346492
2112.000000	3.374748
2111.000000	3.449576
2110.000000	3.441088
2109.000000	3.424840
2108.000000	3.301906
2107.000000	3.392943
2106.000000	3.375402
2105.000000	3.448540
2104.000000	3.458023
2103.000000	3.634343
2102.000000	3.450529
2101.000000	3.420283
2100.000000	3.463845
2099.000000	3.433625
2098.000000	3.394767
2097.000000	3.348607
2096.000000	3.427509
2095.000000	3.384901
2094.000000	3.437000
2093.000000	3.365059
2092.000000	3.414195
2091.000000	3.440737
2090.000000	3.439359
2089.000000	3.509184
2088.000000	3.453362
2087.000000	3.415740
2086.000000	3.393746
2085.000000	3.457787
2084.000000	3.429968
2083.000000	3.394235
2082.000000	3.375096
2081.000000	3.324363
2080.000000	3.379094
2079.000000	3.318837
2078.000000	3.288839
2077.000000	3.300774
2076.000000	3.314174
2075.000000	3.209518
2074.000000	3.198559
2073.000000	3.146689
2072.000000	3.185409
2071.000000	3.185754
2070.000000	3.174957
2069.000000	3.190157
2068.000000	3.148854
2067.000000	3.092108
2066.000000	3.068769
2065.000000	2.883328
2064.000000	2.848544
2063.000000	2.847169
2062.000000	2.872291
2061.000000	2.903175
2060.000000	2.776532
2059.000000	2.661461
2058.000000	2.674948
2057.000000	2.723258
2056.000000	2.724816
2055.000000	2.714506
2054.000000	2.660460
2053.000000	2.570060
2052.000000	2.492710
2051.000000	2.522883
2050.000000	2.563055
2049.000000	2.604539
2048.000000	2.572715
2047.000000	2.494216
2046.000000	2.474524
2045.000000	2.493919
2044.000000	2.482301
2043.000000	2.461463
2042.000000	2.471913
2041.000000	2.520495
2040.000000	2.506548
2039.000000	2.463575
2038.000000	2.444674
2037.000000	2.437491
2036.000000	2.469840
2035.000000	2.509415
2034.000000	2.489436
2033.000000	2.483503
2032.000000	2.560410
2031.000000	2.574730
2030.000000	2.540155
2029.000000	2.569444
2028.000000	2.612986
2027.000000	2.651264
2026.000000	2.675800
2025.000000	2.689403
2024.000000	2.655412
2023.000000	2.624847
2022.000000	2.672397
2021.000000	2.716525
2020.000000	2.687307
2019.000000	2.707794
2018.000000	2.716737
2017.000000	2.702443
2016.000000	2.664101
2015.000000	2.650679
2014.000000	2.694300
2013.000000	2.698469
2012.000000	2.682402
2011.000000	2.678748
2010.000000	2.668319
2009.000000	2.643130
2008.000000	2.636501
2007.000000	2.615084
2006.000000	2.571687
2005.000000	2.590679
2004.000000	2.579216
2003.000000	2.523324
2002.000000	2.517037
2001.000000	2.495520
2000.000000	2.471773
1999.000000	2.463962
1998.000000	2.449522
1997.000000	2.437185
1996.000000	2.409015
1995.000000	2.407396
1994.000000	2.375578
1993.000000	2.363100
1992.000000	2.354931
1991.000000	2.328713
1990.000000	2.333347
1989.000000	2.296000
1988.000000	2.273302
1987.000000	2.261096
1986.000000	2.225665
1985.000000	2.207653
1984.000000	2.232651
1983.000000	2.179872
1982.000000	2.175145
1981.000000	2.189955
1980.000000	2.154994
1979.000000	2.130434
1978.000000	2.111351
1977.000000	2.070061
1976.000000	2.057469
1975.000000	2.088040
1974.000000	2.068413
1973.000000	2.045897
1972.000000	2.016560
1971.000000	2.043418
1970.000000	2.039774
1969.000000	2.031890
1968.000000	1.993538
1967.000000	1.931716
1966.000000	1.953768
1965.000000	1.957598
1964.000000	1.975151
1963.000000	1.932613
1962.000000	1.964376
1961.000000	1.927807
1960.000000	1.914854
1959.000000	1.908823
1958.000000	1.883793
1957.000000	1.890958
1956.000000	1.823147
1955.000000	1.839630
1954.000000	1.916908
1953.000000	1.885297
1952.000000	1.852262
1951.000000	1.883447
1950.000000	1.863282
1949.000000	1.853088
1948.000000	1.886802
1947.000000	1.937205
1946.000000	1.836572
1945.000000	1.851285
1944.000000	1.848482
1943.000000	1.883412
1942.000000	1.900921
1941.000000	1.867830
1940.000000	1.907172
1939.000000	1.931836
1938.000000	1.924104
1937.000000	1.950333
1936.000000	1.969897
1935.000000	2.012174
1934.000000	1.980539
1933.000000	1.947306
1932.000000	1.901981
1931.000000	1.992668
1930.000000	2.022017
1929.000000	2.038246
1928.000000	2.048396
1927.000000	2.099545
1926.000000	2.132171
1925.000000	2.154304
1924.000000	2.137883
1923.000000	2.219441
1922.000000	2.289030
1921.000000	2.327020
1920.000000	2.422684
1919.000000	2.426215
1918.000000	2.448320
1917.000000	2.501145
1916.000000	2.420646
1915.000000	2.575867
1914.000000	2.671334
1913.000000	2.721996
1912.000000	2.718572
1911.000000	2.759922
1910.000000	2.855534
1909.000000	2.905784
1908.000000	2.947502
1907.000000	3.105415
1906.000000	3.208714
1905.000000	3.243105
1904.000000	3.390572
1903.000000	3.522265
1902.000000	3.579391
1901.000000	3.625271
1900.000000	3.782588
1899.000000	3.895952
1898.000000	4.015416
1897.000000	4.075551
1896.000000	4.212771
1895.000000	4.318226
1894.000000	4.426640
1893.000000	4.561718
1892.000000	4.647749
1891.000000	4.749422
1890.000000	4.911888
1889.000000	4.965752
1888.000000	5.133264
1887.000000	5.217448
1886.000000	5.329664
1885.000000	5.473292
1884.000000	5.565630
1883.000000	5.649954
1882.000000	5.740777
1881.000000	5.839631
1880.000000	5.933073
1879.000000	6.021431
1878.000000	6.122274
1877.000000	6.155309
1876.000000	6.289145
1875.000000	6.350905
1874.000000	6.391730
1873.000000	6.477279
1872.000000	6.487164
1871.000000	6.577077
1870.000000	6.617394
1869.000000	6.646985
1868.000000	6.698166
1867.000000	6.672820
1866.000000	6.640138
1865.000000	6.663950
1864.000000	6.692364
1863.000000	6.738533
1862.000000	6.797764
1861.000000	6.753946
1860.000000	6.805426
1859.000000	6.830494
1858.000000	6.798667
1857.000000	6.775099
1856.000000	6.845938
1855.000000	6.845552
1854.000000	6.851761
1853.000000	6.850654
1852.000000	6.843244
1851.000000	6.861114
1850.000000	6.893168
1849.000000	6.868110
1848.000000	6.872102
1847.000000	6.874343
1846.000000	6.876043
1845.000000	6.875838
1844.000000	6.883373
1843.000000	6.876112
1842.000000	6.862048
1841.000000	6.837048
1840.000000	6.793230
1839.000000	6.787309
1838.000000	6.822274
1837.000000	6.814304
1836.000000	6.760178
1835.000000	6.740062
1834.000000	6.762671
1833.000000	6.737934
1832.000000	6.704463
1831.000000	6.693439
1830.000000	6.693148
1829.000000	6.661475
1828.000000	6.626897
1827.000000	6.637022
1826.000000	6.633886
1825.000000	6.612215
1824.000000	6.617554
1823.000000	6.603913
1822.000000	6.562963
1821.000000	6.541791
1820.000000	6.536420
1819.000000	6.514216
1818.000000	6.490058
1817.000000	6.485528
1816.000000	6.503112
1815.000000	6.509463
1814.000000	6.495170
1813.000000	6.486424
1812.000000	6.461560
1811.000000	6.426275
1810.000000	6.422104
1809.000000	6.452488
1808.000000	6.465251
1807.000000	6.454437
1806.000000	6.439640
1805.000000	6.426121
1804.000000	6.411708
1803.000000	6.402991
1802.000000	6.381490
1801.000000	6.369556
1800.000000	6.374279
1799.000000	6.394261
1798.000000	6.402237
1797.000000	6.397583
1796.000000	6.393454
1795.000000	6.391861
1794.000000	6.397780
1793.000000	6.402314
1792.000000	6.401474
1791.000000	6.398111
1790.000000	6.380421
1789.000000	6.393958
1788.000000	6.406800
1787.000000	6.410756
1786.000000	6.396613
1785.000000	6.410811
1784.000000	6.435344
1783.000000	6.416757
1782.000000	6.391891
1781.000000	6.396287
1780.000000	6.396883
1779.000000	6.414738
1778.000000	6.378232
1777.000000	6.362160
1776.000000	6.368302
1775.000000	6.354863
1774.000000	6.320568
1773.000000	6.300557
1772.000000	6.284279
1771.000000	6.262811
1770.000000	6.251747
1769.000000	6.212638
1768.000000	6.232936
1767.000000	6.230991
1766.000000	6.195136
1765.000000	6.182426
1764.000000	6.167986
1763.000000	6.145064
1762.000000	6.105773
1761.000000	6.106052
1760.000000	6.085337
1759.000000	6.049173
1758.000000	6.068300
1757.000000	6.031527
1756.000000	6.046737
1755.000000	6.043462
1754.000000	6.012062
1753.000000	6.007759
1752.000000	5.995522
1751.000000	6.004857
1750.000000	5.971591
1749.000000	5.960131
1748.000000	5.901703
1747.000000	5.899917
1746.000000	5.894920
1745.000000	5.883276
1744.000000	5.862723
1743.000000	5.822588
1742.000000	5.799626
1741.000000	5.811093
1740.000000	5.801792
1739.000000	5.769492
1738.000000	5.768029
1737.000000	5.750718
1736.000000	5.725789
1735.000000	5.747249
1734.000000	5.728985
1733.000000	5.734620
1732.000000	5.722953
1731.000000	5.730299
1730.000000	5.714951
1729.000000	5.729661
1728.000000	5.749456
1727.000000	5.735073
1726.000000	5.775401
1725.000000	5.777955
1724.000000	5.779021
1723.000000	5.807098
1722.000000	5.813895
1721.000000	5.845005
1720.000000	5.846630
1719.000000	5.902336
1718.000000	5.932103
1717.000000	5.923423
1716.000000	5.926607
1715.000000	5.967513
1714.000000	5.985159
1713.000000	6.004485
1712.000000	6.021029
1711.000000	6.037449
1710.000000	6.024711
1709.000000	6.059628
1708.000000	6.063808
1707.000000	6.080689
1706.000000	6.082487
1705.000000	6.108850
1704.000000	6.104235
1703.000000	6.092633
1702.000000	6.105630
1701.000000	6.120228
1700.000000	6.124597
1699.000000	6.110541
1698.000000	6.140291
1697.000000	6.152923
1696.000000	6.182551
1695.000000	6.143958
1694.000000	6.127692
1693.000000	6.137483
1692.000000	6.139793
1691.000000	6.157726
1690.000000	6.186676
1689.000000	6.190402
1688.000000	6.230913
1687.000000	6.261572
1686.000000	6.290392
1685.000000	6.296681
1684.000000	6.324367
1683.000000	6.381052
1682.000000	6.436638
1681.000000	6.497568
1680.000000	6.499915
1679.000000	6.534694
1678.000000	6.612610
1677.000000	6.615603
1676.000000	6.649301
1675.000000	6.694210
1674.000000	6.736235
1673.000000	6.794210
1672.000000	6.822890
1671.000000	6.846003
1670.000000	6.895075
1669.000000	6.934511
1668.000000	6.973768
1667.000000	7.042385
1666.000000	7.024817
1665.000000	7.037559
1664.000000	7.038854
1663.000000	7.054058
1662.000000	7.078731
1661.000000	7.082297
1660.000000	7.137770
1659.000000	7.177632
1658.000000	7.182353
1657.000000	7.205488
1656.000000	7.209764
1655.000000	7.214215
1654.000000	7.214204
1653.000000	7.244324
1652.000000	7.234311
1651.000000	7.234343
1650.000000	7.226181
1649.000000	7.210061
1648.000000	7.227335
1647.000000	7.207936
1646.000000	7.186837
1645.000000	7.181390
1644.000000	7.176328
1643.000000	7.175460
1642.000000	7.166534
1641.000000	7.141701
1640.000000	7.151194
1639.000000	7.150313
1638.000000	7.155167
1637.000000	7.136218
1636.000000	7.108267
1635.000000	7.106891
1634.000000	7.091957
1633.000000	7.070309
1632.000000	7.056325
1631.000000	7.039685
1630.000000	7.036322
1629.000000	7.038743
1628.000000	7.015111
1627.000000	6.987688
1626.000000	6.971515
1625.000000	6.968789
1624.000000	6.949977
1623.000000	6.940859
1622.000000	6.940767
1621.000000	6.921166
1620.000000	6.899861
1619.000000	6.880155
1618.000000	6.865186
1617.000000	6.861823
1616.000000	6.834442
1615.000000	6.819745
1614.000000	6.802449
1613.000000	6.791052
1612.000000	6.783318
1611.000000	6.759753
1610.000000	6.728082
1609.000000	6.738411
1608.000000	6.740758
1607.000000	6.712515
1606.000000	6.666013
1605.000000	6.657800
1604.000000	6.654895
1603.000000	6.631198
1602.000000	6.597675
1601.000000	6.581069
1600.000000	6.581658
1599.000000	6.564876
1598.000000	6.548119
1597.000000	6.533538
1596.000000	6.513158
1595.000000	6.491623
1594.000000	6.491209
1593.000000	6.501603
1592.000000	6.472746
1591.000000	6.438725
1590.000000	6.438480
1589.000000	6.423623
1588.000000	6.402829
1587.000000	6.401939
1586.000000	6.389849
1585.000000	6.382529
1584.000000	6.364757
1583.000000	6.344344
1582.000000	6.341429
1581.000000	6.325387
1580.000000	6.299212
1579.000000	6.286333
1578.000000	6.283569
1577.000000	6.264721
1576.000000	6.245203
1575.000000	6.238502
1574.000000	6.223273
1573.000000	6.205102
1572.000000	6.205737
1571.000000	6.211958
1570.000000	6.195531
1569.000000	6.182936
1568.000000	6.172584
1567.000000	6.148036
1566.000000	6.129452
1565.000000	6.119335
1564.000000	6.121232
1563.000000	6.125618
1562.000000	6.099232
1561.000000	6.083279
1560.000000	6.058906
1559.000000	6.040028
1558.000000	6.052403
1557.000000	6.053968
1556.000000	6.029930
1555.000000	6.016747
1554.000000	6.003205
1553.000000	5.997758
1552.000000	6.006696
1551.000000	5.988956
1550.000000	5.957695
1549.000000	5.934424
1548.000000	5.934409
1547.000000	5.934710
1546.000000	5.906531
1545.000000	5.867581
1544.000000	5.840593
1543.000000	5.826597
1542.000000	5.812015
1541.000000	5.785759
1540.000000	5.759732
1539.000000	5.728175
1538.000000	5.706487
1537.000000	5.689199
1536.000000	5.666512
1535.000000	5.644952
1534.000000	5.621815
1533.000000	5.609019
1532.000000	5.580412
1531.000000	5.557874
1530.000000	5.515837
1529.000000	5.492980
1528.000000	5.482327
1527.000000	5.454779
1526.000000	5.440671
1525.000000	5.432037
1524.000000	5.412474
1523.000000	5.400797
1522.000000	5.392034
1521.000000	5.381778
1520.000000	5.367670
1519.000000	5.357376
1518.000000	5.351028
1517.000000	5.345784
1516.000000	5.339145
1515.000000	5.304924
1514.000000	5.313188
1513.000000	5.303377
1512.000000	5.303405
1511.000000	5.286571
1510.000000	5.300111
1509.000000	5.288498
1508.000000	5.287628
1507.000000	5.276300
1506.000000	5.266669
1505.000000	5.269273
1504.000000	5.261977
1503.000000	5.259322
1502.000000	5.270868
1501.000000	5.265590
1500.000000	5.279796
1499.000000	5.273421
1498.000000	5.251947
1497.000000	5.271548
1496.000000	5.265153
1495.000000	5.258598
1494.000000	5.278920
1493.000000	5.279814
1492.000000	5.285223
1491.000000	5.270234
1490.000000	5.288993
1489.000000	5.284205
1488.000000	5.293639
1487.000000	5.305288
1486.000000	5.303193
1485.000000	5.311531
1484.000000	5.318769
1483.000000	5.342493
1482.000000	5.318369
1481.000000	5.338792
1480.000000	5.362113
1479.000000	5.345187
1478.000000	5.333073
1477.000000	5.347692
1476.000000	5.349870
1475.000000	5.373246
1474.000000	5.357300
1473.000000	5.367252
1472.000000	5.351086
1471.000000	5.373637
1470.000000	5.374358
1469.000000	5.386260
1468.000000	5.395853
1467.000000	5.416536
1466.000000	5.407589
1465.000000	5.431531
1464.000000	5.443455
1463.000000	5.426226
1462.000000	5.427565
1461.000000	5.462545
1460.000000	5.461476
1459.000000	5.467592
1458.000000	5.467884
1457.000000	5.500674
1456.000000	5.509489
1455.000000	5.504943
1454.000000	5.503230
1453.000000	5.513682
1452.000000	5.565740
1451.000000	5.567658
1450.000000	5.571145
1449.000000	5.572590
1448.000000	5.577407
1447.000000	5.587297
1446.000000	5.633927
1445.000000	5.652424
1444.000000	5.661786
1443.000000	5.658773
1442.000000	5.674352
1441.000000	5.693049
1440.000000	5.690860
1439.000000	5.701073
1438.000000	5.720089
1437.000000	5.783317
1436.000000	5.801965
1435.000000	5.819619
1434.000000	5.843028
1433.000000	5.857873
1432.000000	5.884407
1431.000000	5.912289
1430.000000	5.943579
1429.000000	5.963253
1428.000000	5.993762
