PE UV       SUBTECH     SPECTRUM    ASCII       PEDS        4.00        
   -1
TDms148351.Sample.asc
18/03/13
16:09:32.00
18/03/13
16:09:32.00
Administrator

200.000000
1
Lambda 750
750N8071901
PerkinElmer UV WinLab 6.0.4.0738 / 1.61.00 Lambda 900

0
0
3350/servo 860.8/2
0
0
UV/VIS
1
1
1
CommonBeamDepol,150mm sphere / downward view
0
0
0
0
Program
Program
3350/servo 860.8/2
3350/0.2 860.8/0.2
3350/0.2 860.8/0.2
0
1
 
 
 
0
 
860.8
319.2
860.8
Front
100
on
 
 
0
0
0
 
0
 
 
 
0
 
 
0
0
0
0
0
 
 
 
 
0
0


0
0
#HDR
-1
-1
#GR
nm
%T
1.0
0.0
2350.000000
-1.000000
2151
8
9.873404
-0.003629
#DATA
2350.000000	2.893097
2349.000000	3.235785
2348.000000	3.175557
2347.000000	3.543698
2346.000000	3.594471
2345.000000	3.264328
2344.000000	3.146991
2343.000000	3.088329
2342.000000	3.066332
2341.000000	3.460186
2340.000000	3.704342
2339.000000	3.684658
2338.000000	3.949245
2337.000000	4.078886
2336.000000	4.385785
2335.000000	4.131609
2334.000000	4.134251
2333.000000	4.518483
2332.000000	4.680396
2331.000000	4.485557
2330.000000	4.299325
2329.000000	3.965876
2328.000000	4.227972
2327.000000	3.798551
2326.000000	3.983290
2325.000000	4.022045
2324.000000	4.226958
2323.000000	4.297680
2322.000000	3.937178
2321.000000	4.008060
2320.000000	3.764500
2319.000000	3.980758
2318.000000	3.947569
2317.000000	4.294985
2316.000000	3.997826
2315.000000	3.812543
2314.000000	3.611402
2313.000000	3.541376
2312.000000	3.630333
2311.000000	3.728705
2310.000000	3.478821
2309.000000	3.570492
2308.000000	3.530534
2307.000000	3.461668
2306.000000	3.554732
2305.000000	3.603449
2304.000000	3.522098
2303.000000	3.597429
2302.000000	3.610943
2301.000000	3.655950
2300.000000	3.516578
2299.000000	3.454257
2298.000000	3.534128
2297.000000	3.574839
2296.000000	3.733195
2295.000000	3.438812
2294.000000	3.475776
2293.000000	3.392276
2292.000000	3.591919
2291.000000	3.481799
2290.000000	3.247882
2289.000000	3.340764
2288.000000	3.444534
2287.000000	3.306512
2286.000000	3.515646
2285.000000	3.446589
2284.000000	3.537190
2283.000000	3.499671
2282.000000	3.477174
2281.000000	3.456955
2280.000000	3.338029
2279.000000	3.236962
2278.000000	3.250687
2277.000000	3.217294
2276.000000	3.381802
2275.000000	3.582993
2274.000000	3.611672
2273.000000	3.592641
2272.000000	3.485281
2271.000000	3.392925
2270.000000	3.424745
2269.000000	3.458944
2268.000000	3.456754
2267.000000	3.568582
2266.000000	3.573178
2265.000000	3.586191
2264.000000	3.766290
2263.000000	3.784455
2262.000000	3.713080
2261.000000	3.813831
2260.000000	3.948391
2259.000000	3.906257
2258.000000	3.926907
2257.000000	3.963539
2256.000000	3.864773
2255.000000	3.760548
2254.000000	3.967207
2253.000000	4.138537
2252.000000	4.232253
2251.000000	4.164659
2250.000000	4.215550
2249.000000	4.286566
2248.000000	4.260359
2247.000000	4.206954
2246.000000	4.271400
2245.000000	4.268062
2244.000000	4.420520
2243.000000	4.658251
2242.000000	4.620438
2241.000000	4.577793
2240.000000	4.575657
2239.000000	4.471719
2238.000000	4.536067
2237.000000	4.652227
2236.000000	4.601509
2235.000000	4.694719
2234.000000	4.802130
2233.000000	4.837281
2232.000000	4.751172
2231.000000	4.756262
2230.000000	4.751240
2229.000000	4.772268
2228.000000	4.881207
2227.000000	4.839547
2226.000000	4.721782
2225.000000	4.692174
2224.000000	4.754747
2223.000000	4.648587
2222.000000	4.729093
2221.000000	4.864422
2220.000000	4.781653
2219.000000	4.789711
2218.000000	4.819544
2217.000000	4.753919
2216.000000	4.646502
2215.000000	4.754602
2214.000000	4.786212
2213.000000	4.765505
2212.000000	4.767523
2211.000000	4.694784
2210.000000	4.703098
2209.000000	4.769998
2208.000000	4.696342
2207.000000	4.564481
2206.000000	4.512430
2205.000000	4.674703
2204.000000	4.750003
2203.000000	4.508775
2202.000000	4.454809
2201.000000	4.471652
2200.000000	4.423872
2199.000000	4.426251
2198.000000	4.467201
2197.000000	4.481243
2196.000000	4.428362
2195.000000	4.483846
2194.000000	4.524961
2193.000000	4.423694
2192.000000	4.271613
2191.000000	4.239763
2190.000000	4.378965
2189.000000	4.296904
2188.000000	4.277450
2187.000000	4.312501
2186.000000	4.350186
2185.000000	4.265303
2184.000000	4.374525
2183.000000	4.250487
2182.000000	4.238547
2181.000000	4.167619
2180.000000	4.280172
2179.000000	4.107383
2178.000000	4.146454
2177.000000	4.337996
2176.000000	4.342826
2175.000000	4.228240
2174.000000	4.168809
2173.000000	4.156738
2172.000000	4.132370
2171.000000	4.190119
2170.000000	4.181441
2169.000000	4.326030
2168.000000	4.388288
2167.000000	4.453339
2166.000000	4.490199
2165.000000	4.391655
2164.000000	4.174263
2163.000000	4.256855
2162.000000	4.299653
2161.000000	4.423117
2160.000000	4.548173
2159.000000	4.367431
2158.000000	4.455292
2157.000000	4.619604
2156.000000	4.682957
2155.000000	4.496938
2154.000000	4.563202
2153.000000	4.642487
2152.000000	4.592381
2151.000000	4.640772
2150.000000	4.611173
2149.000000	4.745399
2148.000000	4.569976
2147.000000	4.793449
2146.000000	4.881963
2145.000000	4.815604
2144.000000	4.820268
2143.000000	4.968618
2142.000000	4.823282
2141.000000	4.679440
2140.000000	4.950245
2139.000000	4.869266
2138.000000	5.014895
2137.000000	5.055700
2136.000000	5.080849
2135.000000	5.018625
2134.000000	5.156535
2133.000000	4.703917
2132.000000	5.235469
2131.000000	5.024632
2130.000000	4.962377
2129.000000	5.074461
2128.000000	5.014906
2127.000000	4.862764
2126.000000	5.111291
2125.000000	5.153965
2124.000000	5.237102
2123.000000	5.088437
2122.000000	5.046180
2121.000000	5.123613
2120.000000	5.150318
2119.000000	5.212366
2118.000000	5.078386
2117.000000	5.101373
2116.000000	5.104876
2115.000000	5.160729
2114.000000	5.146879
2113.000000	5.228642
2112.000000	5.268578
2111.000000	5.212726
2110.000000	5.126355
2109.000000	5.025079
2108.000000	5.018543
2107.000000	5.143964
2106.000000	5.142347
2105.000000	5.086128
2104.000000	5.040581
2103.000000	5.047833
2102.000000	5.167450
2101.000000	5.238889
2100.000000	5.192346
2099.000000	5.231668
2098.000000	5.197416
2097.000000	5.073759
2096.000000	5.025428
2095.000000	5.149286
2094.000000	5.188119
2093.000000	5.089338
2092.000000	5.119531
2091.000000	5.203453
2090.000000	5.160498
2089.000000	5.151120
2088.000000	5.221219
2087.000000	5.072238
2086.000000	5.079532
2085.000000	5.231675
2084.000000	5.052151
2083.000000	5.095681
2082.000000	5.051724
2081.000000	5.105296
2080.000000	5.057657
2079.000000	5.034594
2078.000000	4.924188
2077.000000	4.976956
2076.000000	4.886952
2075.000000	4.890910
2074.000000	4.914663
2073.000000	4.977646
2072.000000	4.878174
2071.000000	4.775659
2070.000000	4.752409
2069.000000	4.777321
2068.000000	4.677135
2067.000000	4.593224
2066.000000	4.653657
2065.000000	4.620438
2064.000000	4.498529
2063.000000	4.498726
2062.000000	4.462439
2061.000000	4.390196
2060.000000	4.281192
2059.000000	4.324496
2058.000000	4.371551
2057.000000	4.229301
2056.000000	4.213260
2055.000000	4.263852
2054.000000	4.197726
2053.000000	4.121882
2052.000000	4.080172
2051.000000	4.038306
2050.000000	4.004188
2049.000000	3.950114
2048.000000	3.915879
2047.000000	3.928736
2046.000000	3.896510
2045.000000	3.907520
2044.000000	3.895226
2043.000000	3.868172
2042.000000	3.900111
2041.000000	3.979558
2040.000000	4.041311
2039.000000	4.016514
2038.000000	3.925094
2037.000000	3.896029
2036.000000	3.895683
2035.000000	3.922279
2034.000000	3.960025
2033.000000	3.969064
2032.000000	3.991405
2031.000000	4.045312
2030.000000	4.057244
2029.000000	4.091308
2028.000000	4.139381
2027.000000	4.158155
2026.000000	4.128709
2025.000000	4.125934
2024.000000	4.129462
2023.000000	4.153280
2022.000000	4.173190
2021.000000	4.152903
2020.000000	4.152000
2019.000000	4.158864
2018.000000	4.156055
2017.000000	4.150718
2016.000000	4.163573
2015.000000	4.186128
2014.000000	4.186643
2013.000000	4.140375
2012.000000	4.101010
2011.000000	4.142392
2010.000000	4.111949
2009.000000	4.055926
2008.000000	4.030779
2007.000000	4.008495
2006.000000	3.981931
2005.000000	3.997675
2004.000000	3.984526
2003.000000	3.945216
2002.000000	3.935133
2001.000000	3.918571
2000.000000	3.889502
1999.000000	3.878295
1998.000000	3.847934
1997.000000	3.793637
1996.000000	3.781520
1995.000000	3.795204
1994.000000	3.798193
1993.000000	3.748700
1992.000000	3.712557
1991.000000	3.676793
1990.000000	3.645279
1989.000000	3.646690
1988.000000	3.635786
1987.000000	3.565827
1986.000000	3.560720
1985.000000	3.543945
1984.000000	3.541475
1983.000000	3.486884
1982.000000	3.437865
1981.000000	3.482801
1980.000000	3.466941
1979.000000	3.415860
1978.000000	3.399012
1977.000000	3.373275
1976.000000	3.349561
1975.000000	3.336957
1974.000000	3.317639
1973.000000	3.271249
1972.000000	3.250039
1971.000000	3.222589
1970.000000	3.266086
1969.000000	3.236475
1968.000000	3.209912
1967.000000	3.199570
1966.000000	3.209675
1965.000000	3.179529
1964.000000	3.134641
1963.000000	3.128544
1962.000000	3.103713
1961.000000	3.121202
1960.000000	3.115229
1959.000000	3.054806
1958.000000	3.069828
1957.000000	3.053799
1956.000000	3.039219
1955.000000	3.039692
1954.000000	3.055682
1953.000000	3.037906
1952.000000	3.026867
1951.000000	3.034168
1950.000000	3.008223
1949.000000	3.017600
1948.000000	3.030833
1947.000000	3.026162
1946.000000	3.001880
1945.000000	3.025800
1944.000000	3.034090
1943.000000	3.009801
1942.000000	3.029164
1941.000000	3.090898
1940.000000	3.074141
1939.000000	2.998996
1938.000000	3.017735
1937.000000	3.140319
1936.000000	3.086078
1935.000000	3.141063
1934.000000	3.129959
1933.000000	3.220436
1932.000000	3.222860
1931.000000	3.142190
1930.000000	3.250070
1929.000000	3.247224
1928.000000	3.242191
1927.000000	3.399652
1926.000000	3.417365
1925.000000	3.408896
1924.000000	3.468652
1923.000000	3.469226
1922.000000	3.531745
1921.000000	3.555125
1920.000000	3.650518
1919.000000	3.664704
1918.000000	3.807008
1917.000000	3.878019
1916.000000	3.788114
1915.000000	3.929448
1914.000000	4.093853
1913.000000	4.185621
1912.000000	4.173933
1911.000000	4.198178
1910.000000	4.251517
1909.000000	4.354941
1908.000000	4.469546
1907.000000	4.618877
1906.000000	4.701596
1905.000000	4.842049
1904.000000	4.855703
1903.000000	4.977202
1902.000000	5.127263
1901.000000	5.206871
1900.000000	5.351518
1899.000000	5.453121
1898.000000	5.628837
1897.000000	5.783972
1896.000000	5.865295
1895.000000	5.922656
1894.000000	6.018316
1893.000000	6.198356
1892.000000	6.303019
1891.000000	6.427894
1890.000000	6.517064
1889.000000	6.661015
1888.000000	6.807544
1887.000000	6.944817
1886.000000	7.100871
1885.000000	7.160891
1884.000000	7.302743
1883.000000	7.427334
1882.000000	7.513150
1881.000000	7.601950
1880.000000	7.705368
1879.000000	7.726868
1878.000000	7.892607
1877.000000	7.943343
1876.000000	8.057847
1875.000000	8.169382
1874.000000	8.185399
1873.000000	8.247676
1872.000000	8.318652
1871.000000	8.421447
1870.000000	8.480577
1869.000000	8.512643
1868.000000	8.515071
1867.000000	8.501603
1866.000000	8.537825
1865.000000	8.598119
1864.000000	8.591321
1863.000000	8.596917
1862.000000	8.608786
1861.000000	8.615664
1860.000000	8.625544
1859.000000	8.652571
1858.000000	8.641406
1857.000000	8.619435
1856.000000	8.665269
1855.000000	8.704461
1854.000000	8.683875
1853.000000	8.747954
1852.000000	8.741284
1851.000000	8.722994
1850.000000	8.760460
1849.000000	8.761798
1848.000000	8.714912
1847.000000	8.718302
1846.000000	8.736379
1845.000000	8.746383
1844.000000	8.736774
1843.000000	8.696595
1842.000000	8.717378
1841.000000	8.693689
1840.000000	8.669206
1839.000000	8.698961
1838.000000	8.692308
1837.000000	8.623162
1836.000000	8.603075
1835.000000	8.603965
1834.000000	8.539867
1833.000000	8.537496
1832.000000	8.517165
1831.000000	8.495266
1830.000000	8.488334
1829.000000	8.473999
1828.000000	8.462882
1827.000000	8.460426
1826.000000	8.436976
1825.000000	8.401465
1824.000000	8.390050
1823.000000	8.397795
1822.000000	8.399424
1821.000000	8.381780
1820.000000	8.354345
1819.000000	8.331151
1818.000000	8.318543
1817.000000	8.324188
1816.000000	8.325023
1815.000000	8.301010
1814.000000	8.274708
1813.000000	8.261111
1812.000000	8.257342
1811.000000	8.255056
1810.000000	8.225873
1809.000000	8.212220
1808.000000	8.224647
1807.000000	8.214912
1806.000000	8.212588
1805.000000	8.199852
1804.000000	8.179942
1803.000000	8.174154
1802.000000	8.159548
1801.000000	8.154711
1800.000000	8.156158
1799.000000	8.157605
1798.000000	8.148605
1797.000000	8.146491
1796.000000	8.130995
1795.000000	8.120685
1794.000000	8.164385
1793.000000	8.177552
1792.000000	8.155734
1791.000000	8.144173
1790.000000	8.145971
1789.000000	8.158671
1788.000000	8.168768
1787.000000	8.163712
1786.000000	8.166753
1785.000000	8.178294
1784.000000	8.169351
1783.000000	8.156139
1782.000000	8.146069
1781.000000	8.139651
1780.000000	8.123077
1779.000000	8.120062
1778.000000	8.101750
1777.000000	8.081783
1776.000000	8.076292
1775.000000	8.072167
1774.000000	8.036683
1773.000000	8.018633
1772.000000	7.981096
1771.000000	7.989512
1770.000000	7.979279
1769.000000	7.968740
1768.000000	7.949786
1767.000000	7.922537
1766.000000	7.903000
1765.000000	7.883547
1764.000000	7.881844
1763.000000	7.887734
1762.000000	7.838418
1761.000000	7.797981
1760.000000	7.783016
1759.000000	7.768989
1758.000000	7.746124
1757.000000	7.746544
1756.000000	7.746964
1755.000000	7.758606
1754.000000	7.723095
1753.000000	7.717189
1752.000000	7.714850
1751.000000	7.686476
1750.000000	7.662431
1749.000000	7.665210
1748.000000	7.660399
1747.000000	7.617795
1746.000000	7.617945
1745.000000	7.607184
1744.000000	7.556517
1743.000000	7.542689
1742.000000	7.520295
1741.000000	7.499603
1740.000000	7.474233
1739.000000	7.482488
1738.000000	7.439483
1737.000000	7.441689
1736.000000	7.420126
1735.000000	7.437205
1734.000000	7.444380
1733.000000	7.437371
1732.000000	7.421994
1731.000000	7.398932
1730.000000	7.414677
1729.000000	7.420037
1728.000000	7.396872
1727.000000	7.398007
1726.000000	7.426238
1725.000000	7.422320
1724.000000	7.468356
1723.000000	7.489320
1722.000000	7.493734
1721.000000	7.515585
1720.000000	7.531921
1719.000000	7.580880
1718.000000	7.563803
1717.000000	7.612662
1716.000000	7.640472
1715.000000	7.641380
1714.000000	7.678483
1713.000000	7.703703
1712.000000	7.722972
1711.000000	7.737759
1710.000000	7.759234
1709.000000	7.751456
1708.000000	7.775909
1707.000000	7.777680
1706.000000	7.826240
1705.000000	7.840456
1704.000000	7.856270
1703.000000	7.846357
1702.000000	7.815624
1701.000000	7.858279
1700.000000	7.847545
1699.000000	7.834393
1698.000000	7.874186
1697.000000	7.903830
1696.000000	7.917911
1695.000000	7.884758
1694.000000	7.915087
1693.000000	7.918830
1692.000000	7.911705
1691.000000	7.926185
1690.000000	7.960023
1689.000000	7.972522
1688.000000	8.009815
1687.000000	8.039501
1686.000000	8.079233
1685.000000	8.088389
1684.000000	8.123913
1683.000000	8.164383
1682.000000	8.204763
1681.000000	8.250393
1680.000000	8.313393
1679.000000	8.313396
1678.000000	8.369839
1677.000000	8.385885
1676.000000	8.432710
1675.000000	8.480615
1674.000000	8.506520
1673.000000	8.552302
1672.000000	8.581041
1671.000000	8.624757
1670.000000	8.671097
1669.000000	8.682227
1668.000000	8.710001
1667.000000	8.765931
1666.000000	8.781476
1665.000000	8.783141
1664.000000	8.783746
1663.000000	8.786852
1662.000000	8.834606
1661.000000	8.862254
1660.000000	8.882408
1659.000000	8.910261
1658.000000	8.916132
1657.000000	8.934971
1656.000000	8.932251
1655.000000	8.955843
1654.000000	8.937763
1653.000000	8.954173
1652.000000	8.961482
1651.000000	8.984164
1650.000000	8.992871
1649.000000	8.972286
1648.000000	8.945836
1647.000000	8.933658
1646.000000	8.932236
1645.000000	8.930273
1644.000000	8.908890
1643.000000	8.888869
1642.000000	8.909868
1641.000000	8.901642
1640.000000	8.880357
1639.000000	8.882668
1638.000000	8.870583
1637.000000	8.848567
1636.000000	8.843436
1635.000000	8.836376
1634.000000	8.811817
1633.000000	8.795911
1632.000000	8.788797
1631.000000	8.780285
1630.000000	8.767379
1629.000000	8.743777
1628.000000	8.734367
1627.000000	8.721232
1626.000000	8.693256
1625.000000	8.683853
1624.000000	8.682287
1623.000000	8.679109
1622.000000	8.649814
1621.000000	8.623696
1620.000000	8.608012
1619.000000	8.600472
1618.000000	8.585882
1617.000000	8.582007
1616.000000	8.557642
1615.000000	8.530877
1614.000000	8.508320
1613.000000	8.507148
1612.000000	8.490298
1611.000000	8.475834
1610.000000	8.463431
1609.000000	8.446481
1608.000000	8.430424
1607.000000	8.421949
1606.000000	8.402008
1605.000000	8.375857
1604.000000	8.358338
1603.000000	8.351191
1602.000000	8.341762
1601.000000	8.325663
1600.000000	8.305055
1599.000000	8.281872
1598.000000	8.270712
1597.000000	8.267927
1596.000000	8.248119
1595.000000	8.224698
1594.000000	8.223567
1593.000000	8.224353
1592.000000	8.190989
1591.000000	8.165280
1590.000000	8.153824
1589.000000	8.130608
1588.000000	8.123863
1587.000000	8.120937
1586.000000	8.099014
1585.000000	8.088852
1584.000000	8.081127
1583.000000	8.055599
1582.000000	8.039473
1581.000000	8.042605
1580.000000	8.032539
1579.000000	8.013610
1578.000000	8.004486
1577.000000	7.994830
1576.000000	7.970790
1575.000000	7.941889
1574.000000	7.930743
1573.000000	7.926995
1572.000000	7.916248
1571.000000	7.912261
1570.000000	7.899186
1569.000000	7.874780
1568.000000	7.860869
1567.000000	7.853369
1566.000000	7.827685
1565.000000	7.815056
1564.000000	7.823231
1563.000000	7.816243
1562.000000	7.801152
1561.000000	7.792214
1560.000000	7.773788
1559.000000	7.767773
1558.000000	7.752450
1557.000000	7.736103
1556.000000	7.734280
1555.000000	7.722488
1554.000000	7.706289
1553.000000	7.693669
1552.000000	7.670084
1551.000000	7.657878
1550.000000	7.654623
1549.000000	7.631172
1548.000000	7.623861
1547.000000	7.614875
1546.000000	7.577865
1545.000000	7.549175
1544.000000	7.530675
1543.000000	7.517254
1542.000000	7.487969
1541.000000	7.461821
1540.000000	7.442535
1539.000000	7.409758
1538.000000	7.384753
1537.000000	7.361226
1536.000000	7.359017
1535.000000	7.325330
1534.000000	7.303812
1533.000000	7.281244
1532.000000	7.259780
1531.000000	7.218041
1530.000000	7.204828
1529.000000	7.167605
1528.000000	7.161009
1527.000000	7.133802
1526.000000	7.119055
1525.000000	7.100525
1524.000000	7.085113
1523.000000	7.061538
1522.000000	7.054370
1521.000000	7.035323
1520.000000	7.025131
1519.000000	7.021386
1518.000000	7.022687
1517.000000	6.996247
1516.000000	6.990317
1515.000000	6.971481
1514.000000	6.955183
1513.000000	6.967218
1512.000000	6.958469
1511.000000	6.932623
1510.000000	6.943192
1509.000000	6.926357
1508.000000	6.928216
1507.000000	6.928113
1506.000000	6.915878
1505.000000	6.918012
1504.000000	6.912347
1503.000000	6.920001
1502.000000	6.912871
1501.000000	6.901223
1500.000000	6.908136
1499.000000	6.885997
1498.000000	6.889837
1497.000000	6.885126
1496.000000	6.926402
1495.000000	6.920682
1494.000000	6.923743
1493.000000	6.901922
1492.000000	6.905498
1491.000000	6.906928
1490.000000	6.912394
1489.000000	6.925145
1488.000000	6.928881
1487.000000	6.915644
1486.000000	6.911554
1485.000000	6.915470
1484.000000	6.936190
1483.000000	6.934541
1482.000000	6.916931
1481.000000	6.969427
1480.000000	6.956239
1479.000000	6.959905
1478.000000	6.966645
1477.000000	6.950302
1476.000000	6.961841
1475.000000	6.956602
1474.000000	6.981844
1473.000000	6.974306
1472.000000	6.968890
1471.000000	6.966099
1470.000000	6.974736
1469.000000	6.967044
1468.000000	6.990439
1467.000000	7.019951
1466.000000	7.039381
1465.000000	7.037693
1464.000000	7.026634
1463.000000	7.005323
1462.000000	7.017360
1461.000000	7.048363
1460.000000	7.073884
1459.000000	7.070830
1458.000000	7.100209
1457.000000	7.104427
1456.000000	7.094337
1455.000000	7.087624
1454.000000	7.094784
1453.000000	7.099726
1452.000000	7.135823
1451.000000	7.167320
1450.000000	7.175527
1449.000000	7.165682
1448.000000	7.178093
1447.000000	7.221953
1446.000000	7.230507
1445.000000	7.253163
1444.000000	7.256498
1443.000000	7.265191
1442.000000	7.275273
1441.000000	7.283601
1440.000000	7.301587
1439.000000	7.322523
1438.000000	7.373423
1437.000000	7.409688
1436.000000	7.413992
1435.000000	7.422775
1434.000000	7.458525
1433.000000	7.474161
1432.000000	7.498037
1431.000000	7.519253
1430.000000	7.556085
1429.000000	7.586795
1428.000000	7.616827
