PE UV       SUBTECH     SPECTRUM    ASCII       PEDS        4.00        
   -1
TTms148361.Sample.Cycle1.asc
18/03/13
18:23:38.00
18/03/13
18:23:38.00
Administrator

200.000000
1
Lambda 750
750N8071901
PerkinElmer UV WinLab 6.0.4.0738 / 1.61.00 Lambda 900

0
0
3350/servo 860.8/2
0
0
UV/VIS
1
1
1
CommonBeamDepol,150mm sphere / downward view
0
0
0
0
Program
Program
3350/servo 860.8/2
3350/0.2 860.8/0.2
3350/0.2 860.8/0.2
0
1
 
 
 
0
 
860.8
319.2
860.8
Front
100
on
 
 
0
0
0
 
0
 
 
 
0
 
 
0
0
0
0
0
 
 
 
 
0
0


0
0
#HDR
-1
-1
#GR
nm
%T
1.0
0.0
2350.000000
-1.000000
2151
8
12.512603
0.006281
#DATA
2350.000000	8.540465
2349.000000	8.634300
2348.000000	8.422517
2347.000000	8.969130
2346.000000	8.742262
2345.000000	8.026372
2344.000000	8.453699
2343.000000	8.227095
2342.000000	8.271427
2341.000000	8.610376
2340.000000	8.832579
2339.000000	9.039835
2338.000000	9.262375
2337.000000	9.318740
2336.000000	9.570566
2335.000000	9.259606
2334.000000	9.135148
2333.000000	9.408555
2332.000000	9.574715
2331.000000	9.486594
2330.000000	8.957044
2329.000000	8.940808
2328.000000	9.112075
2327.000000	9.038783
2326.000000	9.227522
2325.000000	9.091560
2324.000000	8.986083
2323.000000	8.809461
2322.000000	9.108073
2321.000000	9.016017
2320.000000	8.779776
2319.000000	8.741561
2318.000000	9.008037
2317.000000	9.069366
2316.000000	8.886870
2315.000000	8.727775
2314.000000	8.808249
2313.000000	8.878714
2312.000000	8.701895
2311.000000	8.711736
2310.000000	8.707615
2309.000000	8.747681
2308.000000	8.722311
2307.000000	8.606945
2306.000000	8.527425
2305.000000	8.437258
2304.000000	8.528432
2303.000000	8.637241
2302.000000	8.676436
2301.000000	8.535802
2300.000000	8.593904
2299.000000	8.512840
2298.000000	8.185082
2297.000000	8.245863
2296.000000	8.528440
2295.000000	8.473993
2294.000000	8.548296
2293.000000	8.501640
2292.000000	8.493291
2291.000000	8.385277
2290.000000	8.565559
2289.000000	8.494020
2288.000000	8.393162
2287.000000	8.224915
2286.000000	8.239163
2285.000000	8.242676
2284.000000	8.183104
2283.000000	8.194965
2282.000000	8.351408
2281.000000	8.287912
2280.000000	8.267919
2279.000000	8.408787
2278.000000	8.180013
2277.000000	8.063639
2276.000000	8.206384
2275.000000	8.329982
2274.000000	8.319804
2273.000000	8.381652
2272.000000	8.404272
2271.000000	8.475857
2270.000000	8.572757
2269.000000	8.366449
2268.000000	8.308106
2267.000000	8.474373
2266.000000	8.337786
2265.000000	8.342122
2264.000000	8.605011
2263.000000	8.593129
2262.000000	8.534223
2261.000000	8.617292
2260.000000	8.757168
2259.000000	8.736923
2258.000000	8.772125
2257.000000	8.907708
2256.000000	8.777737
2255.000000	8.764449
2254.000000	8.908599
2253.000000	8.928039
2252.000000	9.035032
2251.000000	9.213191
2250.000000	9.209696
2249.000000	9.271817
2248.000000	9.381567
2247.000000	9.385736
2246.000000	9.391127
2245.000000	9.432157
2244.000000	9.501933
2243.000000	9.599998
2242.000000	9.639846
2241.000000	9.609143
2240.000000	9.588259
2239.000000	9.599917
2238.000000	9.630525
2237.000000	9.595981
2236.000000	9.538364
2235.000000	9.675275
2234.000000	9.759267
2233.000000	9.726735
2232.000000	9.748417
2231.000000	9.715627
2230.000000	9.744477
2229.000000	9.915131
2228.000000	9.925818
2227.000000	9.877376
2226.000000	9.809992
2225.000000	9.795146
2224.000000	9.772777
2223.000000	9.837274
2222.000000	9.921254
2221.000000	9.912725
2220.000000	9.856382
2219.000000	9.743074
2218.000000	9.789240
2217.000000	9.740616
2216.000000	9.708284
2215.000000	9.793337
2214.000000	9.830470
2213.000000	9.842519
2212.000000	9.778761
2211.000000	9.714180
2210.000000	9.648542
2209.000000	9.687053
2208.000000	9.669884
2207.000000	9.671782
2206.000000	9.609067
2205.000000	9.570814
2204.000000	9.482348
2203.000000	9.436809
2202.000000	9.445784
2201.000000	9.441555
2200.000000	9.380166
2199.000000	9.570822
2198.000000	9.463278
2197.000000	9.315170
2196.000000	9.298482
2195.000000	9.393326
2194.000000	9.349488
2193.000000	9.262019
2192.000000	9.319423
2191.000000	9.305621
2190.000000	9.299374
2189.000000	9.234359
2188.000000	9.251330
2187.000000	9.278079
2186.000000	9.262205
2185.000000	9.151943
2184.000000	9.189420
2183.000000	9.149339
2182.000000	9.252407
2181.000000	9.271752
2180.000000	9.079025
2179.000000	9.094689
2178.000000	9.090854
2177.000000	9.155192
2176.000000	9.102636
2175.000000	9.226074
2174.000000	9.255949
2173.000000	9.195138
2172.000000	9.193611
2171.000000	9.271512
2170.000000	9.276163
2169.000000	9.217872
2168.000000	9.337906
2167.000000	9.238268
2166.000000	9.220283
2165.000000	9.377419
2164.000000	9.352495
2163.000000	9.424710
2162.000000	9.544259
2161.000000	9.326810
2160.000000	9.369530
2159.000000	9.470188
2158.000000	9.512892
2157.000000	9.511457
2156.000000	9.524368
2155.000000	9.528760
2154.000000	9.632813
2153.000000	9.782792
2152.000000	9.716212
2151.000000	9.502328
2150.000000	9.632969
2149.000000	9.746569
2148.000000	9.674110
2147.000000	9.779167
2146.000000	9.761717
2145.000000	9.850382
2144.000000	9.900433
2143.000000	9.946987
2142.000000	10.060216
2141.000000	10.007839
2140.000000	9.959451
2139.000000	10.052703
2138.000000	10.122492
2137.000000	10.211952
2136.000000	10.059091
2135.000000	10.121191
2134.000000	10.122570
2133.000000	9.893867
2132.000000	10.001863
2131.000000	10.234180
2130.000000	10.267299
2129.000000	10.145208
2128.000000	10.192848
2127.000000	10.234719
2126.000000	9.963131
2125.000000	10.181522
2124.000000	10.147552
2123.000000	10.151058
2122.000000	10.204240
2121.000000	9.999920
2120.000000	10.181410
2119.000000	10.031101
2118.000000	10.187822
2117.000000	10.231172
2116.000000	10.200812
2115.000000	10.330505
2114.000000	10.209443
2113.000000	10.138193
2112.000000	10.161289
2111.000000	10.151940
2110.000000	10.046876
2109.000000	10.131286
2108.000000	10.098747
2107.000000	10.256800
2106.000000	10.258296
2105.000000	10.145778
2104.000000	10.183518
2103.000000	10.137762
2102.000000	10.111238
2101.000000	10.280560
2100.000000	10.310834
2099.000000	10.180791
2098.000000	10.095902
2097.000000	10.183905
2096.000000	10.104342
2095.000000	10.118961
2094.000000	10.091130
2093.000000	9.968522
2092.000000	9.989532
2091.000000	10.016959
2090.000000	10.041873
2089.000000	10.086800
2088.000000	10.089671
2087.000000	10.064296
2086.000000	10.101312
2085.000000	10.108632
2084.000000	10.054855
2083.000000	10.061325
2082.000000	9.982366
2081.000000	9.920533
2080.000000	9.915684
2079.000000	9.958225
2078.000000	9.901081
2077.000000	9.929023
2076.000000	9.843649
2075.000000	9.805500
2074.000000	9.809285
2073.000000	9.748134
2072.000000	9.780431
2071.000000	9.708083
2070.000000	9.646995
2069.000000	9.653147
2068.000000	9.561224
2067.000000	9.602887
2066.000000	9.562356
2065.000000	9.397165
2064.000000	9.349913
2063.000000	9.359566
2062.000000	9.318607
2061.000000	9.250058
2060.000000	9.226689
2059.000000	9.168251
2058.000000	9.217304
2057.000000	9.184152
2056.000000	9.137382
2055.000000	9.090927
2054.000000	9.044454
2053.000000	9.023206
2052.000000	8.976257
2051.000000	8.955948
2050.000000	8.931208
2049.000000	8.896235
2048.000000	8.871821
2047.000000	8.854311
2046.000000	8.807716
2045.000000	8.782113
2044.000000	8.761411
2043.000000	8.770519
2042.000000	8.765062
2041.000000	8.808665
2040.000000	8.859443
2039.000000	8.820657
2038.000000	8.777572
2037.000000	8.779791
2036.000000	8.807201
2035.000000	8.833887
2034.000000	8.855734
2033.000000	8.870475
2032.000000	8.900976
2031.000000	8.901907
2030.000000	8.906438
2029.000000	8.940822
2028.000000	8.961274
2027.000000	8.938909
2026.000000	8.973826
2025.000000	8.970032
2024.000000	8.967660
2023.000000	9.022987
2022.000000	9.014757
2021.000000	9.027882
2020.000000	9.024576
2019.000000	8.952406
2018.000000	8.952032
2017.000000	8.991775
2016.000000	8.994409
2015.000000	8.998494
2014.000000	9.016600
2013.000000	8.965624
2012.000000	8.952253
2011.000000	8.977137
2010.000000	8.947430
2009.000000	8.882743
2008.000000	8.898671
2007.000000	8.871029
2006.000000	8.800812
2005.000000	8.762131
2004.000000	8.768344
2003.000000	8.763427
2002.000000	8.706279
2001.000000	8.693217
2000.000000	8.664705
1999.000000	8.635039
1998.000000	8.620731
1997.000000	8.572460
1996.000000	8.553125
1995.000000	8.540095
1994.000000	8.485711
1993.000000	8.425012
1992.000000	8.406335
1991.000000	8.391480
1990.000000	8.346277
1989.000000	8.302831
1988.000000	8.282659
1987.000000	8.272675
1986.000000	8.229618
1985.000000	8.191007
1984.000000	8.165572
1983.000000	8.154351
1982.000000	8.138450
1981.000000	8.101509
1980.000000	8.017857
1979.000000	7.986469
1978.000000	7.987202
1977.000000	7.936701
1976.000000	7.937065
1975.000000	7.932040
1974.000000	7.862542
1973.000000	7.842437
1972.000000	7.778089
1971.000000	7.747162
1970.000000	7.744119
1969.000000	7.738443
1968.000000	7.724506
1967.000000	7.697839
1966.000000	7.654416
1965.000000	7.652117
1964.000000	7.651888
1963.000000	7.635850
1962.000000	7.595508
1961.000000	7.563194
1960.000000	7.563287
1959.000000	7.468011
1958.000000	7.478501
1957.000000	7.439898
1956.000000	7.429293
1955.000000	7.447502
1954.000000	7.442244
1953.000000	7.441616
1952.000000	7.384083
1951.000000	7.451566
1950.000000	7.419265
1949.000000	7.419631
1948.000000	7.389292
1947.000000	7.381183
1946.000000	7.391678
1945.000000	7.402207
1944.000000	7.365818
1943.000000	7.333553
1942.000000	7.398109
1941.000000	7.387997
1940.000000	7.386162
1939.000000	7.432857
1938.000000	7.465775
1937.000000	7.460226
1936.000000	7.559887
1935.000000	7.511054
1934.000000	7.542915
1933.000000	7.547501
1932.000000	7.559978
1931.000000	7.582046
1930.000000	7.626006
1929.000000	7.664869
1928.000000	7.797871
1927.000000	7.801552
1926.000000	7.876202
1925.000000	7.869422
1924.000000	7.960919
1923.000000	8.006022
1922.000000	8.031771
1921.000000	8.158398
1920.000000	8.210740
1919.000000	8.261302
1918.000000	8.356108
1917.000000	8.398191
1916.000000	8.471304
1915.000000	8.543199
1914.000000	8.636189
1913.000000	8.682051
1912.000000	8.768196
1911.000000	8.818102
1910.000000	8.951847
1909.000000	9.050189
1908.000000	9.081798
1907.000000	9.208357
1906.000000	9.313788
1905.000000	9.382516
1904.000000	9.523305
1903.000000	9.597916
1902.000000	9.698281
1901.000000	9.855543
1900.000000	9.949102
1899.000000	10.073436
1898.000000	10.185260
1897.000000	10.331616
1896.000000	10.346635
1895.000000	10.463099
1894.000000	10.529276
1893.000000	10.653201
1892.000000	10.792444
1891.000000	10.861307
1890.000000	10.993923
1889.000000	11.004457
1888.000000	11.086796
1887.000000	11.231787
1886.000000	11.351382
1885.000000	11.412380
1884.000000	11.522198
1883.000000	11.608938
1882.000000	11.636050
1881.000000	11.669377
1880.000000	11.775554
1879.000000	11.874306
1878.000000	11.935985
1877.000000	12.006881
1876.000000	12.097209
1875.000000	12.162811
1874.000000	12.236757
1873.000000	12.236439
1872.000000	12.324212
1871.000000	12.348507
1870.000000	12.402474
1869.000000	12.427945
1868.000000	12.462532
1867.000000	12.451303
1866.000000	12.439459
1865.000000	12.439125
1864.000000	12.423304
1863.000000	12.428108
1862.000000	12.404116
1861.000000	12.427959
1860.000000	12.403019
1859.000000	12.436318
1858.000000	12.466678
1857.000000	12.432507
1856.000000	12.438955
1855.000000	12.434887
1854.000000	12.455547
1853.000000	12.471745
1852.000000	12.468510
1851.000000	12.482857
1850.000000	12.495751
1849.000000	12.486667
1848.000000	12.483000
1847.000000	12.504222
1846.000000	12.512603
1845.000000	12.498765
1844.000000	12.498941
1843.000000	12.494745
1842.000000	12.464630
1841.000000	12.477826
1840.000000	12.478415
1839.000000	12.457849
1838.000000	12.429652
1837.000000	12.412819
1836.000000	12.416172
1835.000000	12.380712
1834.000000	12.358539
1833.000000	12.337906
1832.000000	12.313712
1831.000000	12.298855
1830.000000	12.279237
1829.000000	12.264382
1828.000000	12.253331
1827.000000	12.229055
1826.000000	12.214767
1825.000000	12.202549
1824.000000	12.209708
1823.000000	12.205071
1822.000000	12.165206
1821.000000	12.166568
1820.000000	12.173381
1819.000000	12.152468
1818.000000	12.131352
1817.000000	12.145636
1816.000000	12.156963
1815.000000	12.133217
1814.000000	12.099508
1813.000000	12.082621
1812.000000	12.075035
1811.000000	12.057068
1810.000000	12.053560
1809.000000	12.061736
1808.000000	12.052170
1807.000000	12.037238
1806.000000	12.026815
1805.000000	12.019068
1804.000000	12.018993
1803.000000	12.017124
1802.000000	12.006220
1801.000000	11.999927
1800.000000	12.003721
1799.000000	12.011472
1798.000000	11.993489
1797.000000	11.984980
1796.000000	11.991522
1795.000000	11.995279
1794.000000	11.992080
1793.000000	11.995153
1792.000000	11.996942
1791.000000	11.993268
1790.000000	11.996237
1789.000000	11.992798
1788.000000	12.001139
1787.000000	11.989097
1786.000000	11.980531
1785.000000	11.995770
1784.000000	12.000697
1783.000000	11.999874
1782.000000	12.007489
1781.000000	12.012277
1780.000000	12.016938
1779.000000	12.011090
1778.000000	11.993944
1777.000000	11.953821
1776.000000	11.950567
1775.000000	11.940327
1774.000000	11.923912
1773.000000	11.939443
1772.000000	11.928555
1771.000000	11.917175
1770.000000	11.894331
1769.000000	11.883286
1768.000000	11.871309
1767.000000	11.869176
1766.000000	11.847513
1765.000000	11.822283
1764.000000	11.823880
1763.000000	11.810186
1762.000000	11.763449
1761.000000	11.741326
1760.000000	11.740282
1759.000000	11.728361
1758.000000	11.718131
1757.000000	11.690211
1756.000000	11.696946
1755.000000	11.692751
1754.000000	11.673612
1753.000000	11.656016
1752.000000	11.656981
1751.000000	11.641565
1750.000000	11.666132
1749.000000	11.667826
1748.000000	11.638067
1747.000000	11.602459
1746.000000	11.583193
1745.000000	11.588259
1744.000000	11.570433
1743.000000	11.537663
1742.000000	11.537281
1741.000000	11.515243
1740.000000	11.520135
1739.000000	11.506279
1738.000000	11.499914
1737.000000	11.474409
1736.000000	11.478398
1735.000000	11.453699
1734.000000	11.464246
1733.000000	11.437958
1732.000000	11.451675
1731.000000	11.432651
1730.000000	11.408340
1729.000000	11.436440
1728.000000	11.449916
1727.000000	11.443113
1726.000000	11.434880
1725.000000	11.448088
1724.000000	11.446607
1723.000000	11.486142
1722.000000	11.499131
1721.000000	11.507954
1720.000000	11.527110
1719.000000	11.569826
1718.000000	11.562051
1717.000000	11.584759
1716.000000	11.588000
1715.000000	11.582131
1714.000000	11.588904
1713.000000	11.590565
1712.000000	11.619938
1711.000000	11.655844
1710.000000	11.656672
1709.000000	11.628905
1708.000000	11.673681
1707.000000	11.677449
1706.000000	11.654743
1705.000000	11.666103
1704.000000	11.678984
1703.000000	11.681672
1702.000000	11.667613
1701.000000	11.700618
1700.000000	11.702644
1699.000000	11.681107
1698.000000	11.708655
1697.000000	11.715563
1696.000000	11.744043
1695.000000	11.712574
1694.000000	11.738467
1693.000000	11.733182
1692.000000	11.735917
1691.000000	11.728766
1690.000000	11.759937
1689.000000	11.768040
1688.000000	11.793650
1687.000000	11.799643
1686.000000	11.801430
1685.000000	11.826022
1684.000000	11.854065
1683.000000	11.876358
1682.000000	11.914576
1681.000000	11.925365
1680.000000	11.956240
1679.000000	11.988098
1678.000000	12.014259
1677.000000	12.032023
1676.000000	12.057209
1675.000000	12.089253
1674.000000	12.122206
1673.000000	12.137008
1672.000000	12.158979
1671.000000	12.174270
1670.000000	12.194596
1669.000000	12.179379
1668.000000	12.199971
1667.000000	12.224354
1666.000000	12.227422
1665.000000	12.222309
1664.000000	12.218796
1663.000000	12.237472
1662.000000	12.256225
1661.000000	12.264152
1660.000000	12.257984
1659.000000	12.283877
1658.000000	12.296896
1657.000000	12.303715
1656.000000	12.303894
1655.000000	12.334816
1654.000000	12.333491
1653.000000	12.337758
1652.000000	12.342080
1651.000000	12.329658
1650.000000	12.323230
1649.000000	12.319695
1648.000000	12.311525
1647.000000	12.296397
1646.000000	12.305394
1645.000000	12.288725
1644.000000	12.263871
1643.000000	12.257834
1642.000000	12.268580
1641.000000	12.256887
1640.000000	12.244019
1639.000000	12.236930
1638.000000	12.234561
1637.000000	12.229775
1636.000000	12.208993
1635.000000	12.192879
1634.000000	12.183159
1633.000000	12.160336
1632.000000	12.165540
1631.000000	12.152135
1630.000000	12.143098
1629.000000	12.137762
1628.000000	12.126951
1627.000000	12.120948
1626.000000	12.108618
1625.000000	12.096685
1624.000000	12.096939
1623.000000	12.077929
1622.000000	12.068718
1621.000000	12.054444
1620.000000	12.057184
1619.000000	12.043129
1618.000000	12.005530
1617.000000	12.006598
1616.000000	12.007885
1615.000000	11.995622
1614.000000	11.981158
1613.000000	11.966141
1612.000000	11.965349
1611.000000	11.951790
1610.000000	11.931602
1609.000000	11.924730
1608.000000	11.920417
1607.000000	11.910814
1606.000000	11.892510
1605.000000	11.872354
1604.000000	11.866455
1603.000000	11.853473
1602.000000	11.844501
1601.000000	11.837104
1600.000000	11.837821
1599.000000	11.822562
1598.000000	11.810159
1597.000000	11.793742
1596.000000	11.785700
1595.000000	11.789260
1594.000000	11.766865
1593.000000	11.759667
1592.000000	11.766045
1591.000000	11.756959
1590.000000	11.732083
1589.000000	11.707502
1588.000000	11.703780
1587.000000	11.714587
1586.000000	11.708487
1585.000000	11.686066
1584.000000	11.666075
1583.000000	11.661450
1582.000000	11.658814
1581.000000	11.649947
1580.000000	11.641362
1579.000000	11.631267
1578.000000	11.627444
1577.000000	11.632531
1576.000000	11.622505
1575.000000	11.604529
1574.000000	11.578959
1573.000000	11.566651
1572.000000	11.574522
1571.000000	11.566990
1570.000000	11.548286
1569.000000	11.525410
1568.000000	11.524178
1567.000000	11.535518
1566.000000	11.523738
1565.000000	11.499801
1564.000000	11.490086
1563.000000	11.495051
1562.000000	11.476464
1561.000000	11.458378
1560.000000	11.445285
1559.000000	11.437283
1558.000000	11.434047
1557.000000	11.416784
1556.000000	11.407054
1555.000000	11.396204
1554.000000	11.383384
1553.000000	11.373803
1552.000000	11.370781
1551.000000	11.364865
1550.000000	11.348163
1549.000000	11.332203
1548.000000	11.330631
1547.000000	11.311724
1546.000000	11.287189
1545.000000	11.272052
1544.000000	11.253158
1543.000000	11.224693
1542.000000	11.209616
1541.000000	11.198543
1540.000000	11.183207
1539.000000	11.171842
1538.000000	11.143470
1537.000000	11.128998
1536.000000	11.105429
1535.000000	11.088497
1534.000000	11.069206
1533.000000	11.057243
1532.000000	11.030654
1531.000000	11.013068
1530.000000	10.999222
1529.000000	10.987780
1528.000000	11.016206
1527.000000	11.055533
1526.000000	11.068076
1525.000000	11.040566
1524.000000	10.995284
1523.000000	10.956953
1522.000000	10.908161
1521.000000	10.881197
1520.000000	10.866127
1519.000000	10.875543
1518.000000	10.860376
1517.000000	10.829739
1516.000000	10.817682
1515.000000	10.820796
1514.000000	10.815782
1513.000000	10.798581
1512.000000	10.776674
1511.000000	10.755486
1510.000000	10.760740
1509.000000	10.776434
1508.000000	10.754905
1507.000000	10.755588
1506.000000	10.743711
1505.000000	10.731366
1504.000000	10.704306
1503.000000	10.699289
1502.000000	10.676809
1501.000000	10.666850
1500.000000	10.701327
1499.000000	10.731633
1498.000000	10.707101
1497.000000	10.685622
1496.000000	10.676771
1495.000000	10.673790
1494.000000	10.669623
1493.000000	10.674445
1492.000000	10.674752
1491.000000	10.676926
1490.000000	10.660975
1489.000000	10.654435
1488.000000	10.666619
1487.000000	10.635642
1486.000000	10.612147
1485.000000	10.631551
1484.000000	10.657448
1483.000000	10.658715
1482.000000	10.661189
1481.000000	10.667177
1480.000000	10.666031
1479.000000	10.685020
1478.000000	10.689381
1477.000000	10.679523
1476.000000	10.688830
1475.000000	10.689417
1474.000000	10.680961
1473.000000	10.700360
1472.000000	10.675198
1471.000000	10.687063
1470.000000	10.682656
1469.000000	10.676652
1468.000000	10.725245
1467.000000	10.711450
1466.000000	10.716796
1465.000000	10.710811
1464.000000	10.699340
1463.000000	10.696684
1462.000000	10.717958
1461.000000	10.723188
1460.000000	10.732716
1459.000000	10.724174
1458.000000	10.743950
1457.000000	10.740874
1456.000000	10.747327
1455.000000	10.727993
1454.000000	10.728930
1453.000000	10.735245
1452.000000	10.764033
