PE UV       SUBTECH     SPECTRUM    ASCII       PEDS        4.00        
   -1
TTms148351.Sample.asc
18/03/13
16:19:09.00
18/03/13
16:19:09.00
Administrator

200.000000
1
Lambda 750
750N8071901
PerkinElmer UV WinLab 6.0.4.0738 / 1.61.00 Lambda 900

0
0
3350/servo 860.8/2
0
0
UV/VIS
1
1
1
CommonBeamDepol,150mm sphere / downward view
0
0
0
0
Program
Program
3350/servo 860.8/2
3350/0.2 860.8/0.2
3350/0.2 860.8/0.2
0
1
 
 
 
0
 
860.8
319.2
860.8
Front
100
on
 
 
0
0
0
 
0
 
 
 
0
 
 
0
0
0
0
0
 
 
 
 
0
0


0
0
#HDR
-1
-1
#GR
nm
%T
1.0
0.0
2350.000000
-1.000000
2151
8
9.891289
-0.009436
#DATA
2350.000000	3.865678
2349.000000	3.314454
2348.000000	2.953481
2347.000000	3.375949
2346.000000	3.655864
2345.000000	3.161910
2344.000000	3.444869
2343.000000	3.531588
2342.000000	3.320394
2341.000000	3.481943
2340.000000	3.507599
2339.000000	3.543298
2338.000000	3.759332
2337.000000	4.008226
2336.000000	4.035577
2335.000000	4.235852
2334.000000	4.321401
2333.000000	4.454641
2332.000000	4.479271
2331.000000	4.230686
2330.000000	4.310219
2329.000000	3.774905
2328.000000	4.258359
2327.000000	3.924965
2326.000000	3.877715
2325.000000	4.125531
2324.000000	4.050679
2323.000000	4.032757
2322.000000	3.996689
2321.000000	3.930307
2320.000000	3.806236
2319.000000	3.869466
2318.000000	3.950996
2317.000000	4.060231
2316.000000	4.108257
2315.000000	3.884264
2314.000000	3.684754
2313.000000	3.725916
2312.000000	3.686371
2311.000000	3.528834
2310.000000	3.599819
2309.000000	3.711577
2308.000000	3.540906
2307.000000	3.518359
2306.000000	3.583964
2305.000000	3.578037
2304.000000	3.569863
2303.000000	3.614892
2302.000000	3.693150
2301.000000	3.453684
2300.000000	3.487413
2299.000000	3.464738
2298.000000	3.324156
2297.000000	3.455116
2296.000000	3.619198
2295.000000	3.552666
2294.000000	3.503632
2293.000000	3.512221
2292.000000	3.583243
2291.000000	3.589415
2290.000000	3.640814
2289.000000	3.683965
2288.000000	3.662657
2287.000000	3.627762
2286.000000	3.601433
2285.000000	3.467473
2284.000000	3.356300
2283.000000	3.390822
2282.000000	3.485644
2281.000000	3.405184
2280.000000	3.443561
2279.000000	3.604820
2278.000000	3.443382
2277.000000	3.389600
2276.000000	3.533647
2275.000000	3.432429
2274.000000	3.489350
2273.000000	3.578314
2272.000000	3.595978
2271.000000	3.664254
2270.000000	3.590302
2269.000000	3.603992
2268.000000	3.673494
2267.000000	3.429947
2266.000000	3.483387
2265.000000	3.638920
2264.000000	3.721938
2263.000000	3.804272
2262.000000	3.720458
2261.000000	3.648960
2260.000000	3.779644
2259.000000	3.940472
2258.000000	3.983052
2257.000000	3.976067
2256.000000	3.899511
2255.000000	3.850491
2254.000000	3.967712
2253.000000	3.931954
2252.000000	4.041842
2251.000000	4.198087
2250.000000	4.230097
2249.000000	4.285355
2248.000000	4.317762
2247.000000	4.372976
2246.000000	4.497708
2245.000000	4.469559
2244.000000	4.437782
2243.000000	4.567924
2242.000000	4.562749
2241.000000	4.569510
2240.000000	4.539421
2239.000000	4.539032
2238.000000	4.622773
2237.000000	4.680400
2236.000000	4.715244
2235.000000	4.701082
2234.000000	4.723969
2233.000000	4.763611
2232.000000	4.691622
2231.000000	4.752430
2230.000000	4.840439
2229.000000	4.841042
2228.000000	4.828623
2227.000000	4.867512
2226.000000	4.861085
2225.000000	4.867091
2224.000000	4.775139
2223.000000	4.809809
2222.000000	4.829720
2221.000000	4.804643
2220.000000	4.875405
2219.000000	4.802634
2218.000000	4.674540
2217.000000	4.691159
2216.000000	4.847128
2215.000000	4.882240
2214.000000	4.892294
2213.000000	4.861905
2212.000000	4.741508
2211.000000	4.662423
2210.000000	4.623157
2209.000000	4.671086
2208.000000	4.705125
2207.000000	4.711651
2206.000000	4.598298
2205.000000	4.592218
2204.000000	4.610555
2203.000000	4.486990
2202.000000	4.534126
2201.000000	4.678551
2200.000000	4.609448
2199.000000	4.448830
2198.000000	4.443703
2197.000000	4.583681
2196.000000	4.460327
2195.000000	4.384373
2194.000000	4.359241
2193.000000	4.330088
2192.000000	4.371363
2191.000000	4.363687
2190.000000	4.327404
2189.000000	4.346192
2188.000000	4.379851
2187.000000	4.205603
2186.000000	4.175997
2185.000000	4.338591
2184.000000	4.341517
2183.000000	4.311224
2182.000000	4.276608
2181.000000	4.068901
2180.000000	4.295179
2179.000000	4.349988
2178.000000	4.217309
2177.000000	4.291124
2176.000000	4.267304
2175.000000	4.168430
2174.000000	4.129673
2173.000000	4.160060
2172.000000	4.249699
2171.000000	4.255700
2170.000000	4.197326
2169.000000	4.230673
2168.000000	4.314691
2167.000000	4.345557
2166.000000	4.288148
2165.000000	4.423861
2164.000000	4.191046
2163.000000	4.362094
2162.000000	4.468610
2161.000000	4.328410
2160.000000	4.429446
2159.000000	4.491590
2158.000000	4.476217
2157.000000	4.526514
2156.000000	4.464269
2155.000000	4.699753
2154.000000	4.649576
2153.000000	4.631036
2152.000000	4.742488
2151.000000	4.570190
2150.000000	4.603446
2149.000000	4.658269
2148.000000	4.569173
2147.000000	4.762694
2146.000000	4.794688
2145.000000	4.724081
2144.000000	4.750921
2143.000000	4.974549
2142.000000	4.804512
2141.000000	5.135636
2140.000000	4.905749
2139.000000	5.038188
2138.000000	5.029474
2137.000000	4.986458
2136.000000	5.014522
2135.000000	4.946031
2134.000000	5.172594
2133.000000	4.912016
2132.000000	5.086291
2131.000000	5.229715
2130.000000	5.241071
2129.000000	5.047265
2128.000000	5.012995
2127.000000	5.065253
2126.000000	5.009980
2125.000000	4.929888
2124.000000	4.971276
2123.000000	5.079698
2122.000000	5.156251
2121.000000	5.160494
2120.000000	4.976250
2119.000000	5.058066
2118.000000	5.066027
2117.000000	5.138338
2116.000000	5.133804
2115.000000	5.157915
2114.000000	5.180847
2113.000000	5.171888
2112.000000	5.216033
2111.000000	5.221173
2110.000000	5.212890
2109.000000	5.223775
2108.000000	5.085435
2107.000000	5.234628
2106.000000	5.248644
2105.000000	5.224154
2104.000000	5.176588
2103.000000	5.204664
2102.000000	5.289283
2101.000000	5.372043
2100.000000	5.315206
2099.000000	5.197646
2098.000000	5.118883
2097.000000	5.103997
2096.000000	5.140256
2095.000000	5.136399
2094.000000	5.294833
2093.000000	5.112576
2092.000000	5.091246
2091.000000	5.093579
2090.000000	5.157680
2089.000000	5.238948
2088.000000	5.236320
2087.000000	5.253753
2086.000000	5.184957
2085.000000	5.084951
2084.000000	5.111467
2083.000000	5.105645
2082.000000	5.092588
2081.000000	5.035626
2080.000000	5.013418
2079.000000	5.031672
2078.000000	4.995737
2077.000000	4.910049
2076.000000	4.822348
2075.000000	4.852820
2074.000000	4.877098
2073.000000	4.876738
2072.000000	4.892584
2071.000000	4.808302
2070.000000	4.791707
2069.000000	4.793957
2068.000000	4.770939
2067.000000	4.696704
2066.000000	4.595492
2065.000000	4.590108
2064.000000	4.583896
2063.000000	4.580653
2062.000000	4.569948
2061.000000	4.511166
2060.000000	4.424594
2059.000000	4.415455
2058.000000	4.376390
2057.000000	4.346345
2056.000000	4.279680
2055.000000	4.271009
2054.000000	4.195810
2053.000000	4.146094
2052.000000	4.140770
2051.000000	4.121169
2050.000000	4.088201
2049.000000	4.076091
2048.000000	4.068841
2047.000000	4.046985
2046.000000	4.023461
2045.000000	4.030850
2044.000000	4.043961
2043.000000	3.991543
2042.000000	3.971117
2041.000000	4.009020
2040.000000	4.021219
2039.000000	3.962282
2038.000000	3.979539
2037.000000	3.974749
2036.000000	3.963614
2035.000000	3.986592
2034.000000	4.008268
2033.000000	4.038190
2032.000000	4.037025
2031.000000	4.011807
2030.000000	4.033527
2029.000000	4.086160
2028.000000	4.103958
2027.000000	4.143622
2026.000000	4.208074
2025.000000	4.203317
2024.000000	4.194223
2023.000000	4.200664
2022.000000	4.240866
2021.000000	4.223191
2020.000000	4.175137
2019.000000	4.150880
2018.000000	4.158885
2017.000000	4.202453
2016.000000	4.203977
2015.000000	4.209659
2014.000000	4.208568
2013.000000	4.202627
2012.000000	4.174275
2011.000000	4.148254
2010.000000	4.135702
2009.000000	4.105054
2008.000000	4.115097
2007.000000	4.121201
2006.000000	4.087131
2005.000000	4.049636
2004.000000	3.992010
2003.000000	3.988698
2002.000000	3.971033
2001.000000	3.945367
2000.000000	3.905881
1999.000000	3.904887
1998.000000	3.893925
1997.000000	3.868860
1996.000000	3.882460
1995.000000	3.838905
1994.000000	3.800116
1993.000000	3.813563
1992.000000	3.759999
1991.000000	3.700466
1990.000000	3.678571
1989.000000	3.629593
1988.000000	3.606646
1987.000000	3.611157
1986.000000	3.616984
1985.000000	3.563578
1984.000000	3.539349
1983.000000	3.532537
1982.000000	3.505576
1981.000000	3.519430
1980.000000	3.507939
1979.000000	3.437927
1978.000000	3.406198
1977.000000	3.388458
1976.000000	3.358670
1975.000000	3.348596
1974.000000	3.327456
1973.000000	3.333792
1972.000000	3.312689
1971.000000	3.270945
1970.000000	3.295221
1969.000000	3.286759
1968.000000	3.274145
1967.000000	3.272793
1966.000000	3.241037
1965.000000	3.261382
1964.000000	3.194138
1963.000000	3.149387
1962.000000	3.150043
1961.000000	3.087507
1960.000000	3.076778
1959.000000	3.085267
1958.000000	3.112433
1957.000000	3.101247
1956.000000	3.080170
1955.000000	3.097025
1954.000000	3.108489
1953.000000	3.101086
1952.000000	3.059410
1951.000000	3.110930
1950.000000	3.056442
1949.000000	3.017296
1948.000000	3.051760
1947.000000	3.076833
1946.000000	3.062941
1945.000000	3.048747
1944.000000	3.070186
1943.000000	3.103178
1942.000000	3.097386
1941.000000	3.064538
1940.000000	3.100101
1939.000000	3.069285
1938.000000	3.098319
1937.000000	3.097416
1936.000000	3.135543
1935.000000	3.225152
1934.000000	3.277458
1933.000000	3.234470
1932.000000	3.285240
1931.000000	3.250573
1930.000000	3.324589
1929.000000	3.304958
1928.000000	3.316167
1927.000000	3.403587
1926.000000	3.334039
1925.000000	3.444102
1924.000000	3.494669
1923.000000	3.576921
1922.000000	3.635691
1921.000000	3.662816
1920.000000	3.697521
1919.000000	3.713044
1918.000000	3.792077
1917.000000	3.870154
1916.000000	3.857385
1915.000000	4.002356
1914.000000	4.101822
1913.000000	4.200657
1912.000000	4.237512
1911.000000	4.248549
1910.000000	4.398330
1909.000000	4.470026
1908.000000	4.565121
1907.000000	4.659991
1906.000000	4.773118
1905.000000	4.839929
1904.000000	4.870646
1903.000000	5.024767
1902.000000	5.146649
1901.000000	5.237770
1900.000000	5.386237
1899.000000	5.487249
1898.000000	5.697246
1897.000000	5.759030
1896.000000	5.867719
1895.000000	5.980357
1894.000000	6.069413
1893.000000	6.218256
1892.000000	6.382938
1891.000000	6.501363
1890.000000	6.660290
1889.000000	6.734775
1888.000000	6.840076
1887.000000	6.952693
1886.000000	7.070799
1885.000000	7.172495
1884.000000	7.314153
1883.000000	7.472952
1882.000000	7.520008
1881.000000	7.640685
1880.000000	7.745923
1879.000000	7.787593
1878.000000	7.900671
1877.000000	8.009798
1876.000000	8.081043
1875.000000	8.175634
1874.000000	8.283406
1873.000000	8.311384
1872.000000	8.366700
1871.000000	8.434346
1870.000000	8.490757
1869.000000	8.566851
1868.000000	8.588747
1867.000000	8.567709
1866.000000	8.563231
1865.000000	8.591160
1864.000000	8.656739
1863.000000	8.628169
1862.000000	8.647014
1861.000000	8.634122
1860.000000	8.672736
1859.000000	8.669314
1858.000000	8.653409
1857.000000	8.657743
1856.000000	8.678781
1855.000000	8.736432
1854.000000	8.795658
1853.000000	8.781744
1852.000000	8.773240
1851.000000	8.831099
1850.000000	8.821076
1849.000000	8.770973
1848.000000	8.769958
1847.000000	8.794424
1846.000000	8.751502
1845.000000	8.772093
1844.000000	8.749682
1843.000000	8.724725
1842.000000	8.741168
1841.000000	8.744789
1840.000000	8.748540
1839.000000	8.744527
1838.000000	8.733342
1837.000000	8.701720
1836.000000	8.665012
1835.000000	8.597507
1834.000000	8.588001
1833.000000	8.587868
1832.000000	8.569770
1831.000000	8.552823
1830.000000	8.532055
1829.000000	8.513894
1828.000000	8.511567
1827.000000	8.493659
1826.000000	8.487177
1825.000000	8.471484
1824.000000	8.466144
1823.000000	8.438524
1822.000000	8.408316
1821.000000	8.398153
1820.000000	8.378305
1819.000000	8.353900
1818.000000	8.350095
1817.000000	8.328335
1816.000000	8.333418
1815.000000	8.336005
1814.000000	8.317798
1813.000000	8.309653
1812.000000	8.311548
1811.000000	8.309579
1810.000000	8.306203
1809.000000	8.292355
1808.000000	8.269879
1807.000000	8.242742
1806.000000	8.237892
1805.000000	8.250762
1804.000000	8.245721
1803.000000	8.229323
1802.000000	8.220595
1801.000000	8.221514
1800.000000	8.218809
1799.000000	8.218445
1798.000000	8.205086
1797.000000	8.191935
1796.000000	8.188994
1795.000000	8.189315
1794.000000	8.209332
1793.000000	8.209842
1792.000000	8.198763
1791.000000	8.210200
1790.000000	8.202372
1789.000000	8.196847
1788.000000	8.204524
1787.000000	8.206356
1786.000000	8.219325
1785.000000	8.202909
1784.000000	8.182924
1783.000000	8.182874
1782.000000	8.188088
1781.000000	8.182686
1780.000000	8.167630
1779.000000	8.170287
1778.000000	8.171218
1777.000000	8.138894
1776.000000	8.130477
1775.000000	8.088063
1774.000000	8.072119
1773.000000	8.074633
1772.000000	8.038514
1771.000000	8.031945
1770.000000	8.020295
1769.000000	7.996488
1768.000000	7.980471
1767.000000	7.960303
1766.000000	7.955251
1765.000000	7.961925
1764.000000	7.917381
1763.000000	7.884494
1762.000000	7.868392
1761.000000	7.870790
1760.000000	7.833233
1759.000000	7.801694
1758.000000	7.796255
1757.000000	7.786350
1756.000000	7.789492
1755.000000	7.769848
1754.000000	7.771403
1753.000000	7.738045
1752.000000	7.744115
1751.000000	7.741541
1750.000000	7.697151
1749.000000	7.706928
1748.000000	7.698468
1747.000000	7.669720
1746.000000	7.620274
1745.000000	7.602324
1744.000000	7.606534
1743.000000	7.565163
1742.000000	7.561709
1741.000000	7.567759
1740.000000	7.545935
1739.000000	7.532507
1738.000000	7.508229
1737.000000	7.500906
1736.000000	7.485608
1735.000000	7.459477
1734.000000	7.472017
1733.000000	7.462681
1732.000000	7.400435
1731.000000	7.433359
1730.000000	7.438769
1729.000000	7.434010
1728.000000	7.439895
1727.000000	7.462702
1726.000000	7.469569
1725.000000	7.482356
1724.000000	7.482627
1723.000000	7.518069
1722.000000	7.534832
1721.000000	7.548170
1720.000000	7.567763
1719.000000	7.607807
1718.000000	7.635649
1717.000000	7.651434
1716.000000	7.691490
1715.000000	7.679039
1714.000000	7.709263
1713.000000	7.730315
1712.000000	7.738359
1711.000000	7.799316
1710.000000	7.764803
1709.000000	7.796199
1708.000000	7.810422
1707.000000	7.823826
1706.000000	7.830289
1705.000000	7.854423
1704.000000	7.861028
1703.000000	7.895248
1702.000000	7.881213
1701.000000	7.883991
1700.000000	7.899164
1699.000000	7.855037
1698.000000	7.912038
1697.000000	7.928931
1696.000000	7.931978
1695.000000	7.927567
1694.000000	7.959218
1693.000000	7.955576
1692.000000	7.954118
1691.000000	7.977192
1690.000000	7.992814
1689.000000	8.050965
1688.000000	8.031983
1687.000000	8.078475
1686.000000	8.122244
1685.000000	8.130080
1684.000000	8.168443
1683.000000	8.216497
1682.000000	8.249798
1681.000000	8.302009
1680.000000	8.330904
1679.000000	8.368857
1678.000000	8.391196
1677.000000	8.439431
1676.000000	8.470153
1675.000000	8.528083
1674.000000	8.552885
1673.000000	8.595217
1672.000000	8.649966
1671.000000	8.691049
1670.000000	8.695692
1669.000000	8.753957
1668.000000	8.777686
1667.000000	8.820152
1666.000000	8.828820
1665.000000	8.831089
1664.000000	8.858410
1663.000000	8.860480
1662.000000	8.893075
1661.000000	8.918905
1660.000000	8.923478
1659.000000	8.950014
1658.000000	8.961149
1657.000000	8.982206
1656.000000	8.988992
1655.000000	9.001864
1654.000000	8.998458
1653.000000	9.016182
1652.000000	9.021368
1651.000000	9.011271
1650.000000	9.012899
1649.000000	9.021757
1648.000000	9.000763
1647.000000	8.985544
1646.000000	8.980790
1645.000000	8.983389
1644.000000	8.963406
1643.000000	8.963712
1642.000000	8.950024
1641.000000	8.951094
1640.000000	8.936894
1639.000000	8.920899
1638.000000	8.909723
1637.000000	8.904597
1636.000000	8.889253
1635.000000	8.880073
1634.000000	8.868562
1633.000000	8.855990
1632.000000	8.846957
1631.000000	8.823175
1630.000000	8.795706
1629.000000	8.790918
1628.000000	8.778676
1627.000000	8.768877
1626.000000	8.752120
1625.000000	8.736855
1624.000000	8.738628
1623.000000	8.718858
1622.000000	8.698462
1621.000000	8.686502
1620.000000	8.667584
1619.000000	8.645786
1618.000000	8.634831
1617.000000	8.625188
1616.000000	8.608919
1615.000000	8.584182
1614.000000	8.570122
1613.000000	8.564597
1612.000000	8.538846
1611.000000	8.524178
1610.000000	8.504193
1609.000000	8.493518
1608.000000	8.480495
1607.000000	8.471614
1606.000000	8.454102
1605.000000	8.436240
1604.000000	8.415881
1603.000000	8.386283
1602.000000	8.369373
1601.000000	8.355805
1600.000000	8.343793
1599.000000	8.317067
1598.000000	8.298120
1597.000000	8.297862
1596.000000	8.277549
1595.000000	8.263334
1594.000000	8.261898
1593.000000	8.252774
1592.000000	8.241865
1591.000000	8.232744
1590.000000	8.207937
1589.000000	8.179454
1588.000000	8.174533
1587.000000	8.170799
1586.000000	8.156560
1585.000000	8.133654
1584.000000	8.117434
1583.000000	8.117084
1582.000000	8.105701
1581.000000	8.091949
1580.000000	8.081782
1579.000000	8.070438
1578.000000	8.067085
1577.000000	8.055912
1576.000000	8.037131
1575.000000	8.021278
1574.000000	7.997682
1573.000000	7.978971
1572.000000	7.972982
1571.000000	7.952811
1570.000000	7.942974
1569.000000	7.924933
1568.000000	7.905962
1567.000000	7.905239
1566.000000	7.899979
1565.000000	7.878347
1564.000000	7.846888
1563.000000	7.836666
1562.000000	7.838966
1561.000000	7.830934
1560.000000	7.807252
1559.000000	7.793148
1558.000000	7.786412
1557.000000	7.783413
1556.000000	7.784021
1555.000000	7.771417
1554.000000	7.745715
1553.000000	7.744113
1552.000000	7.726491
1551.000000	7.712562
1550.000000	7.700308
1549.000000	7.693932
1548.000000	7.678539
1547.000000	7.663498
1546.000000	7.644080
1545.000000	7.611853
1544.000000	7.593540
1543.000000	7.569502
1542.000000	7.553063
1541.000000	7.538841
1540.000000	7.510958
1539.000000	7.472825
1538.000000	7.450032
1537.000000	7.418119
1536.000000	7.392671
1535.000000	7.360498
1534.000000	7.342618
1533.000000	7.311564
1532.000000	7.287573
1531.000000	7.274131
1530.000000	7.256589
1529.000000	7.244340
1528.000000	7.288070
1527.000000	7.325370
1526.000000	7.343803
1525.000000	7.324425
1524.000000	7.280520
1523.000000	7.216797
1522.000000	7.172704
1521.000000	7.146293
1520.000000	7.119936
1519.000000	7.091423
1518.000000	7.103566
1517.000000	7.127342
1516.000000	7.116973
1515.000000	7.101769
1514.000000	7.078591
1513.000000	7.073293
1512.000000	7.039761
1511.000000	7.025816
1510.000000	7.039523
1509.000000	7.039268
1508.000000	7.019505
1507.000000	7.000089
1506.000000	6.977341
1505.000000	6.969377
1504.000000	6.948943
1503.000000	6.954371
1502.000000	6.953312
1501.000000	6.927407
1500.000000	6.937555
1499.000000	6.928555
1498.000000	6.923402
1497.000000	6.922425
1496.000000	6.925694
1495.000000	6.917750
1494.000000	6.917881
1493.000000	6.926786
1492.000000	6.927431
1491.000000	6.929570
1490.000000	6.929982
1489.000000	6.932221
1488.000000	6.945558
1487.000000	6.957082
1486.000000	6.949451
1485.000000	6.952153
1484.000000	6.965902
1483.000000	6.952223
1482.000000	6.968461
1481.000000	6.960233
1480.000000	6.975031
1479.000000	6.987886
1478.000000	6.991495
1477.000000	7.004147
1476.000000	6.995378
1475.000000	7.003474
1474.000000	7.006088
1473.000000	7.001378
1472.000000	6.990914
1471.000000	6.994184
1470.000000	7.007260
1469.000000	7.007250
1468.000000	7.005792
1467.000000	7.041770
1466.000000	7.046351
1465.000000	7.058202
1464.000000	7.056532
1463.000000	7.050275
1462.000000	7.078168
1461.000000	7.095329
1460.000000	7.102475
1459.000000	7.100123
1458.000000	7.088391
1457.000000	7.124425
1456.000000	7.142626
1455.000000	7.119641
1454.000000	7.126496
1453.000000	7.133867
1452.000000	7.172689
1451.000000	7.185095
1450.000000	7.189063
1449.000000	7.198303
1448.000000	7.203844
1447.000000	7.206604
1446.000000	7.221621
1445.000000	7.281945
1444.000000	7.305784
1443.000000	7.313671
1442.000000	7.325955
1441.000000	7.331564
1440.000000	7.357022
1439.000000	7.371392
1438.000000	7.369890
1437.000000	7.374554
1436.000000	7.401473
1435.000000	7.429034
1434.000000	7.490225
1433.000000	7.519594
1432.000000	7.549011
1431.000000	7.575170
1430.000000	7.586773
1429.000000	7.613043
1428.000000	7.653465
