PE IR       SUBTECH     SPECTRUM    ASCII       PEDS        4.00        
   -1
A5G-C002_1.ASC
23/09/14
10:48:00.00
23/09/14
11:18:22.00
uco
Sample 002 By uco Date Thursday, September 14 2023
450.000000
#HDR
-1
-1
#GR
cm-1
%T
1.0
0.0
4000.000000
-1.000000
3551
8
98.978503
77.100562
#DATA
4000.000000	98.877183
3999.000000	98.875752
3998.000000	98.876299
3997.000000	98.878076
3996.000000	98.880110
3995.000000	98.881878
3994.000000	98.883519
3993.000000	98.885547
3992.000000	98.887998
3991.000000	98.889953
3990.000000	98.890023
3989.000000	98.887569
3988.000000	98.883322
3987.000000	98.878729
3986.000000	98.874666
3985.000000	98.870745
3984.000000	98.865862
3983.000000	98.859515
3982.000000	98.852489
3981.000000	98.846246
3980.000000	98.841832
3979.000000	98.839413
3978.000000	98.838583
3977.000000	98.838853
3976.000000	98.839842
3975.000000	98.841033
3974.000000	98.841659
3973.000000	98.841062
3972.000000	98.839308
3971.000000	98.837238
3970.000000	98.835831
3969.000000	98.835747
3968.000000	98.837254
3967.000000	98.840379
3966.000000	98.844816
3965.000000	98.849618
3964.000000	98.853358
3963.000000	98.854943
3962.000000	98.854357
3961.000000	98.852398
3960.000000	98.850021
3959.000000	98.847837
3958.000000	98.846219
3957.000000	98.845653
3956.000000	98.846089
3955.000000	98.846284
3954.000000	98.844594
3953.000000	98.840767
3952.000000	98.836731
3951.000000	98.834985
3950.000000	98.836280
3949.000000	98.838842
3948.000000	98.840027
3947.000000	98.838768
3946.000000	98.835955
3945.000000	98.832935
3944.000000	98.830216
3943.000000	98.827505
3942.000000	98.825120
3941.000000	98.824010
3940.000000	98.824642
3939.000000	98.826320
3938.000000	98.827713
3937.000000	98.828374
3936.000000	98.828988
3935.000000	98.830422
3934.000000	98.832705
3933.000000	98.834511
3932.000000	98.834302
3931.000000	98.831296
3930.000000	98.825838
3929.000000	98.818824
3928.000000	98.811176
3927.000000	98.805245
3926.000000	98.804077
3925.000000	98.808746
3924.000000	98.816999
3923.000000	98.824595
3922.000000	98.828165
3921.000000	98.827187
3920.000000	98.823882
3919.000000	98.821356
3918.000000	98.820661
3917.000000	98.820089
3916.000000	98.818065
3915.000000	98.815099
3914.000000	98.812720
3913.000000	98.811208
3912.000000	98.809867
3911.000000	98.807769
3910.000000	98.804318
3909.000000	98.799860
3908.000000	98.796068
3907.000000	98.795831
3906.000000	98.801866
3905.000000	98.813789
3904.000000	98.826768
3903.000000	98.834460
3902.000000	98.833843
3901.000000	98.826964
3900.000000	98.817676
3899.000000	98.809759
3898.000000	98.805920
3897.000000	98.805819
3896.000000	98.806692
3895.000000	98.806091
3894.000000	98.804390
3893.000000	98.804671
3892.000000	98.808885
3891.000000	98.814134
3890.000000	98.816056
3889.000000	98.814237
3888.000000	98.812153
3887.000000	98.813216
3886.000000	98.817606
3885.000000	98.822883
3884.000000	98.827244
3883.000000	98.830632
3882.000000	98.832475
3881.000000	98.831442
3880.000000	98.827105
3879.000000	98.821203
3878.000000	98.816494
3877.000000	98.814591
3876.000000	98.815079
3875.000000	98.816033
3874.000000	98.815752
3873.000000	98.815121
3872.000000	98.817185
3871.000000	98.822157
3870.000000	98.825276
3869.000000	98.823046
3868.000000	98.818848
3867.000000	98.817963
3866.000000	98.820486
3865.000000	98.822237
3864.000000	98.821037
3863.000000	98.818639
3862.000000	98.817767
3861.000000	98.819581
3860.000000	98.823108
3859.000000	98.826365
3858.000000	98.827412
3857.000000	98.825666
3856.000000	98.823107
3855.000000	98.822891
3854.000000	98.825986
3853.000000	98.827006
3852.000000	98.822307
3851.000000	98.817072
3850.000000	98.815113
3849.000000	98.814671
3848.000000	98.813742
3847.000000	98.811943
3846.000000	98.809370
3845.000000	98.806442
3844.000000	98.804857
3843.000000	98.806370
3842.000000	98.811544
3841.000000	98.819148
3840.000000	98.826870
3839.000000	98.833534
3838.000000	98.839736
3837.000000	98.845632
3836.000000	98.850172
3835.000000	98.852097
3834.000000	98.850672
3833.000000	98.845100
3832.000000	98.834695
3831.000000	98.821631
3830.000000	98.811122
3829.000000	98.807979
3828.000000	98.812991
3827.000000	98.821860
3826.000000	98.828357
3825.000000	98.829663
3824.000000	98.827421
3823.000000	98.822454
3822.000000	98.812583
3821.000000	98.796343
3820.000000	98.779026
3819.000000	98.769582
3818.000000	98.771686
3817.000000	98.782060
3816.000000	98.793275
3815.000000	98.801051
3814.000000	98.806492
3813.000000	98.810431
3812.000000	98.810288
3811.000000	98.804343
3810.000000	98.795395
3809.000000	98.788357
3808.000000	98.784969
3807.000000	98.782096
3806.000000	98.777671
3805.000000	98.775200
3804.000000	98.779582
3803.000000	98.790951
3802.000000	98.803282
3801.000000	98.809761
3800.000000	98.811851
3799.000000	98.815186
3798.000000	98.821050
3797.000000	98.826392
3796.000000	98.829111
3795.000000	98.830176
3794.000000	98.830847
3793.000000	98.830069
3792.000000	98.825687
3791.000000	98.817446
3790.000000	98.807586
3789.000000	98.799095
3788.000000	98.793941
3787.000000	98.792840
3786.000000	98.795077
3785.000000	98.798505
3784.000000	98.800909
3783.000000	98.801944
3782.000000	98.802587
3781.000000	98.803404
3780.000000	98.804178
3779.000000	98.804624
3778.000000	98.805074
3777.000000	98.805933
3776.000000	98.807024
3775.000000	98.807608
3774.000000	98.807945
3773.000000	98.809804
3772.000000	98.814672
3771.000000	98.820974
3770.000000	98.824593
3769.000000	98.823412
3768.000000	98.819206
3767.000000	98.814878
3766.000000	98.811383
3765.000000	98.808413
3764.000000	98.807311
3763.000000	98.811054
3762.000000	98.820619
3761.000000	98.833314
3760.000000	98.844904
3759.000000	98.852727
3758.000000	98.856134
3757.000000	98.855160
3756.000000	98.850632
3755.000000	98.844364
3754.000000	98.839721
3753.000000	98.840953
3752.000000	98.850235
3751.000000	98.863084
3750.000000	98.869326
3749.000000	98.864680
3748.000000	98.854479
3747.000000	98.844856
3746.000000	98.836597
3745.000000	98.826028
3744.000000	98.814885
3743.000000	98.813784
3742.000000	98.828366
3741.000000	98.851953
3740.000000	98.873555
3739.000000	98.886948
3738.000000	98.891319
3737.000000	98.888494
3736.000000	98.882226
3735.000000	98.878257
3734.000000	98.881178
3733.000000	98.887660
3732.000000	98.889641
3731.000000	98.883987
3730.000000	98.873932
3729.000000	98.864491
3728.000000	98.858883
3727.000000	98.858104
3726.000000	98.861024
3725.000000	98.864856
3724.000000	98.866682
3723.000000	98.865530
3722.000000	98.863393
3721.000000	98.862426
3720.000000	98.862965
3719.000000	98.864514
3718.000000	98.866622
3717.000000	98.869068
3716.000000	98.872593
3715.000000	98.877713
3714.000000	98.881959
3713.000000	98.880600
3712.000000	98.872515
3711.000000	98.864614
3710.000000	98.864057
3709.000000	98.870456
3708.000000	98.878531
3707.000000	98.884193
3706.000000	98.887541
3705.000000	98.889806
3704.000000	98.891030
3703.000000	98.889306
3702.000000	98.882284
3701.000000	98.870017
3700.000000	98.856101
3699.000000	98.845536
3698.000000	98.841293
3697.000000	98.842417
3696.000000	98.845847
3695.000000	98.849235
3694.000000	98.851375
3693.000000	98.852001
3692.000000	98.851755
3691.000000	98.852525
3690.000000	98.854856
3689.000000	98.855527
3688.000000	98.851010
3687.000000	98.842861
3686.000000	98.835122
3685.000000	98.829032
3684.000000	98.824052
3683.000000	98.820618
3682.000000	98.820135
3681.000000	98.822228
3680.000000	98.824152
3679.000000	98.824993
3678.000000	98.828919
3677.000000	98.839226
3676.000000	98.848270
3675.000000	98.843347
3674.000000	98.826784
3673.000000	98.811666
3672.000000	98.804684
3671.000000	98.802341
3670.000000	98.797884
3669.000000	98.790955
3668.000000	98.787329
3667.000000	98.789453
3666.000000	98.794134
3665.000000	98.796516
3664.000000	98.793903
3663.000000	98.786584
3662.000000	98.776653
3661.000000	98.766694
3660.000000	98.759280
3659.000000	98.756871
3658.000000	98.760862
3657.000000	98.769375
3656.000000	98.777170
3655.000000	98.780566
3654.000000	98.780951
3653.000000	98.781215
3652.000000	98.781701
3651.000000	98.778784
3650.000000	98.765905
3649.000000	98.740928
3648.000000	98.714301
3647.000000	98.700478
3646.000000	98.701973
3645.000000	98.709971
3644.000000	98.714952
3643.000000	98.713189
3642.000000	98.707149
3641.000000	98.702019
3640.000000	98.699964
3639.000000	98.697606
3638.000000	98.690478
3637.000000	98.678469
3636.000000	98.666167
3635.000000	98.658174
3634.000000	98.655830
3633.000000	98.658079
3632.000000	98.663359
3631.000000	98.668782
3630.000000	98.668370
3629.000000	98.655858
3628.000000	98.635426
3627.000000	98.619623
3626.000000	98.612325
3625.000000	98.609079
3624.000000	98.606497
3623.000000	98.605552
3622.000000	98.607986
3621.000000	98.611450
3620.000000	98.609415
3619.000000	98.598297
3618.000000	98.582790
3617.000000	98.571077
3616.000000	98.567288
3615.000000	98.569670
3614.000000	98.572669
3613.000000	98.570806
3612.000000	98.563396
3611.000000	98.554077
3610.000000	98.545272
3609.000000	98.535029
3608.000000	98.520680
3607.000000	98.503942
3606.000000	98.489609
3605.000000	98.480323
3604.000000	98.474931
3603.000000	98.470733
3602.000000	98.465648
3601.000000	98.458702
3600.000000	98.450361
3599.000000	98.442745
3598.000000	98.437325
3597.000000	98.432990
3596.000000	98.426951
3595.000000	98.417325
3594.000000	98.406179
3593.000000	98.398282
3592.000000	98.395720
3591.000000	98.395675
3590.000000	98.393210
3589.000000	98.385522
3588.000000	98.374041
3587.000000	98.362544
3586.000000	98.353416
3585.000000	98.344151
3584.000000	98.330055
3583.000000	98.309671
3582.000000	98.286896
3581.000000	98.267716
3580.000000	98.256179
3579.000000	98.252444
3578.000000	98.253728
3577.000000	98.256185
3576.000000	98.256069
3575.000000	98.251157
3574.000000	98.241760
3573.000000	98.231447
3572.000000	98.224279
3571.000000	98.221756
3570.000000	98.221428
3569.000000	98.218070
3568.000000	98.205168
3567.000000	98.180117
3566.000000	98.149863
3565.000000	98.126580
3564.000000	98.115618
3563.000000	98.113639
3562.000000	98.114106
3561.000000	98.111693
3560.000000	98.103763
3559.000000	98.091110
3558.000000	98.077037
3557.000000	98.065414
3556.000000	98.058035
3555.000000	98.053267
3554.000000	98.046867
3553.000000	98.035581
3552.000000	98.020569
3551.000000	98.006520
3550.000000	97.997052
3549.000000	97.991856
3548.000000	97.987787
3547.000000	97.981157
3546.000000	97.969386
3545.000000	97.952244
3544.000000	97.932137
3543.000000	97.912328
3542.000000	97.895403
3541.000000	97.882667
3540.000000	97.873764
3539.000000	97.866885
3538.000000	97.859947
3537.000000	97.852276
3536.000000	97.844930
3535.000000	97.838974
3534.000000	97.834005
3533.000000	97.828385
3532.000000	97.820768
3531.000000	97.810881
3530.000000	97.799421
3529.000000	97.787743
3528.000000	97.777338
3527.000000	97.768970
3526.000000	97.762021
3525.000000	97.754566
3524.000000	97.744279
3523.000000	97.730013
3522.000000	97.713076
3521.000000	97.696809
3520.000000	97.684136
3519.000000	97.675094
3518.000000	97.666897
3517.000000	97.656777
3516.000000	97.645044
3515.000000	97.634295
3514.000000	97.626486
3513.000000	97.621391
3512.000000	97.617590
3511.000000	97.613473
3510.000000	97.607080
3509.000000	97.596611
3508.000000	97.582701
3507.000000	97.569721
3506.000000	97.562880
3505.000000	97.563702
3504.000000	97.567901
3503.000000	97.568472
3502.000000	97.561660
3501.000000	97.549069
3500.000000	97.534261
3499.000000	97.519480
3498.000000	97.506040
3497.000000	97.495395
3496.000000	97.488360
3495.000000	97.483651
3494.000000	97.478562
3493.000000	97.471324
3492.000000	97.462126
3491.000000	97.452035
3490.000000	97.441818
3489.000000	97.431805
3488.000000	97.422212
3487.000000	97.413245
3486.000000	97.405127
3485.000000	97.398061
3484.000000	97.392006
3483.000000	97.386419
3482.000000	97.380677
3481.000000	97.374602
3480.000000	97.367930
3479.000000	97.359474
3478.000000	97.347838
3477.000000	97.333229
3476.000000	97.317723
3475.000000	97.303575
3474.000000	97.292013
3473.000000	97.283885
3472.000000	97.279942
3471.000000	97.279280
3470.000000	97.278617
3469.000000	97.274753
3468.000000	97.267568
3467.000000	97.259724
3466.000000	97.253386
3465.000000	97.248349
3464.000000	97.243202
3463.000000	97.236984
3462.000000	97.229341
3461.000000	97.219883
3460.000000	97.208259
3459.000000	97.194709
3458.000000	97.180252
3457.000000	97.166591
3456.000000	97.155639
3455.000000	97.148483
3454.000000	97.144561
3453.000000	97.141620
3452.000000	97.136924
3451.000000	97.128954
3450.000000	97.118777
3449.000000	97.109747
3448.000000	97.104810
3447.000000	97.103225
3446.000000	97.100809
3445.000000	97.094245
3444.000000	97.084130
3443.000000	97.073261
3442.000000	97.063079
3441.000000	97.053106
3440.000000	97.043156
3439.000000	97.034435
3438.000000	97.028145
3437.000000	97.024051
3436.000000	97.020865
3435.000000	97.017213
3434.000000	97.012024
3433.000000	97.004390
3432.000000	96.994142
3431.000000	96.982416
3430.000000	96.971304
3429.000000	96.962415
3428.000000	96.955352
3427.000000	96.947819
3426.000000	96.937709
3425.000000	96.925331
3424.000000	96.913270
3423.000000	96.904067
3422.000000	96.898545
3421.000000	96.896017
3420.000000	96.894900
3419.000000	96.892770
3418.000000	96.887399
3417.000000	96.878983
3416.000000	96.870762
3415.000000	96.866092
3414.000000	96.864721
3413.000000	96.862634
3412.000000	96.855753
3411.000000	96.843632
3410.000000	96.829922
3409.000000	96.819437
3408.000000	96.814246
3407.000000	96.812235
3406.000000	96.809614
3405.000000	96.804669
3404.000000	96.798256
3403.000000	96.790833
3402.000000	96.780984
3401.000000	96.767779
3400.000000	96.753128
3399.000000	96.740134
3398.000000	96.729783
3397.000000	96.720881
3396.000000	96.712921
3395.000000	96.707499
3394.000000	96.706518
3393.000000	96.709759
3392.000000	96.714278
3391.000000	96.715887
3390.000000	96.711653
3389.000000	96.702047
3388.000000	96.690993
3387.000000	96.682967
3386.000000	96.679263
3385.000000	96.676802
3384.000000	96.670589
3383.000000	96.657539
3382.000000	96.638924
3381.000000	96.619781
3380.000000	96.605623
3379.000000	96.598462
3378.000000	96.595631
3377.000000	96.592404
3376.000000	96.585541
3375.000000	96.574547
3374.000000	96.560773
3373.000000	96.546282
3372.000000	96.532794
3371.000000	96.520540
3370.000000	96.508207
3369.000000	96.494813
3368.000000	96.481165
3367.000000	96.468509
3366.000000	96.456059
3365.000000	96.441300
3364.000000	96.422855
3363.000000	96.402065
3362.000000	96.381581
3361.000000	96.363093
3360.000000	96.346359
3359.000000	96.329505
3358.000000	96.310225
3357.000000	96.287572
3356.000000	96.263039
3355.000000	96.239502
3354.000000	96.218849
3353.000000	96.200839
3352.000000	96.184035
3351.000000	96.167292
3350.000000	96.150466
3349.000000	96.134254
3348.000000	96.119049
3347.000000	96.103505
3346.000000	96.084670
3345.000000	96.060500
3344.000000	96.032551
3343.000000	96.005450
3342.000000	95.983388
3341.000000	95.967129
3340.000000	95.953868
3339.000000	95.939335
3338.000000	95.920439
3337.000000	95.897102
3336.000000	95.872091
3335.000000	95.848772
3334.000000	95.828748
3333.000000	95.811411
3332.000000	95.795098
3331.000000	95.778323
3330.000000	95.760597
3329.000000	95.742795
3328.000000	95.726435
3327.000000	95.712172
3326.000000	95.699362
3325.000000	95.687169
3324.000000	95.675214
3323.000000	95.662535
3322.000000	95.647258
3321.000000	95.628643
3320.000000	95.608683
3319.000000	95.590390
3318.000000	95.574921
3317.000000	95.561505
3316.000000	95.549809
3315.000000	95.540801
3314.000000	95.535206
3313.000000	95.532530
3312.000000	95.531743
3311.000000	95.531849
3310.000000	95.531569
3309.000000	95.529510
3308.000000	95.525276
3307.000000	95.519826
3306.000000	95.514335
3305.000000	95.509032
3304.000000	95.503037
3303.000000	95.495032
3302.000000	95.484559
3301.000000	95.473303
3300.000000	95.464625
3299.000000	95.460780
3298.000000	95.460765
3297.000000	95.461485
3296.000000	95.460866
3295.000000	95.459101
3294.000000	95.457202
3293.000000	95.455579
3292.000000	95.454038
3291.000000	95.452252
3290.000000	95.450145
3289.000000	95.448311
3288.000000	95.447695
3287.000000	95.448039
3286.000000	95.447070
3285.000000	95.442579
3284.000000	95.435516
3283.000000	95.430217
3282.000000	95.431122
3281.000000	95.439505
3280.000000	95.453101
3279.000000	95.467856
3278.000000	95.480044
3277.000000	95.487626
3276.000000	95.490418
3275.000000	95.489470
3274.000000	95.486975
3273.000000	95.486538
3272.000000	95.491660
3271.000000	95.502333
3270.000000	95.513816
3269.000000	95.520528
3268.000000	95.521009
3267.000000	95.518338
3266.000000	95.516568
3265.000000	95.518326
3264.000000	95.525174
3263.000000	95.537535
3262.000000	95.553274
3261.000000	95.568184
3260.000000	95.579150
3259.000000	95.586312
3258.000000	95.591836
3257.000000	95.597828
3256.000000	95.605773
3255.000000	95.616311
3254.000000	95.628215
3253.000000	95.638530
3252.000000	95.645383
3251.000000	95.650474
3250.000000	95.657841
3249.000000	95.669862
3248.000000	95.684795
3247.000000	95.698144
3246.000000	95.706193
3245.000000	95.708576
3244.000000	95.707899
3243.000000	95.707281
3242.000000	95.708647
3241.000000	95.713038
3240.000000	95.721147
3239.000000	95.732400
3238.000000	95.744162
3237.000000	95.753506
3236.000000	95.759992
3235.000000	95.765556
3234.000000	95.771302
3233.000000	95.775703
3232.000000	95.776786
3231.000000	95.775313
3230.000000	95.774779
3229.000000	95.778538
3228.000000	95.787407
3227.000000	95.799683
3226.000000	95.812720
3225.000000	95.824256
3224.000000	95.832823
3223.000000	95.837587
3222.000000	95.838533
3221.000000	95.837145
3220.000000	95.836251
3219.000000	95.838041
3218.000000	95.841810
3217.000000	95.844421
3216.000000	95.843708
3215.000000	95.841603
3214.000000	95.843580
3213.000000	95.854190
3212.000000	95.872662
3211.000000	95.892668
3210.000000	95.907072
3209.000000	95.913395
3208.000000	95.914640
3207.000000	95.915277
3206.000000	95.917441
3205.000000	95.921211
3204.000000	95.926424
3203.000000	95.932658
3202.000000	95.938421
3201.000000	95.942425
3200.000000	95.945519
3199.000000	95.950055
3198.000000	95.957348
3197.000000	95.967186
3196.000000	95.979444
3195.000000	95.994248
3194.000000	96.010067
3193.000000	96.023448
3192.000000	96.031871
3191.000000	96.036140
3190.000000	96.039169
3189.000000	96.043185
3188.000000	96.048709
3187.000000	96.055615
3186.000000	96.063993
3185.000000	96.074078
3184.000000	96.085748
3183.000000	96.098294
3182.000000	96.110589
3181.000000	96.121558
3180.000000	96.130454
3179.000000	96.136827
3178.000000	96.141049
3177.000000	96.145376
3176.000000	96.153519
3175.000000	96.167775
3174.000000	96.186572
3173.000000	96.205796
3172.000000	96.222400
3171.000000	96.236032
3170.000000	96.247481
3169.000000	96.257157
3168.000000	96.265328
3167.000000	96.272569
3166.000000	96.279305
3165.000000	96.285818
3164.000000	96.293045
3163.000000	96.302470
3162.000000	96.314641
3161.000000	96.328532
3160.000000	96.342740
3159.000000	96.356713
3158.000000	96.370569
3157.000000	96.384449
3156.000000	96.398401
3155.000000	96.412144
3154.000000	96.424693
3153.000000	96.434953
3152.000000	96.442992
3151.000000	96.449832
3150.000000	96.455715
3149.000000	96.459440
3148.000000	96.460153
3147.000000	96.459346
3146.000000	96.460497
