PE IR       SUBTECH     SPECTRUM    ASCII       PEDS        4.00        
   -1
A10-C001_1.ASC
23/09/14
11:15:57.00
23/09/14
11:18:22.00
uco
Sample 001 By uco Date Thursday, September 14 2023
450.000000
#HDR
-1
-1
#GR
cm-1
%T
1.0
0.0
4000.000000
-1.000000
3551
8
98.989213
88.058984
#DATA
4000.000000	98.920577
3999.000000	98.919437
3998.000000	98.922538
3997.000000	98.926829
3996.000000	98.928899
3995.000000	98.927924
3994.000000	98.925728
3993.000000	98.924847
3992.000000	98.926188
3991.000000	98.928454
3990.000000	98.929268
3989.000000	98.927049
3988.000000	98.922065
3987.000000	98.916148
3986.000000	98.911480
3985.000000	98.909164
3984.000000	98.908600
3983.000000	98.908155
3982.000000	98.906407
3981.000000	98.903188
3980.000000	98.899862
3979.000000	98.898653
3978.000000	98.901001
3977.000000	98.906155
3976.000000	98.911404
3975.000000	98.913667
3974.000000	98.911432
3973.000000	98.905683
3972.000000	98.899480
3971.000000	98.896258
3970.000000	98.897698
3969.000000	98.902795
3968.000000	98.908633
3967.000000	98.912483
3966.000000	98.913548
3965.000000	98.912959
3964.000000	98.912420
3963.000000	98.912891
3962.000000	98.914164
3961.000000	98.915239
3960.000000	98.915345
3959.000000	98.914067
3958.000000	98.911060
3957.000000	98.906559
3956.000000	98.901453
3955.000000	98.896739
3954.000000	98.892766
3953.000000	98.889535
3952.000000	98.887846
3951.000000	98.889186
3950.000000	98.894282
3949.000000	98.901326
3948.000000	98.906543
3947.000000	98.907281
3946.000000	98.903671
3945.000000	98.897666
3944.000000	98.891333
3943.000000	98.885892
3942.000000	98.882261
3941.000000	98.880810
3940.000000	98.881124
3939.000000	98.882127
3938.000000	98.882578
3937.000000	98.882312
3936.000000	98.882006
3935.000000	98.882104
3934.000000	98.882063
3933.000000	98.880409
3932.000000	98.876669
3931.000000	98.871947
3930.000000	98.868020
3929.000000	98.865585
3928.000000	98.863795
3927.000000	98.862933
3926.000000	98.864506
3925.000000	98.869069
3924.000000	98.875070
3923.000000	98.879952
3922.000000	98.882165
3921.000000	98.882244
3920.000000	98.882125
3919.000000	98.883433
3918.000000	98.885225
3917.000000	98.884726
3916.000000	98.881127
3915.000000	98.876494
3914.000000	98.873115
3913.000000	98.870800
3912.000000	98.868185
3911.000000	98.864156
3910.000000	98.858493
3909.000000	98.852271
3908.000000	98.847869
3907.000000	98.848893
3906.000000	98.858816
3905.000000	98.878161
3904.000000	98.902076
3903.000000	98.921034
3902.000000	98.926351
3901.000000	98.916374
3900.000000	98.896701
3899.000000	98.877520
3898.000000	98.867162
3897.000000	98.866251
3896.000000	98.869805
3895.000000	98.872290
3894.000000	98.871216
3893.000000	98.868232
3892.000000	98.867297
3891.000000	98.870128
3890.000000	98.875347
3889.000000	98.881707
3888.000000	98.889555
3887.000000	98.898867
3886.000000	98.907554
3885.000000	98.912477
3884.000000	98.911701
3883.000000	98.905817
3882.000000	98.896705
3881.000000	98.887815
3880.000000	98.883068
3879.000000	98.883250
3878.000000	98.885546
3877.000000	98.886616
3876.000000	98.884620
3875.000000	98.880435
3874.000000	98.877414
3873.000000	98.878433
3872.000000	98.883634
3871.000000	98.890137
3870.000000	98.894276
3869.000000	98.895068
3868.000000	98.894905
3867.000000	98.895635
3866.000000	98.894565
3865.000000	98.888016
3864.000000	98.878237
3863.000000	98.871667
3862.000000	98.871751
3861.000000	98.876971
3860.000000	98.883460
3859.000000	98.888949
3858.000000	98.893452
3857.000000	98.897919
3856.000000	98.902381
3855.000000	98.905253
3854.000000	98.908645
3853.000000	98.911617
3852.000000	98.906449
3851.000000	98.895097
3850.000000	98.885613
3849.000000	98.879737
3848.000000	98.875463
3847.000000	98.870407
3846.000000	98.863328
3845.000000	98.855261
3844.000000	98.850291
3843.000000	98.852497
3842.000000	98.862256
3841.000000	98.874791
3840.000000	98.883293
3839.000000	98.884336
3838.000000	98.879726
3837.000000	98.873710
3836.000000	98.869583
3835.000000	98.868350
3834.000000	98.868739
3833.000000	98.867786
3832.000000	98.863046
3831.000000	98.856354
3830.000000	98.852396
3829.000000	98.854312
3828.000000	98.861046
3827.000000	98.868132
3826.000000	98.871523
3825.000000	98.870904
3824.000000	98.868699
3823.000000	98.864671
3822.000000	98.857615
3821.000000	98.849371
3820.000000	98.843470
3819.000000	98.843019
3818.000000	98.848562
3817.000000	98.856904
3816.000000	98.862930
3815.000000	98.865241
3814.000000	98.866072
3813.000000	98.867269
3812.000000	98.868529
3811.000000	98.869180
3810.000000	98.869596
3809.000000	98.869368
3808.000000	98.866467
3807.000000	98.859644
3806.000000	98.851094
3805.000000	98.844567
3804.000000	98.841663
3803.000000	98.839591
3802.000000	98.835745
3801.000000	98.832460
3800.000000	98.835158
3799.000000	98.845425
3798.000000	98.859843
3797.000000	98.871960
3796.000000	98.877413
3795.000000	98.877016
3794.000000	98.874311
3793.000000	98.871679
3792.000000	98.869353
3791.000000	98.866785
3790.000000	98.863370
3789.000000	98.858603
3788.000000	98.852368
3787.000000	98.845827
3786.000000	98.840849
3785.000000	98.838808
3784.000000	98.839715
3783.000000	98.842009
3782.000000	98.842492
3781.000000	98.838470
3780.000000	98.831856
3779.000000	98.828493
3778.000000	98.831673
3777.000000	98.838674
3776.000000	98.845072
3775.000000	98.848743
3774.000000	98.850356
3773.000000	98.851647
3772.000000	98.853830
3771.000000	98.857242
3770.000000	98.861732
3769.000000	98.866568
3768.000000	98.870021
3767.000000	98.870920
3766.000000	98.869092
3765.000000	98.865289
3764.000000	98.861804
3763.000000	98.861209
3762.000000	98.863456
3761.000000	98.866376
3760.000000	98.869074
3759.000000	98.872218
3758.000000	98.875145
3757.000000	98.876335
3756.000000	98.876757
3755.000000	98.878828
3754.000000	98.884076
3753.000000	98.893367
3752.000000	98.908262
3751.000000	98.927671
3750.000000	98.941768
3749.000000	98.941970
3748.000000	98.932687
3747.000000	98.922592
3746.000000	98.912648
3745.000000	98.898563
3744.000000	98.884039
3743.000000	98.879742
3742.000000	98.889689
3741.000000	98.908139
3740.000000	98.925129
3739.000000	98.933524
3738.000000	98.930493
3737.000000	98.918858
3736.000000	98.908405
3735.000000	98.910478
3734.000000	98.926793
3733.000000	98.944085
3732.000000	98.947399
3731.000000	98.934645
3730.000000	98.914433
3729.000000	98.896024
3728.000000	98.883936
3727.000000	98.878953
3726.000000	98.879566
3725.000000	98.882430
3724.000000	98.883993
3723.000000	98.883026
3722.000000	98.881565
3721.000000	98.881746
3720.000000	98.884433
3719.000000	98.889318
3718.000000	98.894194
3717.000000	98.896508
3716.000000	98.897059
3715.000000	98.898843
3714.000000	98.901237
3713.000000	98.898802
3712.000000	98.889664
3711.000000	98.881615
3710.000000	98.882439
3709.000000	98.891236
3708.000000	98.902202
3707.000000	98.911386
3706.000000	98.918885
3705.000000	98.925360
3704.000000	98.930954
3703.000000	98.935650
3702.000000	98.938371
3701.000000	98.936173
3700.000000	98.926862
3699.000000	98.912845
3698.000000	98.899581
3697.000000	98.891457
3696.000000	98.890668
3695.000000	98.896749
3694.000000	98.905849
3693.000000	98.912920
3692.000000	98.916063
3691.000000	98.918549
3690.000000	98.923265
3689.000000	98.925339
3688.000000	98.916953
3687.000000	98.899972
3686.000000	98.883260
3685.000000	98.872234
3684.000000	98.867263
3683.000000	98.866640
3682.000000	98.868061
3681.000000	98.869100
3680.000000	98.868707
3679.000000	98.869058
3678.000000	98.873658
3677.000000	98.881723
3676.000000	98.887672
3675.000000	98.887132
3674.000000	98.882465
3673.000000	98.877903
3672.000000	98.873336
3671.000000	98.863019
3670.000000	98.844547
3669.000000	98.825401
3668.000000	98.815078
3667.000000	98.815845
3666.000000	98.823663
3665.000000	98.831931
3664.000000	98.835898
3663.000000	98.834369
3662.000000	98.828744
3661.000000	98.821577
3660.000000	98.815966
3659.000000	98.814865
3658.000000	98.819116
3657.000000	98.826021
3656.000000	98.830688
3655.000000	98.830243
3654.000000	98.826351
3653.000000	98.821703
3652.000000	98.817278
3651.000000	98.813442
3650.000000	98.809013
3649.000000	98.797736
3648.000000	98.776862
3647.000000	98.756687
3646.000000	98.747105
3645.000000	98.746959
3644.000000	98.750042
3643.000000	98.751926
3642.000000	98.750977
3641.000000	98.747435
3640.000000	98.742009
3639.000000	98.735306
3638.000000	98.728559
3637.000000	98.723218
3636.000000	98.720151
3635.000000	98.719294
3634.000000	98.720868
3633.000000	98.726362
3632.000000	98.736366
3631.000000	98.745933
3630.000000	98.745158
3629.000000	98.728568
3628.000000	98.704899
3627.000000	98.688095
3626.000000	98.680386
3625.000000	98.676332
3624.000000	98.672720
3623.000000	98.671636
3622.000000	98.675212
3621.000000	98.679533
3620.000000	98.676592
3619.000000	98.663949
3618.000000	98.647805
3617.000000	98.635684
3616.000000	98.630411
3615.000000	98.630258
3614.000000	98.631464
3613.000000	98.630810
3612.000000	98.627671
3611.000000	98.621996
3610.000000	98.611319
3609.000000	98.592660
3608.000000	98.569085
3607.000000	98.549492
3606.000000	98.539209
3605.000000	98.535541
3604.000000	98.532266
3603.000000	98.525509
3602.000000	98.515022
3601.000000	98.502550
3600.000000	98.491112
3599.000000	98.483935
3598.000000	98.481004
3597.000000	98.478435
3596.000000	98.472542
3595.000000	98.462805
3594.000000	98.452545
3593.000000	98.445834
3592.000000	98.444121
3591.000000	98.444645
3590.000000	98.441448
3589.000000	98.429596
3588.000000	98.410902
3587.000000	98.393039
3586.000000	98.382056
3585.000000	98.376064
3584.000000	98.369512
3583.000000	98.359476
3582.000000	98.346357
3581.000000	98.331153
3580.000000	98.315531
3579.000000	98.302130
3578.000000	98.293047
3577.000000	98.288006
3576.000000	98.285155
3575.000000	98.282644
3574.000000	98.278618
3573.000000	98.272165
3572.000000	98.263856
3571.000000	98.255250
3570.000000	98.246618
3569.000000	98.236935
3568.000000	98.224966
3567.000000	98.210637
3566.000000	98.195386
3565.000000	98.181745
3564.000000	98.170136
3563.000000	98.159222
3562.000000	98.147803
3561.000000	98.135693
3560.000000	98.123725
3559.000000	98.113546
3558.000000	98.105441
3557.000000	98.097659
3556.000000	98.088350
3555.000000	98.077404
3554.000000	98.065300
3553.000000	98.052014
3552.000000	98.038286
3551.000000	98.026808
3550.000000	98.020348
3549.000000	98.019103
3548.000000	98.020429
3547.000000	98.019579
3546.000000	98.010939
3545.000000	97.991766
3544.000000	97.965892
3543.000000	97.940841
3542.000000	97.921893
3541.000000	97.909304
3540.000000	97.900036
3539.000000	97.891061
3538.000000	97.881051
3537.000000	97.870775
3536.000000	97.862236
3535.000000	97.856440
3534.000000	97.851898
3533.000000	97.845628
3532.000000	97.836213
3531.000000	97.824804
3530.000000	97.813714
3529.000000	97.805064
3528.000000	97.800431
3527.000000	97.799660
3526.000000	97.799216
3525.000000	97.793307
3524.000000	97.778285
3523.000000	97.755875
3522.000000	97.731545
3521.000000	97.710555
3520.000000	97.695750
3519.000000	97.687384
3518.000000	97.683206
3517.000000	97.679522
3516.000000	97.674150
3515.000000	97.667159
3514.000000	97.659174
3513.000000	97.650009
3512.000000	97.639623
3511.000000	97.628830
3510.000000	97.618163
3509.000000	97.607110
3508.000000	97.595798
3507.000000	97.586504
3506.000000	97.581822
3505.000000	97.582286
3504.000000	97.585449
3503.000000	97.586655
3502.000000	97.581369
3501.000000	97.568026
3500.000000	97.549150
3499.000000	97.529565
3498.000000	97.513536
3497.000000	97.502990
3496.000000	97.497757
3495.000000	97.495875
3494.000000	97.493441
3493.000000	97.486154
3492.000000	97.472636
3491.000000	97.455771
3490.000000	97.440072
3489.000000	97.427989
3488.000000	97.419334
3487.000000	97.413101
3486.000000	97.408487
3485.000000	97.404580
3484.000000	97.400432
3483.000000	97.395455
3482.000000	97.389465
3481.000000	97.382457
3480.000000	97.374538
3479.000000	97.365628
3478.000000	97.355005
3477.000000	97.341826
3476.000000	97.326197
3475.000000	97.309484
3474.000000	97.293664
3473.000000	97.280993
3472.000000	97.273622
3471.000000	97.271983
3470.000000	97.273761
3469.000000	97.275763
3468.000000	97.276740
3467.000000	97.277256
3466.000000	97.276943
3465.000000	97.273812
3464.000000	97.266473
3463.000000	97.255301
3462.000000	97.241214
3461.000000	97.224942
3460.000000	97.208106
3459.000000	97.193089
3458.000000	97.180861
3457.000000	97.170432
3456.000000	97.160793
3455.000000	97.152112
3454.000000	97.144877
3453.000000	97.139040
3452.000000	97.134591
3451.000000	97.131104
3450.000000	97.126784
3449.000000	97.119847
3448.000000	97.111129
3447.000000	97.103173
3446.000000	97.096156
3445.000000	97.087204
3444.000000	97.074828
3443.000000	97.061601
3442.000000	97.051022
3441.000000	97.043646
3440.000000	97.037660
3439.000000	97.031640
3438.000000	97.025085
3437.000000	97.017487
3436.000000	97.008747
3435.000000	97.000080
3434.000000	96.993492
3433.000000	96.989866
3432.000000	96.988308
3431.000000	96.986718
3430.000000	96.983173
3429.000000	96.977331
3428.000000	96.970382
3427.000000	96.963081
3426.000000	96.954380
3425.000000	96.943176
3424.000000	96.930748
3423.000000	96.919815
3422.000000	96.911264
3421.000000	96.903462
3420.000000	96.894807
3419.000000	96.885306
3418.000000	96.875586
3417.000000	96.866182
3416.000000	96.858249
3415.000000	96.853128
3414.000000	96.850528
3413.000000	96.848340
3412.000000	96.844441
3411.000000	96.837590
3410.000000	96.827081
3409.000000	96.813556
3408.000000	96.800401
3407.000000	96.792108
3406.000000	96.789980
3405.000000	96.790629
3404.000000	96.789339
3403.000000	96.783991
3402.000000	96.775791
3401.000000	96.767614
3400.000000	96.762210
3399.000000	96.760101
3398.000000	96.758147
3397.000000	96.751340
3396.000000	96.737384
3395.000000	96.719371
3394.000000	96.703644
3393.000000	96.695430
3392.000000	96.695761
3391.000000	96.700943
3390.000000	96.704615
3389.000000	96.701732
3388.000000	96.691888
3387.000000	96.678919
3386.000000	96.667168
3385.000000	96.658224
3384.000000	96.650846
3383.000000	96.642835
3382.000000	96.633082
3381.000000	96.622567
3380.000000	96.613408
3379.000000	96.605919
3378.000000	96.597321
3377.000000	96.584720
3376.000000	96.568914
3375.000000	96.553526
3374.000000	96.540497
3373.000000	96.528383
3372.000000	96.515222
3371.000000	96.501070
3370.000000	96.487008
3369.000000	96.473521
3368.000000	96.460621
3367.000000	96.448223
3366.000000	96.435623
3365.000000	96.421808
3364.000000	96.406739
3363.000000	96.391146
3362.000000	96.374801
3361.000000	96.356418
3360.000000	96.335499
3359.000000	96.312734
3358.000000	96.288502
3357.000000	96.262779
3356.000000	96.237017
3355.000000	96.214332
3354.000000	96.196679
3353.000000	96.182900
3352.000000	96.170050
3351.000000	96.155533
3350.000000	96.137851
3349.000000	96.117000
3348.000000	96.094502
3347.000000	96.071862
3346.000000	96.048711
3345.000000	96.023741
3344.000000	95.997678
3343.000000	95.973363
3342.000000	95.952393
3341.000000	95.933380
3340.000000	95.914086
3339.000000	95.893632
3338.000000	95.872086
3337.000000	95.849763
3336.000000	95.827752
3335.000000	95.807526
3334.000000	95.788918
3333.000000	95.769633
3332.000000	95.747802
3331.000000	95.724013
3330.000000	95.700256
3329.000000	95.678035
3328.000000	95.658086
3327.000000	95.640914
3326.000000	95.626683
3325.000000	95.614761
3324.000000	95.603405
3323.000000	95.589511
3322.000000	95.569979
3321.000000	95.545157
3320.000000	95.520354
3319.000000	95.501685
3318.000000	95.490098
3317.000000	95.481118
3316.000000	95.470592
3315.000000	95.458554
3314.000000	95.447309
3313.000000	95.438450
3312.000000	95.432438
3311.000000	95.428582
3310.000000	95.424157
3309.000000	95.415545
3308.000000	95.402072
3307.000000	95.387314
3306.000000	95.375218
3305.000000	95.366298
3304.000000	95.358429
3303.000000	95.349788
3302.000000	95.339943
3301.000000	95.329476
3300.000000	95.320080
3299.000000	95.314034
3298.000000	95.312316
3297.000000	95.313570
3296.000000	95.315577
3295.000000	95.316918
3294.000000	95.316681
3293.000000	95.313884
3292.000000	95.308267
3291.000000	95.300920
3290.000000	95.293503
3289.000000	95.287431
3288.000000	95.283995
3287.000000	95.284004
3286.000000	95.286487
3285.000000	95.288834
3284.000000	95.289198
3283.000000	95.288385
3282.000000	95.288911
3281.000000	95.292650
3280.000000	95.299559
3279.000000	95.307825
3278.000000	95.314771
3277.000000	95.318180
3276.000000	95.317442
3275.000000	95.313661
3274.000000	95.309319
3273.000000	95.307930
3272.000000	95.312390
3271.000000	95.321968
3270.000000	95.331741
3269.000000	95.336997
3268.000000	95.337860
3267.000000	95.338177
3266.000000	95.340739
3265.000000	95.345657
3264.000000	95.352817
3263.000000	95.362627
3262.000000	95.373881
3261.000000	95.383996
3260.000000	95.392535
3259.000000	95.402210
3258.000000	95.414961
3257.000000	95.429212
3256.000000	95.442268
3255.000000	95.453437
3254.000000	95.463064
3253.000000	95.470400
3252.000000	95.474990
3251.000000	95.479114
3250.000000	95.486634
3249.000000	95.499066
3248.000000	95.513913
3247.000000	95.526759
3246.000000	95.534480
3245.000000	95.537034
3244.000000	95.537032
3243.000000	95.537649
3242.000000	95.540818
3241.000000	95.547289
3240.000000	95.557500
3239.000000	95.571129
3238.000000	95.586150
3237.000000	95.599941
3236.000000	95.611502
3235.000000	95.621260
3234.000000	95.628643
3233.000000	95.631753
3232.000000	95.630275
3231.000000	95.627158
3230.000000	95.626380
3229.000000	95.629739
3228.000000	95.636109
3227.000000	95.642861
3226.000000	95.647847
3225.000000	95.651205
3224.000000	95.655641
3223.000000	95.663619
3222.000000	95.674056
3221.000000	95.683281
3220.000000	95.689278
3219.000000	95.693273
3218.000000	95.696528
3217.000000	95.698164
3216.000000	95.697732
3215.000000	95.698175
3214.000000	95.703989
3213.000000	95.716590
3212.000000	95.732719
3211.000000	95.747011
3210.000000	95.755581
3209.000000	95.757992
3208.000000	95.757039
3207.000000	95.756715
3206.000000	95.759775
3205.000000	95.766864
3204.000000	95.776852
3203.000000	95.787217
3202.000000	95.795016
3201.000000	95.799242
3200.000000	95.802125
3199.000000	95.806900
3198.000000	95.814584
3197.000000	95.824495
3196.000000	95.836793
3195.000000	95.851683
3194.000000	95.866347
3193.000000	95.876313
3192.000000	95.881235
3191.000000	95.886365
3190.000000	95.896228
3189.000000	95.909019
3188.000000	95.919568
3187.000000	95.926377
3186.000000	95.933062
3185.000000	95.943623
3184.000000	95.958246
3183.000000	95.973993
3182.000000	95.987843
3181.000000	95.998746
3180.000000	96.007441
3179.000000	96.014848
3178.000000	96.020968
3177.000000	96.025937
3176.000000	96.031655
3175.000000	96.040942
3174.000000	96.054689
3173.000000	96.071095
3172.000000	96.087929
3171.000000	96.104356
3170.000000	96.120165
3169.000000	96.134724
3168.000000	96.147477
3167.000000	96.158341
3166.000000	96.167099
3165.000000	96.173842
3164.000000	96.180445
3163.000000	96.189884
3162.000000	96.202923
3161.000000	96.216855
3160.000000	96.228686
3159.000000	96.238509
3158.000000	96.248856
3157.000000	96.261791
3156.000000	96.277551
3155.000000	96.294760
3154.000000	96.310805
3153.000000	96.322961
3152.000000	96.330557
3151.000000	96.335578
3150.000000	96.340610
3149.000000	96.346758
3148.000000	96.354026
3147.000000	96.362561
3146.000000	96.372586
