PE IR       SUBTECH     SPECTRUM    ASCII       PEDS        4.00        
   -1
A10-C002_1.ASC
23/09/14
11:16:52.00
23/09/14
11:18:22.00
uco
Sample 002 By uco Date Thursday, September 14 2023
450.000000
#HDR
-1
-1
#GR
cm-1
%T
1.0
0.0
4000.000000
-1.000000
3551
8
99.071981
88.822451
#DATA
4000.000000	98.992526
3999.000000	98.990757
3998.000000	98.991912
3997.000000	98.994767
3996.000000	98.997774
3995.000000	98.999853
3994.000000	99.000427
3993.000000	98.999375
3992.000000	98.996845
3991.000000	98.993234
3990.000000	98.989364
3989.000000	98.986496
3988.000000	98.985651
3987.000000	98.986640
3986.000000	98.987923
3985.000000	98.987755
3984.000000	98.985536
3983.000000	98.982231
3982.000000	98.979395
3981.000000	98.977882
3980.000000	98.977570
3979.000000	98.977924
3978.000000	98.978277
3977.000000	98.977917
3976.000000	98.976601
3975.000000	98.974922
3974.000000	98.973871
3973.000000	98.973952
3972.000000	98.975074
3971.000000	98.977000
3970.000000	98.979492
3969.000000	98.982220
3968.000000	98.984706
3967.000000	98.986766
3966.000000	98.988754
3965.000000	98.990915
3964.000000	98.992465
3963.000000	98.991773
3962.000000	98.987969
3961.000000	98.982287
3960.000000	98.977787
3959.000000	98.976742
3958.000000	98.978335
3957.000000	98.979565
3956.000000	98.977967
3955.000000	98.973475
3954.000000	98.968157
3953.000000	98.964687
3952.000000	98.964979
3951.000000	98.969132
3950.000000	98.975241
3949.000000	98.980126
3948.000000	98.981187
3947.000000	98.978483
3946.000000	98.974391
3945.000000	98.971232
3944.000000	98.969215
3943.000000	98.966592
3942.000000	98.962382
3941.000000	98.957269
3940.000000	98.952673
3939.000000	98.949552
3938.000000	98.948140
3937.000000	98.949367
3936.000000	98.954649
3935.000000	98.963862
3934.000000	98.973896
3933.000000	98.979545
3932.000000	98.977755
3931.000000	98.969602
3930.000000	98.958441
3929.000000	98.946824
3928.000000	98.935641
3927.000000	98.926866
3926.000000	98.923324
3925.000000	98.926206
3924.000000	98.934089
3923.000000	98.943796
3922.000000	98.952090
3921.000000	98.957211
3920.000000	98.959618
3919.000000	98.961475
3918.000000	98.963676
3917.000000	98.963984
3916.000000	98.959736
3915.000000	98.950859
3914.000000	98.939737
3913.000000	98.928681
3912.000000	98.919887
3911.000000	98.914922
3910.000000	98.913966
3909.000000	98.916042
3908.000000	98.920671
3907.000000	98.929258
3906.000000	98.943854
3905.000000	98.963793
3904.000000	98.984005
3903.000000	98.997353
3902.000000	98.999636
3901.000000	98.992820
3900.000000	98.981559
3899.000000	98.970004
3898.000000	98.960359
3897.000000	98.952273
3896.000000	98.945014
3895.000000	98.938848
3894.000000	98.935043
3893.000000	98.935221
3892.000000	98.939976
3891.000000	98.946857
3890.000000	98.952675
3889.000000	98.957805
3888.000000	98.965592
3887.000000	98.976205
3886.000000	98.984248
3885.000000	98.984842
3884.000000	98.979244
3883.000000	98.972826
3882.000000	98.969090
3881.000000	98.968475
3880.000000	98.969671
3879.000000	98.969802
3878.000000	98.966837
3877.000000	98.962022
3876.000000	98.957332
3875.000000	98.952972
3874.000000	98.948608
3873.000000	98.945396
3872.000000	98.945407
3871.000000	98.948002
3870.000000	98.949446
3869.000000	98.948111
3868.000000	98.947661
3867.000000	98.952622
3866.000000	98.960865
3865.000000	98.964737
3864.000000	98.961327
3863.000000	98.955411
3862.000000	98.952404
3861.000000	98.953084
3860.000000	98.954359
3859.000000	98.953006
3858.000000	98.948496
3857.000000	98.943971
3856.000000	98.944153
3855.000000	98.949443
3854.000000	98.955539
3853.000000	98.958417
3852.000000	98.956438
3851.000000	98.953582
3850.000000	98.954089
3849.000000	98.955349
3848.000000	98.953348
3847.000000	98.947090
3846.000000	98.938125
3845.000000	98.928969
3844.000000	98.922670
3843.000000	98.920555
3842.000000	98.921581
3841.000000	98.923202
3840.000000	98.923775
3839.000000	98.924732
3838.000000	98.928694
3837.000000	98.934907
3836.000000	98.940315
3835.000000	98.943569
3834.000000	98.945388
3833.000000	98.945809
3832.000000	98.943415
3831.000000	98.938429
3830.000000	98.933405
3829.000000	98.931217
3828.000000	98.932814
3827.000000	98.935816
3826.000000	98.936129
3825.000000	98.931729
3824.000000	98.924390
3823.000000	98.915045
3822.000000	98.903547
3821.000000	98.892893
3820.000000	98.887506
3819.000000	98.888787
3818.000000	98.896300
3817.000000	98.907526
3816.000000	98.917463
3815.000000	98.925057
3814.000000	98.932911
3813.000000	98.941330
3812.000000	98.946475
3811.000000	98.944996
3810.000000	98.938413
3809.000000	98.930934
3808.000000	98.923942
3807.000000	98.914680
3806.000000	98.901482
3805.000000	98.887883
3804.000000	98.880654
3803.000000	98.883120
3802.000000	98.892553
3801.000000	98.903087
3800.000000	98.911417
3799.000000	98.917970
3798.000000	98.924114
3797.000000	98.928688
3796.000000	98.930242
3795.000000	98.929642
3794.000000	98.928503
3793.000000	98.927181
3792.000000	98.924946
3791.000000	98.921628
3790.000000	98.917971
3789.000000	98.914949
3788.000000	98.913241
3787.000000	98.913659
3786.000000	98.916174
3785.000000	98.919257
3784.000000	98.921285
3783.000000	98.922440
3782.000000	98.923336
3781.000000	98.923152
3780.000000	98.921085
3779.000000	98.918183
3778.000000	98.916108
3777.000000	98.914969
3776.000000	98.914350
3775.000000	98.913883
3774.000000	98.914009
3773.000000	98.916458
3772.000000	98.923220
3771.000000	98.933908
3770.000000	98.945056
3769.000000	98.952350
3768.000000	98.953175
3767.000000	98.948201
3766.000000	98.940123
3765.000000	98.932128
3764.000000	98.927965
3763.000000	98.930646
3762.000000	98.938946
3761.000000	98.947415
3760.000000	98.952274
3759.000000	98.955019
3758.000000	98.957534
3757.000000	98.957694
3756.000000	98.953924
3755.000000	98.948279
3754.000000	98.944683
3753.000000	98.947244
3752.000000	98.960505
3751.000000	98.985431
3750.000000	99.009925
3749.000000	99.017849
3748.000000	99.010110
3747.000000	99.000638
3746.000000	98.996936
3745.000000	98.992309
3744.000000	98.980551
3743.000000	98.968430
3742.000000	98.966243
3741.000000	98.974849
3740.000000	98.986698
3739.000000	98.995487
3738.000000	98.998979
3737.000000	98.996780
3736.000000	98.991167
3735.000000	98.988790
3734.000000	98.995092
3733.000000	99.004575
3732.000000	99.006585
3731.000000	98.997882
3730.000000	98.984051
3729.000000	98.973214
3728.000000	98.970086
3727.000000	98.974629
3726.000000	98.983228
3725.000000	98.991235
3724.000000	98.995595
3723.000000	98.996484
3722.000000	98.996501
3721.000000	98.996308
3720.000000	98.994294
3719.000000	98.989857
3718.000000	98.983759
3717.000000	98.977017
3716.000000	98.972089
3715.000000	98.971565
3714.000000	98.973965
3713.000000	98.973739
3712.000000	98.969305
3711.000000	98.967764
3710.000000	98.973446
3709.000000	98.981535
3708.000000	98.985710
3707.000000	98.985063
3706.000000	98.984383
3705.000000	98.988270
3704.000000	98.997361
3703.000000	99.007577
3702.000000	99.012386
3701.000000	99.007858
3700.000000	98.995792
3699.000000	98.982080
3698.000000	98.971185
3697.000000	98.962997
3696.000000	98.956522
3695.000000	98.952877
3694.000000	98.952326
3693.000000	98.951955
3692.000000	98.949077
3691.000000	98.946481
3690.000000	98.950111
3689.000000	98.959729
3688.000000	98.966324
3687.000000	98.963948
3686.000000	98.955980
3685.000000	98.947700
3684.000000	98.941533
3683.000000	98.938079
3682.000000	98.936572
3681.000000	98.934344
3680.000000	98.928441
3679.000000	98.920494
3678.000000	98.916829
3677.000000	98.920308
3676.000000	98.925711
3675.000000	98.927962
3674.000000	98.927381
3673.000000	98.925952
3672.000000	98.924873
3671.000000	98.920321
3670.000000	98.909848
3669.000000	98.900717
3668.000000	98.900176
3667.000000	98.907078
3666.000000	98.916779
3665.000000	98.924582
3664.000000	98.928132
3663.000000	98.927447
3662.000000	98.922917
3661.000000	98.914877
3660.000000	98.905486
3659.000000	98.899257
3658.000000	98.899183
3657.000000	98.903027
3656.000000	98.905296
3655.000000	98.903855
3654.000000	98.902484
3653.000000	98.905395
3652.000000	98.911442
3651.000000	98.914301
3650.000000	98.907731
3649.000000	98.891750
3648.000000	98.874121
3647.000000	98.864302
3646.000000	98.863490
3645.000000	98.865310
3644.000000	98.864205
3643.000000	98.859328
3642.000000	98.852864
3641.000000	98.847457
3640.000000	98.843752
3639.000000	98.839700
3638.000000	98.833398
3637.000000	98.825571
3636.000000	98.819086
3635.000000	98.815887
3634.000000	98.815779
3633.000000	98.818870
3632.000000	98.826805
3631.000000	98.838738
3630.000000	98.847767
3629.000000	98.846157
3628.000000	98.835560
3627.000000	98.822463
3626.000000	98.809129
3625.000000	98.796178
3624.000000	98.785611
3623.000000	98.781069
3622.000000	98.783481
3621.000000	98.786639
3620.000000	98.781009
3619.000000	98.764785
3618.000000	98.745315
3617.000000	98.729866
3616.000000	98.722003
3615.000000	98.722363
3614.000000	98.728318
3613.000000	98.735252
3612.000000	98.740359
3611.000000	98.742811
3610.000000	98.740257
3609.000000	98.728318
3608.000000	98.707327
3607.000000	98.685280
3606.000000	98.669235
3605.000000	98.658808
3604.000000	98.649137
3603.000000	98.636741
3602.000000	98.621619
3601.000000	98.605999
3600.000000	98.593478
3599.000000	98.587934
3598.000000	98.589762
3597.000000	98.594696
3596.000000	98.597432
3595.000000	98.594874
3594.000000	98.587975
3593.000000	98.580384
3592.000000	98.575897
3591.000000	98.576294
3590.000000	98.579516
3589.000000	98.579837
3588.000000	98.572594
3587.000000	98.558760
3586.000000	98.543074
3585.000000	98.527008
3584.000000	98.509446
3583.000000	98.490853
3582.000000	98.473570
3581.000000	98.458554
3580.000000	98.445135
3579.000000	98.433107
3578.000000	98.424204
3577.000000	98.420719
3576.000000	98.423346
3575.000000	98.430157
3574.000000	98.437044
3573.000000	98.440751
3572.000000	98.440455
3571.000000	98.437137
3570.000000	98.431085
3569.000000	98.421120
3568.000000	98.405597
3567.000000	98.385312
3566.000000	98.364153
3565.000000	98.346259
3564.000000	98.332303
3563.000000	98.320462
3562.000000	98.308733
3561.000000	98.296518
3560.000000	98.284617
3559.000000	98.274223
3558.000000	98.264984
3557.000000	98.255329
3556.000000	98.244315
3555.000000	98.232330
3554.000000	98.219872
3553.000000	98.207623
3552.000000	98.197724
3551.000000	98.192753
3550.000000	98.192891
3549.000000	98.195282
3548.000000	98.195794
3547.000000	98.190064
3546.000000	98.174295
3545.000000	98.148484
3544.000000	98.119293
3543.000000	98.095829
3542.000000	98.082791
3541.000000	98.078622
3540.000000	98.078994
3539.000000	98.080223
3538.000000	98.079401
3537.000000	98.074143
3536.000000	98.064120
3535.000000	98.051549
3534.000000	98.039055
3533.000000	98.027422
3532.000000	98.016419
3531.000000	98.006359
3530.000000	97.998325
3529.000000	97.993803
3528.000000	97.994130
3527.000000	97.998821
3526.000000	98.003816
3525.000000	98.002805
3524.000000	97.991811
3523.000000	97.972568
3522.000000	97.950773
3521.000000	97.931709
3520.000000	97.917738
3519.000000	97.908299
3518.000000	97.900766
3517.000000	97.892188
3516.000000	97.882136
3515.000000	97.872566
3514.000000	97.865229
3513.000000	97.859813
3512.000000	97.854809
3511.000000	97.848735
3510.000000	97.840316
3509.000000	97.828876
3508.000000	97.815809
3507.000000	97.804968
3506.000000	97.800177
3505.000000	97.802779
3504.000000	97.810463
3503.000000	97.817470
3502.000000	97.816885
3501.000000	97.804702
3500.000000	97.782508
3499.000000	97.756219
3498.000000	97.732594
3497.000000	97.716257
3496.000000	97.708507
3495.000000	97.707018
3494.000000	97.706762
3493.000000	97.703099
3492.000000	97.694834
3491.000000	97.683836
3490.000000	97.672190
3489.000000	97.660771
3488.000000	97.650453
3487.000000	97.642570
3486.000000	97.637301
3485.000000	97.633139
3484.000000	97.628994
3483.000000	97.625337
3482.000000	97.622541
3481.000000	97.619020
3480.000000	97.612105
3479.000000	97.600400
3478.000000	97.584888
3477.000000	97.568568
3476.000000	97.554784
3475.000000	97.544607
3474.000000	97.535716
3473.000000	97.525467
3472.000000	97.514758
3471.000000	97.506916
3470.000000	97.503029
3469.000000	97.500880
3468.000000	97.498630
3467.000000	97.497101
3466.000000	97.497117
3465.000000	97.496826
3464.000000	97.493304
3463.000000	97.485394
3462.000000	97.473981
3461.000000	97.460743
3460.000000	97.447805
3459.000000	97.437035
3458.000000	97.428300
3457.000000	97.419804
3456.000000	97.411006
3455.000000	97.403967
3454.000000	97.400952
3453.000000	97.401456
3452.000000	97.402767
3451.000000	97.402194
3450.000000	97.398358
3449.000000	97.391715
3448.000000	97.384612
3447.000000	97.379379
3446.000000	97.375425
3445.000000	97.369553
3444.000000	97.359824
3443.000000	97.347477
3442.000000	97.334646
3441.000000	97.322272
3440.000000	97.310904
3439.000000	97.301505
3438.000000	97.294096
3437.000000	97.287054
3436.000000	97.279247
3435.000000	97.271589
3434.000000	97.265557
3433.000000	97.260853
3432.000000	97.256324
3431.000000	97.251965
3430.000000	97.248660
3429.000000	97.246327
3428.000000	97.243348
3427.000000	97.237930
3426.000000	97.229470
3425.000000	97.219014
3424.000000	97.208648
3423.000000	97.200002
3422.000000	97.193144
3421.000000	97.187108
3420.000000	97.181110
3419.000000	97.174582
3418.000000	97.166883
3417.000000	97.158260
3416.000000	97.150637
3415.000000	97.145792
3414.000000	97.142821
3413.000000	97.139047
3412.000000	97.133314
3411.000000	97.126621
3410.000000	97.119576
3409.000000	97.111366
3408.000000	97.101979
3407.000000	97.093584
3406.000000	97.088283
3405.000000	97.085459
3404.000000	97.082113
3403.000000	97.075201
3402.000000	97.063751
3401.000000	97.049803
3400.000000	97.037649
3399.000000	97.030480
3398.000000	97.026948
3397.000000	97.022111
3396.000000	97.012691
3395.000000	97.000850
3394.000000	96.992198
3393.000000	96.990586
3392.000000	96.994623
3391.000000	96.998520
3390.000000	96.996427
3389.000000	96.987143
3388.000000	96.975241
3387.000000	96.966960
3386.000000	96.964483
3385.000000	96.964481
3384.000000	96.962050
3383.000000	96.954804
3382.000000	96.943476
3381.000000	96.930258
3380.000000	96.917527
3379.000000	96.906761
3378.000000	96.897767
3377.000000	96.889298
3376.000000	96.880560
3375.000000	96.871472
3374.000000	96.861551
3373.000000	96.849746
3372.000000	96.835571
3371.000000	96.819588
3370.000000	96.802765
3369.000000	96.786517
3368.000000	96.772904
3367.000000	96.762949
3366.000000	96.754392
3365.000000	96.742955
3364.000000	96.726604
3363.000000	96.707367
3362.000000	96.688545
3361.000000	96.671436
3360.000000	96.655206
3359.000000	96.638361
3358.000000	96.619606
3357.000000	96.598479
3356.000000	96.576120
3355.000000	96.554784
3354.000000	96.535750
3353.000000	96.518150
3352.000000	96.500050
3351.000000	96.480043
3350.000000	96.457820
3349.000000	96.434181
3348.000000	96.410516
3347.000000	96.387674
3346.000000	96.365434
3345.000000	96.343609
3344.000000	96.323352
3343.000000	96.306120
3342.000000	96.291725
3341.000000	96.278642
3340.000000	96.265627
3339.000000	96.251724
3338.000000	96.235480
3337.000000	96.216275
3336.000000	96.196197
3335.000000	96.178384
3334.000000	96.163185
3333.000000	96.147699
3332.000000	96.129474
3331.000000	96.108823
3330.000000	96.087433
3329.000000	96.066686
3328.000000	96.047744
3327.000000	96.031461
3326.000000	96.017415
3325.000000	96.004087
3324.000000	95.990376
3323.000000	95.975727
3322.000000	95.959275
3321.000000	95.940879
3320.000000	95.922764
3319.000000	95.907695
3318.000000	95.895140
3317.000000	95.881595
3316.000000	95.865780
3315.000000	95.851171
3314.000000	95.841786
3313.000000	95.837213
3312.000000	95.833242
3311.000000	95.826135
3310.000000	95.815175
3309.000000	95.802256
3308.000000	95.790477
3307.000000	95.782277
3306.000000	95.777508
3305.000000	95.773497
3304.000000	95.767360
3303.000000	95.757990
3302.000000	95.746127
3301.000000	95.733690
3300.000000	95.723269
3299.000000	95.716777
3298.000000	95.714026
3297.000000	95.713238
3296.000000	95.713089
3295.000000	95.713127
3294.000000	95.712364
3293.000000	95.709555
3292.000000	95.705381
3291.000000	95.702588
3290.000000	95.703029
3289.000000	95.705599
3288.000000	95.707662
3287.000000	95.707237
3286.000000	95.703255
3285.000000	95.695525
3284.000000	95.685915
3283.000000	95.678642
3282.000000	95.677707
3281.000000	95.683761
3280.000000	95.693708
3279.000000	95.702943
3278.000000	95.708149
3277.000000	95.708925
3276.000000	95.707529
3275.000000	95.706834
3274.000000	95.708491
3273.000000	95.713145
3272.000000	95.721311
3271.000000	95.732574
3270.000000	95.744180
3269.000000	95.752261
3268.000000	95.754956
3267.000000	95.753735
3266.000000	95.751872
3265.000000	95.752413
3264.000000	95.757091
3263.000000	95.765593
3262.000000	95.775892
3261.000000	95.786745
3260.000000	95.799401
3259.000000	95.815085
3258.000000	95.831196
3257.000000	95.842610
3256.000000	95.847323
3255.000000	95.848874
3254.000000	95.852274
3253.000000	95.859358
3252.000000	95.869077
3251.000000	95.880073
3250.000000	95.891401
3249.000000	95.901983
3248.000000	95.911104
3247.000000	95.918899
3246.000000	95.925331
3245.000000	95.929300
3244.000000	95.929890
3243.000000	95.928261
3242.000000	95.927653
3241.000000	95.931538
3240.000000	95.941323
3239.000000	95.955059
3238.000000	95.968532
3237.000000	95.978838
3236.000000	95.987055
3235.000000	95.996357
3234.000000	96.007489
3233.000000	96.017433
3232.000000	96.022887
3231.000000	96.023848
3230.000000	96.023380
3229.000000	96.024958
3228.000000	96.030251
3227.000000	96.038273
3226.000000	96.046303
3225.000000	96.052498
3224.000000	96.057811
3223.000000	96.064290
3222.000000	96.071623
3221.000000	96.077137
3220.000000	96.079318
3219.000000	96.079680
3218.000000	96.080257
3217.000000	96.081171
3216.000000	96.081945
3215.000000	96.083939
3214.000000	96.089880
3213.000000	96.101043
3212.000000	96.115639
3211.000000	96.129664
3210.000000	96.139240
3209.000000	96.143020
3208.000000	96.142908
3207.000000	96.142270
3206.000000	96.143423
3205.000000	96.147240
3204.000000	96.153939
3203.000000	96.162755
3202.000000	96.171178
3201.000000	96.176528
3200.000000	96.178620
3199.000000	96.179960
3198.000000	96.183309
3197.000000	96.190412
3196.000000	96.202253
3195.000000	96.218180
3194.000000	96.234649
3193.000000	96.247289
3192.000000	96.255277
3191.000000	96.261877
3190.000000	96.269898
3189.000000	96.278617
3188.000000	96.286153
3187.000000	96.292949
3186.000000	96.301144
3185.000000	96.311867
3184.000000	96.324465
3183.000000	96.337537
3182.000000	96.349400
3181.000000	96.358332
3180.000000	96.363639
3179.000000	96.366226
3178.000000	96.367754
3177.000000	96.369842
3176.000000	96.374126
3175.000000	96.381776
3174.000000	96.392413
3173.000000	96.404697
3172.000000	96.418426
3171.000000	96.434665
3170.000000	96.453078
3169.000000	96.470625
3168.000000	96.483985
3167.000000	96.492424
3166.000000	96.497638
3165.000000	96.502226
3164.000000	96.508927
3163.000000	96.519754
3162.000000	96.534245
3161.000000	96.549479
3160.000000	96.562945
3159.000000	96.574728
3158.000000	96.586240
3157.000000	96.597999
3156.000000	96.609771
3155.000000	96.621715
3154.000000	96.633990
3153.000000	96.645915
3152.000000	96.656699
3151.000000	96.666287
3150.000000	96.674524
3149.000000	96.680124
3148.000000	96.681841
3147.000000	96.680670
3146.000000	96.679986
