PE IR       SUBTECH     SPECTRUM    ASCII       PEDS        4.00        
   -1
A1G-C001_1.ASC
23/09/14
11:08:15.00
23/09/14
11:18:22.00
uco
Sample 001 By uco Date Thursday, September 14 2023
450.000000
#HDR
-1
-1
#GR
cm-1
%T
1.0
0.0
4000.000000
-1.000000
3551
8
98.581347
86.350801
#DATA
4000.000000	98.517490
3999.000000	98.517778
3998.000000	98.518836
3997.000000	98.520279
3996.000000	98.520959
3995.000000	98.519648
3994.000000	98.516298
3993.000000	98.512431
3992.000000	98.509833
3991.000000	98.508869
3990.000000	98.508299
3989.000000	98.506981
3988.000000	98.505390
3987.000000	98.505256
3986.000000	98.507724
3985.000000	98.511897
3984.000000	98.515225
3983.000000	98.515498
3982.000000	98.512341
3981.000000	98.506957
3980.000000	98.500829
3979.000000	98.494953
3978.000000	98.490026
3977.000000	98.486844
3976.000000	98.486243
3975.000000	98.488403
3974.000000	98.492441
3973.000000	98.496811
3972.000000	98.500305
3971.000000	98.502418
3970.000000	98.502766
3969.000000	98.500899
3968.000000	98.496995
3967.000000	98.492858
3966.000000	98.491329
3965.000000	98.494010
3964.000000	98.499268
3963.000000	98.502961
3962.000000	98.501772
3961.000000	98.495723
3960.000000	98.488024
3959.000000	98.482346
3958.000000	98.480312
3957.000000	98.481513
3956.000000	98.484375
3955.000000	98.487037
3954.000000	98.488230
3953.000000	98.488056
3952.000000	98.488096
3951.000000	98.489919
3950.000000	98.493448
3949.000000	98.496701
3948.000000	98.497432
3947.000000	98.495106
3946.000000	98.490826
3945.000000	98.486187
3944.000000	98.482578
3943.000000	98.480888
3942.000000	98.481585
3941.000000	98.483425
3940.000000	98.483545
3939.000000	98.479824
3938.000000	98.472817
3937.000000	98.466147
3936.000000	98.463740
3935.000000	98.466942
3934.000000	98.473761
3933.000000	98.479655
3932.000000	98.480817
3931.000000	98.476394
3930.000000	98.468590
3929.000000	98.460462
3928.000000	98.453746
3927.000000	98.450549
3926.000000	98.453331
3925.000000	98.462355
3924.000000	98.473943
3923.000000	98.482232
3922.000000	98.483775
3921.000000	98.480351
3920.000000	98.476870
3919.000000	98.476731
3918.000000	98.478320
3917.000000	98.476977
3916.000000	98.470850
3915.000000	98.462464
3914.000000	98.455280
3913.000000	98.449954
3912.000000	98.445302
3911.000000	98.440529
3910.000000	98.436331
3909.000000	98.434624
3908.000000	98.437106
3907.000000	98.444964
3906.000000	98.458985
3905.000000	98.478284
3904.000000	98.498367
3903.000000	98.511107
3902.000000	98.509223
3901.000000	98.492955
3900.000000	98.470175
3899.000000	98.451483
3898.000000	98.442949
3897.000000	98.442460
3896.000000	98.444389
3895.000000	98.445018
3894.000000	98.444117
3893.000000	98.444197
3892.000000	98.448018
3891.000000	98.455449
3890.000000	98.462750
3889.000000	98.466112
3888.000000	98.465431
3887.000000	98.463843
3886.000000	98.464758
3885.000000	98.469612
3884.000000	98.476250
3883.000000	98.480766
3882.000000	98.480434
3881.000000	98.475937
3880.000000	98.470994
3879.000000	98.468253
3878.000000	98.466371
3877.000000	98.463079
3876.000000	98.458246
3875.000000	98.454258
3874.000000	98.454279
3873.000000	98.458926
3872.000000	98.465249
3871.000000	98.468938
3870.000000	98.468131
3869.000000	98.465150
3868.000000	98.462792
3867.000000	98.461828
3866.000000	98.461743
3865.000000	98.461774
3864.000000	98.462173
3863.000000	98.463248
3862.000000	98.464803
3861.000000	98.467386
3860.000000	98.471092
3859.000000	98.475067
3858.000000	98.477564
3857.000000	98.477869
3856.000000	98.476999
3855.000000	98.475793
3854.000000	98.474143
3853.000000	98.471685
3852.000000	98.467081
3851.000000	98.460466
3850.000000	98.454063
3849.000000	98.449126
3848.000000	98.446286
3847.000000	98.445403
3846.000000	98.445155
3845.000000	98.444244
3844.000000	98.443545
3843.000000	98.445317
3842.000000	98.450611
3841.000000	98.457507
3840.000000	98.462626
3839.000000	98.464974
3838.000000	98.466216
3837.000000	98.467247
3836.000000	98.467053
3835.000000	98.464726
3834.000000	98.460813
3833.000000	98.456238
3832.000000	98.451345
3831.000000	98.447369
3830.000000	98.445982
3829.000000	98.447523
3828.000000	98.450277
3827.000000	98.451813
3826.000000	98.451011
3825.000000	98.448302
3824.000000	98.444333
3823.000000	98.437948
3822.000000	98.428696
3821.000000	98.420869
3820.000000	98.419541
3819.000000	98.422942
3818.000000	98.425710
3817.000000	98.425105
3816.000000	98.421517
3815.000000	98.419072
3814.000000	98.421018
3813.000000	98.426300
3812.000000	98.431580
3811.000000	98.434072
3810.000000	98.433314
3809.000000	98.430507
3808.000000	98.427118
3807.000000	98.424196
3806.000000	98.422578
3805.000000	98.422097
3804.000000	98.421934
3803.000000	98.420708
3802.000000	98.417594
3801.000000	98.414842
3800.000000	98.415974
3799.000000	98.420316
3798.000000	98.425571
3797.000000	98.430146
3796.000000	98.433503
3795.000000	98.435511
3794.000000	98.436243
3793.000000	98.436264
3792.000000	98.436230
3791.000000	98.436171
3790.000000	98.435721
3789.000000	98.434981
3788.000000	98.434199
3787.000000	98.433277
3786.000000	98.431564
3785.000000	98.428778
3784.000000	98.425858
3783.000000	98.424365
3782.000000	98.424545
3781.000000	98.424978
3780.000000	98.424289
3779.000000	98.422955
3778.000000	98.422766
3777.000000	98.424621
3776.000000	98.428454
3775.000000	98.433580
3774.000000	98.438853
3773.000000	98.442689
3772.000000	98.443707
3771.000000	98.441926
3770.000000	98.439794
3769.000000	98.440652
3768.000000	98.444331
3767.000000	98.447848
3766.000000	98.449410
3765.000000	98.450103
3764.000000	98.452730
3763.000000	98.459139
3762.000000	98.468492
3761.000000	98.477786
3760.000000	98.483535
3759.000000	98.484377
3758.000000	98.481944
3757.000000	98.479119
3756.000000	98.477892
3755.000000	98.478380
3754.000000	98.480297
3753.000000	98.483976
3752.000000	98.489501
3751.000000	98.495932
3750.000000	98.500973
3749.000000	98.502201
3748.000000	98.499023
3747.000000	98.491940
3746.000000	98.481316
3745.000000	98.468862
3744.000000	98.463059
3743.000000	98.471125
3742.000000	98.489418
3741.000000	98.509627
3740.000000	98.524633
3739.000000	98.531118
3738.000000	98.528982
3737.000000	98.521255
3736.000000	98.513646
3735.000000	98.511740
3734.000000	98.517673
3733.000000	98.526328
3732.000000	98.530283
3731.000000	98.527072
3730.000000	98.518933
3729.000000	98.509743
3728.000000	98.502489
3727.000000	98.498795
3726.000000	98.498997
3725.000000	98.502068
3724.000000	98.505471
3723.000000	98.505673
3722.000000	98.500929
3721.000000	98.492328
3720.000000	98.483742
3719.000000	98.479923
3718.000000	98.482596
3717.000000	98.489095
3716.000000	98.495655
3715.000000	98.500111
3714.000000	98.500755
3713.000000	98.495689
3712.000000	98.486907
3711.000000	98.483184
3710.000000	98.490070
3709.000000	98.503330
3708.000000	98.515303
3707.000000	98.522285
3706.000000	98.526052
3705.000000	98.528689
3704.000000	98.529743
3703.000000	98.526715
3702.000000	98.518537
3701.000000	98.508314
3700.000000	98.500862
3699.000000	98.499151
3698.000000	98.503607
3697.000000	98.511985
3696.000000	98.520527
3695.000000	98.526127
3694.000000	98.527644
3693.000000	98.526176
3692.000000	98.523594
3691.000000	98.521286
3690.000000	98.518331
3689.000000	98.512317
3688.000000	98.502972
3687.000000	98.493609
3686.000000	98.487406
3685.000000	98.484163
3684.000000	98.481738
3683.000000	98.478447
3682.000000	98.474451
3681.000000	98.471459
3680.000000	98.471417
3679.000000	98.475680
3678.000000	98.485182
3677.000000	98.497927
3676.000000	98.506871
3675.000000	98.507503
3674.000000	98.503426
3673.000000	98.498276
3672.000000	98.492834
3671.000000	98.484242
3670.000000	98.469409
3669.000000	98.452443
3668.000000	98.439877
3667.000000	98.432477
3666.000000	98.427871
3665.000000	98.423742
3664.000000	98.419505
3663.000000	98.416622
3662.000000	98.417391
3661.000000	98.422914
3660.000000	98.431881
3659.000000	98.441483
3658.000000	98.449320
3657.000000	98.454004
3656.000000	98.455548
3655.000000	98.454703
3654.000000	98.452465
3653.000000	98.449959
3652.000000	98.448291
3651.000000	98.446806
3650.000000	98.440786
3649.000000	98.424363
3648.000000	98.399596
3647.000000	98.377348
3646.000000	98.364632
3645.000000	98.359507
3644.000000	98.357149
3643.000000	98.355204
3642.000000	98.353790
3641.000000	98.353550
3640.000000	98.353287
3639.000000	98.350044
3638.000000	98.342730
3637.000000	98.333595
3636.000000	98.326354
3635.000000	98.323281
3634.000000	98.324720
3633.000000	98.330124
3632.000000	98.338398
3631.000000	98.346648
3630.000000	98.349395
3629.000000	98.341633
3628.000000	98.326676
3627.000000	98.311724
3626.000000	98.298277
3625.000000	98.286974
3624.000000	98.280510
3623.000000	98.281481
3622.000000	98.288959
3621.000000	98.296616
3620.000000	98.294922
3619.000000	98.279631
3618.000000	98.256714
3617.000000	98.235523
3616.000000	98.221001
3615.000000	98.213038
3614.000000	98.209300
3613.000000	98.208125
3612.000000	98.209505
3611.000000	98.211774
3610.000000	98.209271
3609.000000	98.195506
3608.000000	98.170974
3607.000000	98.145154
3606.000000	98.126980
3605.000000	98.117521
3604.000000	98.112536
3603.000000	98.108065
3602.000000	98.102930
3601.000000	98.097723
3600.000000	98.093413
3599.000000	98.090871
3598.000000	98.089893
3597.000000	98.088757
3596.000000	98.085456
3595.000000	98.078773
3594.000000	98.070420
3593.000000	98.063873
3592.000000	98.060457
3591.000000	98.057493
3590.000000	98.050064
3589.000000	98.034403
3588.000000	98.011518
3587.000000	97.987735
3586.000000	97.969762
3585.000000	97.957444
3584.000000	97.946335
3583.000000	97.933675
3582.000000	97.919672
3581.000000	97.904791
3580.000000	97.889454
3579.000000	97.874958
3578.000000	97.863363
3577.000000	97.855615
3576.000000	97.850527
3575.000000	97.846384
3574.000000	97.842319
3573.000000	97.838871
3572.000000	97.835852
3571.000000	97.831662
3570.000000	97.824072
3569.000000	97.811820
3568.000000	97.794017
3567.000000	97.771237
3566.000000	97.747998
3565.000000	97.730357
3564.000000	97.718827
3563.000000	97.709240
3562.000000	97.698037
3561.000000	97.685243
3560.000000	97.673014
3559.000000	97.662723
3558.000000	97.653099
3557.000000	97.642020
3556.000000	97.628839
3555.000000	97.614653
3554.000000	97.600359
3553.000000	97.585973
3552.000000	97.571847
3551.000000	97.559361
3550.000000	97.549767
3549.000000	97.542841
3548.000000	97.536646
3547.000000	97.527890
3546.000000	97.513469
3545.000000	97.493169
3544.000000	97.470481
3543.000000	97.449469
3542.000000	97.432295
3541.000000	97.419186
3540.000000	97.408865
3539.000000	97.399025
3538.000000	97.387478
3537.000000	97.374144
3536.000000	97.361601
3535.000000	97.352568
3534.000000	97.347263
3533.000000	97.342973
3532.000000	97.336142
3531.000000	97.324343
3530.000000	97.307844
3529.000000	97.290470
3528.000000	97.277831
3527.000000	97.272751
3526.000000	97.271970
3525.000000	97.268132
3524.000000	97.255565
3523.000000	97.234926
3522.000000	97.212397
3521.000000	97.194430
3520.000000	97.183102
3519.000000	97.175617
3518.000000	97.167252
3517.000000	97.154927
3516.000000	97.139444
3515.000000	97.123869
3514.000000	97.110502
3513.000000	97.099105
3512.000000	97.088010
3511.000000	97.076369
3510.000000	97.065322
3509.000000	97.056867
3508.000000	97.051766
3507.000000	97.048882
3506.000000	97.046260
3505.000000	97.042684
3504.000000	97.037654
3503.000000	97.030364
3502.000000	97.019513
3501.000000	97.004283
3500.000000	96.985542
3499.000000	96.966349
3498.000000	96.951133
3497.000000	96.942797
3496.000000	96.939816
3495.000000	96.936750
3494.000000	96.928664
3493.000000	96.915072
3492.000000	96.899079
3491.000000	96.883540
3490.000000	96.869109
3489.000000	96.855554
3488.000000	96.843580
3487.000000	96.834478
3486.000000	96.828476
3485.000000	96.824151
3484.000000	96.819551
3483.000000	96.813441
3482.000000	96.805972
3481.000000	96.798100
3480.000000	96.789930
3479.000000	96.779851
3478.000000	96.766089
3477.000000	96.749234
3476.000000	96.732227
3475.000000	96.717634
3474.000000	96.705802
3473.000000	96.696264
3472.000000	96.689486
3471.000000	96.685647
3470.000000	96.682525
3469.000000	96.676519
3468.000000	96.666137
3467.000000	96.653756
3466.000000	96.643362
3465.000000	96.636961
3464.000000	96.632971
3463.000000	96.627244
3462.000000	96.616143
3461.000000	96.599635
3460.000000	96.581728
3459.000000	96.567073
3458.000000	96.556856
3457.000000	96.548645
3456.000000	96.539661
3455.000000	96.529203
3454.000000	96.518388
3453.000000	96.508475
3452.000000	96.500077
3451.000000	96.492720
3450.000000	96.484958
3449.000000	96.475783
3448.000000	96.466178
3447.000000	96.458340
3446.000000	96.452796
3445.000000	96.447081
3444.000000	96.437949
3443.000000	96.424176
3442.000000	96.407000
3441.000000	96.389110
3440.000000	96.373672
3439.000000	96.363263
3438.000000	96.358328
3437.000000	96.356409
3436.000000	96.353732
3435.000000	96.347853
3434.000000	96.338969
3433.000000	96.328556
3432.000000	96.317724
3431.000000	96.306900
3430.000000	96.296628
3429.000000	96.287664
3428.000000	96.279823
3427.000000	96.271638
3426.000000	96.261896
3425.000000	96.251250
3424.000000	96.241379
3423.000000	96.232746
3422.000000	96.224343
3421.000000	96.215630
3420.000000	96.207420
3419.000000	96.200294
3418.000000	96.193511
3417.000000	96.186315
3416.000000	96.179296
3415.000000	96.173452
3414.000000	96.168522
3413.000000	96.163142
3412.000000	96.156085
3411.000000	96.146733
3410.000000	96.135012
3409.000000	96.121830
3408.000000	96.109272
3407.000000	96.099576
3406.000000	96.093647
3405.000000	96.090501
3404.000000	96.087589
3403.000000	96.081693
3402.000000	96.071004
3401.000000	96.056987
3400.000000	96.043602
3399.000000	96.033622
3398.000000	96.025941
3397.000000	96.017153
3396.000000	96.005476
3395.000000	95.992637
3394.000000	95.982193
3393.000000	95.976412
3392.000000	95.974200
3391.000000	95.971667
3390.000000	95.965134
3389.000000	95.954157
3388.000000	95.941677
3387.000000	95.931133
3386.000000	95.923548
3385.000000	95.917139
3384.000000	95.909124
3383.000000	95.897766
3382.000000	95.883809
3381.000000	95.870331
3380.000000	95.860432
3379.000000	95.854057
3378.000000	95.847607
3377.000000	95.837070
3376.000000	95.821024
3375.000000	95.800566
3374.000000	95.777724
3373.000000	95.755140
3372.000000	95.736030
3371.000000	95.722395
3370.000000	95.712851
3369.000000	95.703435
3368.000000	95.690857
3367.000000	95.674562
3366.000000	95.655880
3365.000000	95.636288
3364.000000	95.616605
3363.000000	95.596940
3362.000000	95.576863
3361.000000	95.555755
3360.000000	95.532925
3359.000000	95.507278
3358.000000	95.477778
3357.000000	95.445143
3356.000000	95.412598
3355.000000	95.383877
3354.000000	95.360285
3353.000000	95.340192
3352.000000	95.320830
3351.000000	95.299796
3350.000000	95.275573
3349.000000	95.248258
3348.000000	95.219734
3347.000000	95.192020
3346.000000	95.165305
3345.000000	95.138469
3344.000000	95.111691
3343.000000	95.087170
3342.000000	95.066652
3341.000000	95.048931
3340.000000	95.030436
3339.000000	95.008108
3338.000000	94.981756
3337.000000	94.954034
3336.000000	94.928029
3335.000000	94.904391
3334.000000	94.881043
3333.000000	94.856158
3332.000000	94.830864
3331.000000	94.807984
3330.000000	94.788350
3329.000000	94.769507
3328.000000	94.748336
3327.000000	94.724237
3326.000000	94.699573
3325.000000	94.677452
3324.000000	94.659259
3323.000000	94.643749
3322.000000	94.628439
3321.000000	94.612202
3320.000000	94.596220
3319.000000	94.582004
3318.000000	94.569137
3317.000000	94.555980
3316.000000	94.542392
3315.000000	94.530224
3314.000000	94.520751
3313.000000	94.512950
3312.000000	94.504945
3311.000000	94.496158
3310.000000	94.487304
3309.000000	94.478824
3308.000000	94.470289
3307.000000	94.461181
3306.000000	94.451446
3305.000000	94.441171
3304.000000	94.430113
3303.000000	94.417946
3302.000000	94.405358
3301.000000	94.394852
3300.000000	94.389633
3299.000000	94.390561
3298.000000	94.394357
3297.000000	94.395607
3296.000000	94.391165
3295.000000	94.382298
3294.000000	94.372473
3293.000000	94.363974
3292.000000	94.357121
3291.000000	94.351938
3290.000000	94.349397
3289.000000	94.350485
3288.000000	94.354408
3287.000000	94.358401
3286.000000	94.359773
3285.000000	94.358186
3284.000000	94.355826
3283.000000	94.355419
3282.000000	94.358074
3281.000000	94.362732
3280.000000	94.367147
3279.000000	94.369521
3278.000000	94.370104
3277.000000	94.371398
3276.000000	94.376057
3275.000000	94.384082
3274.000000	94.392818
3273.000000	94.400078
3272.000000	94.406336
3271.000000	94.413120
3270.000000	94.420167
3269.000000	94.425512
3268.000000	94.427895
3267.000000	94.427868
3266.000000	94.426965
3265.000000	94.427129
3264.000000	94.430930
3263.000000	94.440659
3262.000000	94.456176
3261.000000	94.474504
3260.000000	94.492217
3259.000000	94.507817
3258.000000	94.521452
3257.000000	94.533432
3256.000000	94.543966
3255.000000	94.553665
3254.000000	94.563007
3253.000000	94.571440
3252.000000	94.578488
3251.000000	94.585931
3250.000000	94.597460
3249.000000	94.614687
3248.000000	94.633925
3247.000000	94.648396
3246.000000	94.654134
3245.000000	94.653106
3244.000000	94.650186
3243.000000	94.648378
3242.000000	94.648196
3241.000000	94.650463
3240.000000	94.657259
3239.000000	94.669515
3238.000000	94.685323
3237.000000	94.701773
3236.000000	94.717503
3235.000000	94.732524
3234.000000	94.746303
3233.000000	94.757351
3232.000000	94.764682
3231.000000	94.768671
3230.000000	94.770430
3229.000000	94.771079
3228.000000	94.771624
3227.000000	94.772789
3226.000000	94.774729
3225.000000	94.777203
3224.000000	94.780239
3223.000000	94.784364
3222.000000	94.790273
3221.000000	94.798550
3220.000000	94.809278
3219.000000	94.821177
3218.000000	94.831132
3217.000000	94.835791
3216.000000	94.834556
3215.000000	94.831052
3214.000000	94.830867
3213.000000	94.837199
3212.000000	94.848632
3211.000000	94.861064
3210.000000	94.871555
3209.000000	94.879989
3208.000000	94.887339
3207.000000	94.893559
3206.000000	94.898124
3205.000000	94.902121
3204.000000	94.908214
3203.000000	94.918025
3202.000000	94.930324
3201.000000	94.942323
3200.000000	94.951917
3199.000000	94.958592
3198.000000	94.963263
3197.000000	94.968197
3196.000000	94.976035
3195.000000	94.987494
3194.000000	95.000369
3193.000000	95.011700
3192.000000	95.020796
3191.000000	95.029403
3190.000000	95.039284
3189.000000	95.050670
3188.000000	95.062819
3187.000000	95.075040
3186.000000	95.086821
3185.000000	95.097954
3184.000000	95.108922
3183.000000	95.120793
3182.000000	95.134397
3181.000000	95.149602
3180.000000	95.165244
3179.000000	95.179469
3178.000000	95.190601
3177.000000	95.198301
3176.000000	95.203734
3175.000000	95.208561
3174.000000	95.214232
3173.000000	95.222447
3172.000000	95.235085
3171.000000	95.252492
3170.000000	95.272326
3169.000000	95.291034
3168.000000	95.306445
3167.000000	95.318492
3166.000000	95.328254
3165.000000	95.337526
3164.000000	95.348527
3163.000000	95.362380
3162.000000	95.377613
3161.000000	95.391364
3160.000000	95.402303
3159.000000	95.411622
3158.000000	95.421397
3157.000000	95.433056
3156.000000	95.447212
3155.000000	95.463523
3154.000000	95.480352
3153.000000	95.495533
3152.000000	95.507827
3151.000000	95.517020
3150.000000	95.523109
3149.000000	95.526668
3148.000000	95.529923
3147.000000	95.535894
3146.000000	95.545859
