PE IR       SUBTECH     SPECTRUM    ASCII       PEDS        4.00        
   -1
POD9-1C-C001_1.ASC
23/09/08
14:36:32.00
23/09/08
14:52:56.00
uco
Sample 001 By uco Date Friday, September 08 2023
450.000000
#HDR
-1
-1
#GR
cm-1
%T
1.0
0.0
4000.000000
-1.000000
3551
8
98.641305
88.681514
#DATA
4000.000000	98.590659
3999.000000	98.585113
3998.000000	98.583291
3997.000000	98.584091
3996.000000	98.587758
3995.000000	98.593169
3994.000000	98.597793
3993.000000	98.599008
3992.000000	98.595628
3991.000000	98.588455
3990.000000	98.579801
3989.000000	98.572338
3988.000000	98.567788
3987.000000	98.565948
3986.000000	98.564944
3985.000000	98.562989
3984.000000	98.560066
3983.000000	98.557819
3982.000000	98.557405
3981.000000	98.557717
3980.000000	98.556324
3979.000000	98.552305
3978.000000	98.547615
3977.000000	98.545353
3976.000000	98.546895
3975.000000	98.550787
3974.000000	98.554499
3973.000000	98.556623
3972.000000	98.557337
3971.000000	98.557350
3970.000000	98.556856
3969.000000	98.555640
3968.000000	98.553489
3967.000000	98.550511
3966.000000	98.547272
3965.000000	98.544770
3964.000000	98.543924
3963.000000	98.544785
3962.000000	98.546367
3961.000000	98.547434
3960.000000	98.547750
3959.000000	98.547916
3958.000000	98.547974
3957.000000	98.547078
3956.000000	98.544542
3955.000000	98.541097
3954.000000	98.538356
3953.000000	98.537060
3952.000000	98.536589
3951.000000	98.536180
3950.000000	98.536581
3949.000000	98.539647
3948.000000	98.545952
3947.000000	98.553172
3946.000000	98.557087
3945.000000	98.554564
3944.000000	98.545953
3943.000000	98.535078
3942.000000	98.527015
3941.000000	98.524374
3940.000000	98.525911
3939.000000	98.528694
3938.000000	98.530415
3937.000000	98.530563
3936.000000	98.530091
3935.000000	98.530667
3934.000000	98.533684
3933.000000	98.538719
3932.000000	98.543519
3931.000000	98.545472
3930.000000	98.543968
3929.000000	98.540358
3928.000000	98.535645
3927.000000	98.530517
3926.000000	98.526188
3925.000000	98.524226
3924.000000	98.524858
3923.000000	98.526278
3922.000000	98.526783
3921.000000	98.527060
3920.000000	98.529047
3919.000000	98.533226
3918.000000	98.537633
3917.000000	98.540149
3916.000000	98.540804
3915.000000	98.540547
3914.000000	98.539289
3913.000000	98.536170
3912.000000	98.531252
3911.000000	98.526108
3910.000000	98.522421
3909.000000	98.520771
3908.000000	98.520333
3907.000000	98.520896
3906.000000	98.524400
3905.000000	98.533501
3904.000000	98.546926
3903.000000	98.557148
3902.000000	98.556295
3901.000000	98.544677
3900.000000	98.530289
3899.000000	98.521276
3898.000000	98.519294
3897.000000	98.520307
3896.000000	98.520878
3895.000000	98.520800
3894.000000	98.520899
3893.000000	98.521998
3892.000000	98.525522
3891.000000	98.533816
3890.000000	98.546262
3889.000000	98.557595
3888.000000	98.562442
3887.000000	98.559618
3886.000000	98.552400
3885.000000	98.545815
3884.000000	98.540659
3883.000000	98.533072
3882.000000	98.520519
3881.000000	98.506675
3880.000000	98.499876
3879.000000	98.504228
3878.000000	98.513937
3877.000000	98.520801
3876.000000	98.521899
3875.000000	98.520672
3874.000000	98.523158
3873.000000	98.530721
3872.000000	98.537929
3871.000000	98.538929
3870.000000	98.534755
3869.000000	98.531843
3868.000000	98.531902
3867.000000	98.531267
3866.000000	98.528850
3865.000000	98.527318
3864.000000	98.528514
3863.000000	98.531165
3862.000000	98.532744
3861.000000	98.532260
3860.000000	98.529554
3859.000000	98.525973
3858.000000	98.523124
3857.000000	98.521757
3856.000000	98.520469
3855.000000	98.517083
3854.000000	98.513777
3853.000000	98.515457
3852.000000	98.520655
3851.000000	98.523889
3850.000000	98.524075
3849.000000	98.523479
3848.000000	98.523405
3847.000000	98.523020
3846.000000	98.521321
3845.000000	98.518836
3844.000000	98.517678
3843.000000	98.520128
3842.000000	98.526321
3841.000000	98.533830
3840.000000	98.539638
3839.000000	98.542791
3838.000000	98.544026
3837.000000	98.544954
3836.000000	98.546618
3835.000000	98.548407
3834.000000	98.548678
3833.000000	98.545864
3832.000000	98.539322
3831.000000	98.530031
3830.000000	98.518801
3829.000000	98.505820
3828.000000	98.492625
3827.000000	98.484239
3826.000000	98.486100
3825.000000	98.497941
3824.000000	98.513135
3823.000000	98.523757
3822.000000	98.526223
3821.000000	98.524328
3820.000000	98.524727
3819.000000	98.527614
3818.000000	98.528006
3817.000000	98.524347
3816.000000	98.518253
3815.000000	98.511480
3814.000000	98.503283
3813.000000	98.493827
3812.000000	98.487640
3811.000000	98.488847
3810.000000	98.496304
3809.000000	98.504681
3808.000000	98.510595
3807.000000	98.515877
3806.000000	98.523333
3805.000000	98.530473
3804.000000	98.532706
3803.000000	98.529124
3802.000000	98.522907
3801.000000	98.518385
3800.000000	98.516080
3799.000000	98.510522
3798.000000	98.499362
3797.000000	98.486949
3796.000000	98.479464
3795.000000	98.478037
3794.000000	98.478490
3793.000000	98.477259
3792.000000	98.474832
3791.000000	98.473392
3790.000000	98.474263
3789.000000	98.477221
3788.000000	98.480378
3787.000000	98.481006
3786.000000	98.477622
3785.000000	98.472171
3784.000000	98.469140
3783.000000	98.471305
3782.000000	98.477209
3781.000000	98.483897
3780.000000	98.490049
3779.000000	98.495974
3778.000000	98.500985
3777.000000	98.502243
3776.000000	98.498005
3775.000000	98.490631
3774.000000	98.484804
3773.000000	98.483404
3772.000000	98.486385
3771.000000	98.492734
3770.000000	98.501529
3769.000000	98.511427
3768.000000	98.519209
3767.000000	98.521528
3766.000000	98.517642
3765.000000	98.510230
3764.000000	98.503242
3763.000000	98.499037
3762.000000	98.498321
3761.000000	98.501676
3760.000000	98.507927
3759.000000	98.513518
3758.000000	98.515944
3757.000000	98.516503
3756.000000	98.517879
3755.000000	98.521975
3754.000000	98.531463
3753.000000	98.549684
3752.000000	98.574701
3751.000000	98.595550
3750.000000	98.604052
3749.000000	98.605558
3748.000000	98.606553
3747.000000	98.605250
3746.000000	98.596818
3745.000000	98.581251
3744.000000	98.567718
3743.000000	98.561056
3742.000000	98.555946
3741.000000	98.551749
3740.000000	98.553216
3739.000000	98.562528
3738.000000	98.575133
3737.000000	98.583167
3736.000000	98.580865
3735.000000	98.569046
3734.000000	98.555817
3733.000000	98.547012
3732.000000	98.542227
3731.000000	98.539164
3730.000000	98.536331
3729.000000	98.533910
3728.000000	98.533127
3727.000000	98.534543
3726.000000	98.536829
3725.000000	98.537750
3724.000000	98.536951
3723.000000	98.535737
3722.000000	98.534900
3721.000000	98.533106
3720.000000	98.528762
3719.000000	98.523427
3718.000000	98.521072
3717.000000	98.524408
3716.000000	98.532158
3715.000000	98.540795
3714.000000	98.548315
3713.000000	98.554001
3712.000000	98.555482
3711.000000	98.550341
3710.000000	98.541367
3709.000000	98.534706
3708.000000	98.532581
3707.000000	98.533228
3706.000000	98.534674
3705.000000	98.535784
3704.000000	98.536554
3703.000000	98.538188
3702.000000	98.541544
3701.000000	98.546075
3700.000000	98.549110
3699.000000	98.547885
3698.000000	98.542496
3697.000000	98.536249
3696.000000	98.532801
3695.000000	98.533258
3694.000000	98.536811
3693.000000	98.542820
3692.000000	98.550967
3691.000000	98.558903
3690.000000	98.561384
3689.000000	98.554967
3688.000000	98.543702
3687.000000	98.533251
3686.000000	98.524378
3685.000000	98.517525
3684.000000	98.515270
3683.000000	98.518855
3682.000000	98.525164
3681.000000	98.530465
3680.000000	98.535418
3679.000000	98.543374
3678.000000	98.554758
3677.000000	98.564324
3676.000000	98.564976
3675.000000	98.558358
3674.000000	98.554312
3673.000000	98.553688
3672.000000	98.553053
3671.000000	98.551347
3670.000000	98.547760
3669.000000	98.543114
3668.000000	98.539090
3667.000000	98.534831
3666.000000	98.529567
3665.000000	98.523468
3664.000000	98.517008
3663.000000	98.510679
3662.000000	98.505031
3661.000000	98.500512
3660.000000	98.497165
3659.000000	98.494754
3658.000000	98.493740
3657.000000	98.495402
3656.000000	98.500555
3655.000000	98.506188
3654.000000	98.506604
3653.000000	98.498483
3652.000000	98.484737
3651.000000	98.474063
3650.000000	98.472670
3649.000000	98.473050
3648.000000	98.465065
3647.000000	98.454350
3646.000000	98.450013
3645.000000	98.451485
3644.000000	98.452404
3643.000000	98.448110
3642.000000	98.438832
3641.000000	98.429122
3640.000000	98.423328
3639.000000	98.422150
3638.000000	98.423696
3637.000000	98.425750
3636.000000	98.427580
3635.000000	98.430284
3634.000000	98.435750
3633.000000	98.444208
3632.000000	98.453039
3631.000000	98.457524
3630.000000	98.452849
3629.000000	98.438040
3628.000000	98.420594
3627.000000	98.408125
3626.000000	98.399639
3625.000000	98.394066
3624.000000	98.392374
3623.000000	98.394650
3622.000000	98.399317
3621.000000	98.404190
3620.000000	98.407157
3619.000000	98.407224
3618.000000	98.405073
3617.000000	98.401428
3616.000000	98.395819
3615.000000	98.387490
3614.000000	98.376677
3613.000000	98.365777
3612.000000	98.358477
3611.000000	98.355252
3610.000000	98.352111
3609.000000	98.343451
3608.000000	98.327477
3607.000000	98.308694
3606.000000	98.292307
3605.000000	98.279512
3604.000000	98.269071
3603.000000	98.260804
3602.000000	98.255553
3601.000000	98.252942
3600.000000	98.250901
3599.000000	98.247590
3598.000000	98.242914
3597.000000	98.237489
3596.000000	98.232035
3595.000000	98.227191
3594.000000	98.224419
3593.000000	98.224278
3592.000000	98.225552
3591.000000	98.225557
3590.000000	98.221795
3589.000000	98.212987
3588.000000	98.200185
3587.000000	98.186277
3586.000000	98.173989
3585.000000	98.162511
3584.000000	98.149456
3583.000000	98.134974
3582.000000	98.121700
3581.000000	98.112275
3580.000000	98.108094
3579.000000	98.108245
3578.000000	98.109205
3577.000000	98.105831
3576.000000	98.094865
3575.000000	98.078108
3574.000000	98.061702
3573.000000	98.051613
3572.000000	98.049130
3571.000000	98.050856
3570.000000	98.051851
3569.000000	98.049109
3568.000000	98.041856
3567.000000	98.029837
3566.000000	98.014092
3565.000000	97.998231
3564.000000	97.985128
3563.000000	97.975460
3562.000000	97.967983
3561.000000	97.960135
3560.000000	97.950047
3559.000000	97.938719
3558.000000	97.928408
3557.000000	97.919518
3556.000000	97.909723
3555.000000	97.896395
3554.000000	97.879411
3553.000000	97.862206
3552.000000	97.849687
3551.000000	97.844452
3550.000000	97.844894
3549.000000	97.847172
3548.000000	97.848210
3547.000000	97.846379
3546.000000	97.840605
3545.000000	97.830296
3544.000000	97.816279
3543.000000	97.800540
3542.000000	97.785112
3541.000000	97.771223
3540.000000	97.759011
3539.000000	97.747832
3538.000000	97.736610
3537.000000	97.724601
3536.000000	97.712431
3535.000000	97.701976
3534.000000	97.694721
3533.000000	97.689942
3532.000000	97.685475
3531.000000	97.679857
3530.000000	97.673615
3529.000000	97.668213
3528.000000	97.664079
3527.000000	97.660239
3526.000000	97.655763
3525.000000	97.650426
3524.000000	97.643899
3523.000000	97.635243
3522.000000	97.623782
3521.000000	97.610108
3520.000000	97.596074
3519.000000	97.583987
3518.000000	97.575338
3517.000000	97.569444
3516.000000	97.564050
3515.000000	97.557423
3514.000000	97.549924
3513.000000	97.542538
3512.000000	97.534536
3511.000000	97.523705
3510.000000	97.509827
3509.000000	97.496719
3508.000000	97.489170
3507.000000	97.488234
3506.000000	97.490941
3505.000000	97.493916
3504.000000	97.495231
3503.000000	97.493236
3502.000000	97.485786
3501.000000	97.471827
3500.000000	97.453215
3499.000000	97.434249
3498.000000	97.419410
3497.000000	97.410843
3496.000000	97.407486
3495.000000	97.406331
3494.000000	97.404631
3493.000000	97.401239
3492.000000	97.396331
3491.000000	97.390489
3490.000000	97.384318
3489.000000	97.378558
3488.000000	97.374046
3487.000000	97.371061
3486.000000	97.368714
3485.000000	97.365282
3484.000000	97.359527
3483.000000	97.351741
3482.000000	97.343711
3481.000000	97.337373
3480.000000	97.333140
3479.000000	97.329595
3478.000000	97.324817
3477.000000	97.317799
3476.000000	97.308450
3475.000000	97.296981
3474.000000	97.284121
3473.000000	97.271793
3472.000000	97.262488
3471.000000	97.257214
3470.000000	97.254378
3469.000000	97.251170
3468.000000	97.245762
3467.000000	97.237987
3466.000000	97.228472
3465.000000	97.218271
3464.000000	97.209446
3463.000000	97.204606
3462.000000	97.204745
3461.000000	97.207527
3460.000000	97.208597
3459.000000	97.205020
3458.000000	97.197442
3457.000000	97.189032
3456.000000	97.182294
3455.000000	97.176559
3454.000000	97.169108
3453.000000	97.158692
3452.000000	97.147563
3451.000000	97.139066
3450.000000	97.133705
3449.000000	97.128542
3448.000000	97.120518
3447.000000	97.109841
3446.000000	97.099835
3445.000000	97.093491
3444.000000	97.090900
3443.000000	97.089766
3442.000000	97.087502
3441.000000	97.082944
3440.000000	97.076420
3439.000000	97.068740
3438.000000	97.060742
3437.000000	97.053563
3436.000000	97.048028
3435.000000	97.042910
3434.000000	97.035168
3433.000000	97.023145
3432.000000	97.009343
3431.000000	96.998306
3430.000000	96.992065
3429.000000	96.988861
3428.000000	96.986082
3427.000000	96.982840
3426.000000	96.979175
3425.000000	96.974483
3424.000000	96.967786
3423.000000	96.958929
3422.000000	96.948636
3421.000000	96.937673
3420.000000	96.926504
3419.000000	96.915526
3418.000000	96.905288
3417.000000	96.896636
3416.000000	96.890979
3415.000000	96.889960
3414.000000	96.894055
3413.000000	96.901024
3412.000000	96.905906
3411.000000	96.903420
3410.000000	96.891598
3409.000000	96.873756
3408.000000	96.856518
3407.000000	96.845194
3406.000000	96.840663
3405.000000	96.840222
3404.000000	96.840582
3403.000000	96.839593
3402.000000	96.836029
3401.000000	96.829040
3400.000000	96.818623
3399.000000	96.806215
3398.000000	96.794345
3397.000000	96.785339
3396.000000	96.779995
3395.000000	96.777184
3394.000000	96.774712
3393.000000	96.770886
3392.000000	96.765533
3391.000000	96.759588
3390.000000	96.753782
3389.000000	96.748040
3388.000000	96.742082
3387.000000	96.736050
3386.000000	96.730210
3385.000000	96.724104
3384.000000	96.716434
3383.000000	96.706035
3382.000000	96.693065
3381.000000	96.679094
3380.000000	96.666162
3379.000000	96.655626
3378.000000	96.647618
3377.000000	96.640924
3376.000000	96.633083
3375.000000	96.621313
3374.000000	96.604506
3373.000000	96.584918
3372.000000	96.567221
3371.000000	96.554921
3370.000000	96.547197
3369.000000	96.539434
3368.000000	96.526956
3367.000000	96.508492
3366.000000	96.486419
3365.000000	96.464271
3364.000000	96.443927
3363.000000	96.424695
3362.000000	96.404599
3361.000000	96.382460
3360.000000	96.358740
3359.000000	96.334415
3358.000000	96.309585
3357.000000	96.283829
3356.000000	96.257797
3355.000000	96.233582
3354.000000	96.212896
3353.000000	96.195027
3352.000000	96.176951
3351.000000	96.155535
3350.000000	96.129697
3349.000000	96.100745
3348.000000	96.070924
3347.000000	96.041738
3346.000000	96.013534
3345.000000	95.986324
3344.000000	95.960656
3343.000000	95.937366
3342.000000	95.916682
3341.000000	95.897825
3340.000000	95.879424
3339.000000	95.860155
3338.000000	95.839063
3337.000000	95.815674
3336.000000	95.789998
3335.000000	95.762335
3334.000000	95.732891
3333.000000	95.701610
3332.000000	95.668721
3331.000000	95.635794
3330.000000	95.606130
3329.000000	95.583401
3328.000000	95.569018
3327.000000	95.560623
3326.000000	95.553542
3325.000000	95.543828
3324.000000	95.530010
3323.000000	95.512644
3322.000000	95.493236
3321.000000	95.473530
3320.000000	95.454682
3319.000000	95.436691
3318.000000	95.419225
3317.000000	95.402973
3316.000000	95.389240
3315.000000	95.377891
3314.000000	95.366915
3313.000000	95.354886
3312.000000	95.342818
3311.000000	95.332728
3310.000000	95.325194
3309.000000	95.319240
3308.000000	95.313890
3307.000000	95.308377
3306.000000	95.301306
3305.000000	95.291281
3304.000000	95.278485
3303.000000	95.264615
3302.000000	95.251250
3301.000000	95.239417
3300.000000	95.230666
3299.000000	95.226566
3298.000000	95.226176
3297.000000	95.225328
3296.000000	95.220289
3295.000000	95.212110
3294.000000	95.206024
3293.000000	95.206123
3292.000000	95.211209
3291.000000	95.216125
3290.000000	95.216693
3289.000000	95.212862
3288.000000	95.207452
3287.000000	95.202912
3286.000000	95.199672
3285.000000	95.196840
3284.000000	95.193520
3283.000000	95.189620
3282.000000	95.186143
3281.000000	95.184891
3280.000000	95.187278
3279.000000	95.193123
3278.000000	95.201125
3277.000000	95.210559
3276.000000	95.221803
3275.000000	95.234595
3274.000000	95.246417
3273.000000	95.253632
3272.000000	95.254517
3271.000000	95.251025
3270.000000	95.247578
3269.000000	95.248105
3268.000000	95.253558
3267.000000	95.261606
3266.000000	95.268783
3265.000000	95.273172
3264.000000	95.275089
3263.000000	95.275811
3262.000000	95.276634
3261.000000	95.279259
3260.000000	95.285579
3259.000000	95.295929
3258.000000	95.308101
3257.000000	95.319138
3256.000000	95.327815
3255.000000	95.334746
3254.000000	95.340759
3253.000000	95.346381
3252.000000	95.352595
3251.000000	95.360388
3250.000000	95.369119
3249.000000	95.376377
3248.000000	95.380210
3247.000000	95.381101
3246.000000	95.381602
3245.000000	95.384435
3244.000000	95.390937
3243.000000	95.400432
3242.000000	95.410436
3241.000000	95.418003
3240.000000	95.421756
3239.000000	95.422954
3238.000000	95.424235
3237.000000	95.427217
3236.000000	95.431230
3235.000000	95.434364
3234.000000	95.435684
3233.000000	95.436277
3232.000000	95.438098
3231.000000	95.441793
3230.000000	95.446154
3229.000000	95.449853
3228.000000	95.453013
3227.000000	95.456618
3226.000000	95.460822
3225.000000	95.464873
3224.000000	95.468730
3223.000000	95.473935
3222.000000	95.482223
3221.000000	95.493286
3220.000000	95.503932
3219.000000	95.509852
3218.000000	95.509061
3217.000000	95.504026
3216.000000	95.499995
3215.000000	95.500421
3214.000000	95.504027
3213.000000	95.507209
3212.000000	95.508706
3211.000000	95.510750
3210.000000	95.515562
3209.000000	95.522416
3208.000000	95.528804
3207.000000	95.533526
3206.000000	95.537641
3205.000000	95.542889
3204.000000	95.549820
3203.000000	95.557117
3202.000000	95.562452
3201.000000	95.564644
3200.000000	95.565432
3199.000000	95.568744
3198.000000	95.577402
3197.000000	95.590701
3196.000000	95.605178
3195.000000	95.617416
3194.000000	95.625906
3193.000000	95.631171
3192.000000	95.634950
3191.000000	95.638922
3190.000000	95.643704
3189.000000	95.648992
3188.000000	95.654570
3187.000000	95.660558
3186.000000	95.666718
3185.000000	95.672850
3184.000000	95.680441
3183.000000	95.692538
3182.000000	95.710499
3181.000000	95.731242
3180.000000	95.749154
3179.000000	95.760686
3178.000000	95.766589
3177.000000	95.769948
3176.000000	95.773385
3175.000000	95.778459
3174.000000	95.786186
3173.000000	95.796700
3172.000000	95.808520
3171.000000	95.819244
3170.000000	95.827558
3169.000000	95.834408
3168.000000	95.842026
3167.000000	95.851700
3166.000000	95.862635
3165.000000	95.873027
3164.000000	95.882194
3163.000000	95.891320
3162.000000	95.901995
3161.000000	95.914183
3160.000000	95.925990
3159.000000	95.935497
3158.000000	95.942862
3157.000000	95.950363
3156.000000	95.960129
3155.000000	95.971765
3154.000000	95.982707
3153.000000	95.991073
3152.000000	95.997760
3151.000000	96.005228
3150.000000	96.014871
3149.000000	96.026137
3148.000000	96.037700
3147.000000	96.048269
3146.000000	96.056433
