PE IR       SUBTECH     SPECTRUM    ASCII       PEDS        4.00        
   -1
POD9-2C-C001_1.ASC
23/09/08
12:16:21.00
23/09/08
12:25:17.00
uco
Sample 001 By uco Date Friday, September 08 2023
450.000000
#HDR
-1
-1
#GR
cm-1
%T
1.0
0.0
4000.000000
-1.000000
3551
8
99.116264
87.826808
#DATA
4000.000000	98.964135
3999.000000	98.963403
3998.000000	98.958632
3997.000000	98.951276
3996.000000	98.944686
3995.000000	98.941918
3994.000000	98.944135
3993.000000	98.949903
3992.000000	98.956022
3991.000000	98.959540
3990.000000	98.959552
3989.000000	98.957274
3988.000000	98.954600
3987.000000	98.952672
3986.000000	98.951763
3985.000000	98.951976
3984.000000	98.953377
3983.000000	98.955243
3982.000000	98.955731
3981.000000	98.952990
3980.000000	98.946732
3979.000000	98.938647
3978.000000	98.931367
3977.000000	98.927146
3976.000000	98.927145
3975.000000	98.931081
3974.000000	98.936998
3973.000000	98.941780
3972.000000	98.942927
3971.000000	98.940597
3970.000000	98.937585
3969.000000	98.936753
3968.000000	98.938375
3967.000000	98.940205
3966.000000	98.940230
3965.000000	98.938776
3964.000000	98.937830
3963.000000	98.938634
3962.000000	98.940436
3961.000000	98.941720
3960.000000	98.942011
3959.000000	98.942226
3958.000000	98.943432
3957.000000	98.945541
3956.000000	98.947542
3955.000000	98.948501
3954.000000	98.948088
3953.000000	98.946414
3952.000000	98.943823
3951.000000	98.941207
3950.000000	98.939757
3949.000000	98.940025
3948.000000	98.941251
3947.000000	98.941944
3946.000000	98.941543
3945.000000	98.940555
3944.000000	98.939036
3943.000000	98.935798
3942.000000	98.929663
3941.000000	98.922065
3940.000000	98.916896
3939.000000	98.917216
3938.000000	98.922558
3937.000000	98.929214
3936.000000	98.933649
3935.000000	98.935010
3934.000000	98.934686
3933.000000	98.934751
3932.000000	98.936493
3931.000000	98.940192
3930.000000	98.944936
3929.000000	98.949238
3928.000000	98.952395
3927.000000	98.953912
3926.000000	98.952916
3925.000000	98.948552
3924.000000	98.941078
3923.000000	98.932429
3922.000000	98.925218
3921.000000	98.920956
3920.000000	98.919540
3919.000000	98.920345
3918.000000	98.923796
3917.000000	98.930478
3916.000000	98.938531
3915.000000	98.944234
3914.000000	98.945208
3913.000000	98.942354
3912.000000	98.938358
3911.000000	98.935631
3910.000000	98.935136
3909.000000	98.936119
3908.000000	98.936633
3907.000000	98.934266
3906.000000	98.927262
3905.000000	98.916251
3904.000000	98.905142
3903.000000	98.898977
3902.000000	98.900033
3901.000000	98.906634
3900.000000	98.915884
3899.000000	98.924846
3898.000000	98.930646
3897.000000	98.931636
3896.000000	98.927904
3895.000000	98.921305
3894.000000	98.914878
3893.000000	98.911148
3892.000000	98.910139
3891.000000	98.909514
3890.000000	98.907241
3889.000000	98.904396
3888.000000	98.904456
3887.000000	98.910005
3886.000000	98.918875
3885.000000	98.924832
3884.000000	98.924609
3883.000000	98.921470
3882.000000	98.921209
3881.000000	98.925891
3880.000000	98.931730
3879.000000	98.934063
3878.000000	98.933397
3877.000000	98.934372
3876.000000	98.940765
3875.000000	98.951102
3874.000000	98.958850
3873.000000	98.958782
3872.000000	98.951580
3871.000000	98.941690
3870.000000	98.932495
3869.000000	98.924418
3868.000000	98.917314
3867.000000	98.912842
3866.000000	98.913810
3865.000000	98.920595
3864.000000	98.928589
3863.000000	98.932132
3862.000000	98.930052
3861.000000	98.925363
3860.000000	98.921655
3859.000000	98.919780
3858.000000	98.917881
3857.000000	98.914092
3856.000000	98.909228
3855.000000	98.906922
3854.000000	98.907225
3853.000000	98.909604
3852.000000	98.916547
3851.000000	98.925120
3850.000000	98.930255
3849.000000	98.930884
3848.000000	98.928245
3847.000000	98.924386
3846.000000	98.921003
3845.000000	98.918319
3844.000000	98.915010
3843.000000	98.910465
3842.000000	98.905990
3841.000000	98.903774
3840.000000	98.905469
3839.000000	98.911148
3838.000000	98.918924
3837.000000	98.925490
3836.000000	98.928158
3835.000000	98.927149
3834.000000	98.924974
3833.000000	98.923617
3832.000000	98.922502
3831.000000	98.919154
3830.000000	98.913184
3829.000000	98.908022
3828.000000	98.907664
3827.000000	98.912074
3826.000000	98.916243
3825.000000	98.915087
3824.000000	98.908475
3823.000000	98.901744
3822.000000	98.899400
3821.000000	98.900283
3820.000000	98.900191
3819.000000	98.896498
3818.000000	98.891059
3817.000000	98.889312
3816.000000	98.896420
3815.000000	98.911078
3814.000000	98.926540
3813.000000	98.937188
3812.000000	98.941460
3811.000000	98.940202
3810.000000	98.934993
3809.000000	98.928246
3808.000000	98.922299
3807.000000	98.917896
3806.000000	98.914039
3805.000000	98.910210
3804.000000	98.908134
3803.000000	98.911192
3802.000000	98.919502
3801.000000	98.927993
3800.000000	98.932114
3799.000000	98.933781
3798.000000	98.937433
3797.000000	98.944381
3796.000000	98.950997
3795.000000	98.952903
3794.000000	98.950175
3793.000000	98.946638
3792.000000	98.945824
3791.000000	98.947976
3790.000000	98.950191
3789.000000	98.949430
3788.000000	98.945497
3787.000000	98.940887
3786.000000	98.938514
3785.000000	98.939702
3784.000000	98.943910
3783.000000	98.949890
3782.000000	98.956817
3781.000000	98.963391
3780.000000	98.966476
3779.000000	98.962860
3778.000000	98.952775
3777.000000	98.940110
3776.000000	98.929292
3775.000000	98.923173
3774.000000	98.922249
3773.000000	98.925322
3772.000000	98.930639
3771.000000	98.936258
3770.000000	98.939974
3769.000000	98.940736
3768.000000	98.940599
3767.000000	98.942863
3766.000000	98.948547
3765.000000	98.955175
3764.000000	98.959033
3763.000000	98.958792
3762.000000	98.956245
3761.000000	98.953297
3760.000000	98.949377
3759.000000	98.942734
3758.000000	98.933564
3757.000000	98.923683
3756.000000	98.913764
3755.000000	98.903170
3754.000000	98.891040
3753.000000	98.877661
3752.000000	98.866457
3751.000000	98.863898
3750.000000	98.872731
3749.000000	98.885748
3748.000000	98.894761
3747.000000	98.899567
3746.000000	98.906216
3745.000000	98.918844
3744.000000	98.932584
3743.000000	98.939867
3742.000000	98.938701
3741.000000	98.931441
3740.000000	98.923447
3739.000000	98.921065
3738.000000	98.928964
3737.000000	98.945581
3736.000000	98.960922
3735.000000	98.964489
3734.000000	98.954770
3733.000000	98.938703
3732.000000	98.923431
3731.000000	98.911299
3730.000000	98.901597
3729.000000	98.894049
3728.000000	98.890462
3727.000000	98.893248
3726.000000	98.902709
3725.000000	98.916294
3724.000000	98.930720
3723.000000	98.943970
3722.000000	98.954920
3721.000000	98.963016
3720.000000	98.968010
3719.000000	98.969714
3718.000000	98.968578
3717.000000	98.965786
3716.000000	98.962048
3715.000000	98.957282
3714.000000	98.951465
3713.000000	98.945018
3712.000000	98.938949
3711.000000	98.934924
3710.000000	98.933756
3709.000000	98.933791
3708.000000	98.934022
3707.000000	98.935153
3706.000000	98.937374
3705.000000	98.940660
3704.000000	98.945014
3703.000000	98.950120
3702.000000	98.954660
3701.000000	98.957042
3700.000000	98.956787
3699.000000	98.954536
3698.000000	98.950972
3697.000000	98.946637
3696.000000	98.941962
3695.000000	98.937321
3694.000000	98.932771
3693.000000	98.927149
3692.000000	98.918500
3691.000000	98.907345
3690.000000	98.900818
3689.000000	98.907888
3688.000000	98.926342
3687.000000	98.943329
3686.000000	98.950342
3685.000000	98.948822
3684.000000	98.945397
3683.000000	98.946242
3682.000000	98.952765
3681.000000	98.960712
3680.000000	98.963579
3679.000000	98.958650
3678.000000	98.949251
3677.000000	98.940954
3676.000000	98.933882
3675.000000	98.922497
3674.000000	98.905105
3673.000000	98.887374
3672.000000	98.875783
3671.000000	98.874678
3670.000000	98.883421
3669.000000	98.896344
3668.000000	98.908187
3667.000000	98.917318
3666.000000	98.923330
3665.000000	98.926046
3664.000000	98.925957
3663.000000	98.924279
3662.000000	98.921517
3661.000000	98.917045
3660.000000	98.911112
3659.000000	98.906466
3658.000000	98.906307
3657.000000	98.909823
3656.000000	98.911768
3655.000000	98.909052
3654.000000	98.904537
3653.000000	98.903112
3652.000000	98.906048
3651.000000	98.907170
3650.000000	98.897397
3649.000000	98.879452
3648.000000	98.864146
3647.000000	98.852182
3646.000000	98.840355
3645.000000	98.831332
3644.000000	98.829802
3643.000000	98.836722
3642.000000	98.848419
3641.000000	98.859420
3640.000000	98.866311
3639.000000	98.868614
3638.000000	98.866995
3637.000000	98.862720
3636.000000	98.857562
3635.000000	98.852711
3634.000000	98.847364
3633.000000	98.839469
3632.000000	98.828158
3631.000000	98.814925
3630.000000	98.801684
3629.000000	98.790392
3628.000000	98.784307
3627.000000	98.782899
3626.000000	98.782369
3625.000000	98.780184
3624.000000	98.776556
3623.000000	98.772994
3622.000000	98.771088
3621.000000	98.771813
3620.000000	98.774636
3619.000000	98.776965
3618.000000	98.776029
3617.000000	98.770825
3616.000000	98.761919
3615.000000	98.750445
3614.000000	98.737299
3613.000000	98.723085
3612.000000	98.708456
3611.000000	98.694884
3610.000000	98.684842
3609.000000	98.680913
3608.000000	98.683426
3607.000000	98.689032
3606.000000	98.693285
3605.000000	98.694244
3604.000000	98.692713
3603.000000	98.689499
3602.000000	98.683795
3601.000000	98.674629
3600.000000	98.662640
3599.000000	98.649654
3598.000000	98.637743
3597.000000	98.629170
3596.000000	98.626209
3595.000000	98.629710
3594.000000	98.636619
3593.000000	98.641296
3592.000000	98.640469
3591.000000	98.635502
3590.000000	98.629298
3589.000000	98.621988
3588.000000	98.610953
3587.000000	98.596508
3586.000000	98.582945
3585.000000	98.574425
3584.000000	98.572337
3583.000000	98.574889
3582.000000	98.577981
3581.000000	98.578207
3580.000000	98.575176
3579.000000	98.571438
3578.000000	98.569303
3577.000000	98.568144
3576.000000	98.564821
3575.000000	98.556462
3574.000000	98.543064
3573.000000	98.527172
3572.000000	98.512217
3571.000000	98.500335
3570.000000	98.491248
3569.000000	98.482214
3568.000000	98.471314
3567.000000	98.461576
3566.000000	98.457066
3565.000000	98.455175
3564.000000	98.451227
3563.000000	98.444603
3562.000000	98.437906
3561.000000	98.433331
3560.000000	98.430593
3559.000000	98.427373
3558.000000	98.422275
3557.000000	98.416419
3556.000000	98.412246
3555.000000	98.410804
3554.000000	98.410422
3553.000000	98.407666
3552.000000	98.400143
3551.000000	98.388458
3550.000000	98.375212
3549.000000	98.362457
3548.000000	98.350445
3547.000000	98.338789
3546.000000	98.328160
3545.000000	98.319531
3544.000000	98.311885
3543.000000	98.302911
3542.000000	98.291644
3541.000000	98.279607
3540.000000	98.269533
3539.000000	98.263003
3538.000000	98.259431
3537.000000	98.257052
3536.000000	98.254737
3535.000000	98.252591
3534.000000	98.250761
3533.000000	98.248425
3532.000000	98.243930
3531.000000	98.236185
3530.000000	98.225965
3529.000000	98.215606
3528.000000	98.206906
3527.000000	98.199194
3526.000000	98.189954
3525.000000	98.177698
3524.000000	98.163716
3523.000000	98.150946
3522.000000	98.141672
3521.000000	98.136550
3520.000000	98.134874
3519.000000	98.134567
3518.000000	98.132694
3517.000000	98.127790
3516.000000	98.121622
3515.000000	98.117627
3514.000000	98.116827
3513.000000	98.116292
3512.000000	98.112172
3511.000000	98.103760
3510.000000	98.093977
3509.000000	98.085936
3508.000000	98.079810
3507.000000	98.073407
3506.000000	98.065186
3505.000000	98.055746
3504.000000	98.047151
3503.000000	98.040811
3502.000000	98.035734
3501.000000	98.029418
3500.000000	98.020490
3499.000000	98.009907
3498.000000	97.999862
3497.000000	97.992281
3496.000000	97.987630
3495.000000	97.984707
3494.000000	97.981689
3493.000000	97.977630
3492.000000	97.972538
3491.000000	97.965922
3490.000000	97.956435
3489.000000	97.944228
3488.000000	97.932780
3487.000000	97.926349
3486.000000	97.925476
3485.000000	97.926844
3484.000000	97.927403
3483.000000	97.926584
3482.000000	97.923917
3481.000000	97.916963
3480.000000	97.904141
3479.000000	97.888506
3478.000000	97.876024
3477.000000	97.869933
3476.000000	97.868229
3475.000000	97.866545
3474.000000	97.862311
3473.000000	97.855548
3472.000000	97.847047
3471.000000	97.837300
3470.000000	97.826951
3469.000000	97.817203
3468.000000	97.809427
3467.000000	97.804445
3466.000000	97.802201
3465.000000	97.801850
3464.000000	97.802019
3463.000000	97.801140
3462.000000	97.797869
3461.000000	97.791744
3460.000000	97.783614
3459.000000	97.775201
3458.000000	97.767807
3457.000000	97.761317
3456.000000	97.754846
3455.000000	97.748459
3454.000000	97.743585
3453.000000	97.741380
3452.000000	97.740663
3451.000000	97.738162
3450.000000	97.731134
3449.000000	97.719859
3448.000000	97.707851
3447.000000	97.699390
3446.000000	97.696168
3445.000000	97.696617
3444.000000	97.698299
3443.000000	97.699781
3442.000000	97.700124
3441.000000	97.697768
3440.000000	97.691364
3439.000000	97.681731
3438.000000	97.672024
3437.000000	97.665283
3436.000000	97.662093
3435.000000	97.660943
3434.000000	97.660245
3433.000000	97.659547
3432.000000	97.658713
3431.000000	97.656802
3430.000000	97.652123
3429.000000	97.643531
3428.000000	97.631779
3427.000000	97.619397
3426.000000	97.609027
3425.000000	97.601649
3424.000000	97.596511
3423.000000	97.592522
3422.000000	97.589139
3421.000000	97.585884
3420.000000	97.581740
3419.000000	97.575777
3418.000000	97.568254
3417.000000	97.560764
3416.000000	97.555263
3415.000000	97.552997
3414.000000	97.554009
3413.000000	97.557186
3412.000000	97.560708
3411.000000	97.562416
3410.000000	97.560027
3409.000000	97.551858
3408.000000	97.538292
3407.000000	97.522504
3406.000000	97.509053
3405.000000	97.501220
3404.000000	97.499589
3403.000000	97.502721
3402.000000	97.508331
3401.000000	97.513806
3400.000000	97.516498
3399.000000	97.514587
3398.000000	97.508030
3397.000000	97.498798
3396.000000	97.490106
3395.000000	97.484650
3394.000000	97.482534
3393.000000	97.480607
3392.000000	97.474855
3391.000000	97.464401
3390.000000	97.453040
3389.000000	97.446324
3388.000000	97.447146
3387.000000	97.453633
3386.000000	97.460369
3385.000000	97.461626
3384.000000	97.454816
3383.000000	97.442193
3382.000000	97.428920
3381.000000	97.418780
3380.000000	97.411734
3379.000000	97.405962
3378.000000	97.401210
3377.000000	97.398681
3376.000000	97.398037
3375.000000	97.396449
3374.000000	97.391474
3373.000000	97.383697
3372.000000	97.375729
3371.000000	97.369521
3370.000000	97.365482
3369.000000	97.363130
3368.000000	97.361191
3367.000000	97.357438
3366.000000	97.349820
3365.000000	97.338180
3364.000000	97.324403
3363.000000	97.311159
3362.000000	97.300830
3361.000000	97.294524
3360.000000	97.290682
3359.000000	97.285073
3358.000000	97.273899
3357.000000	97.257572
3356.000000	97.240574
3355.000000	97.227240
3354.000000	97.218371
3353.000000	97.211915
3352.000000	97.205499
3351.000000	97.197497
3350.000000	97.187018
3349.000000	97.174337
3348.000000	97.161133
3347.000000	97.149239
3346.000000	97.138968
3345.000000	97.129117
3344.000000	97.118503
3343.000000	97.107169
3342.000000	97.096214
3341.000000	97.086839
3340.000000	97.079334
3339.000000	97.072549
3338.000000	97.064495
3337.000000	97.054029
3336.000000	97.042052
3335.000000	97.030702
3334.000000	97.021293
3333.000000	97.013308
3332.000000	97.005383
3331.000000	96.997002
3330.000000	96.989141
3329.000000	96.983422
3328.000000	96.980627
3327.000000	96.979784
3326.000000	96.978512
3325.000000	96.974313
3324.000000	96.965947
3323.000000	96.954227
3322.000000	96.941713
3321.000000	96.931088
3320.000000	96.923169
3319.000000	96.916544
3318.000000	96.909624
3317.000000	96.902913
3316.000000	96.898550
3315.000000	96.897623
3314.000000	96.898673
3313.000000	96.899185
3312.000000	96.897847
3311.000000	96.895058
3310.000000	96.891803
3309.000000	96.888676
3308.000000	96.885684
3307.000000	96.882373
3306.000000	96.878146
3305.000000	96.872850
3304.000000	96.867298
3303.000000	96.863322
3302.000000	96.863042
3301.000000	96.867286
3300.000000	96.873948
3299.000000	96.878370
3298.000000	96.876671
3297.000000	96.869198
3296.000000	96.859988
3295.000000	96.852625
3294.000000	96.847486
3293.000000	96.843185
3292.000000	96.839146
3291.000000	96.835793
3290.000000	96.833316
3289.000000	96.831652
3288.000000	96.831288
3287.000000	96.832797
3286.000000	96.835755
3285.000000	96.839219
3284.000000	96.843074
3283.000000	96.847981
3282.000000	96.853944
3281.000000	96.859848
3280.000000	96.864696
3279.000000	96.868493
3278.000000	96.871856
3277.000000	96.875558
3276.000000	96.880538
3275.000000	96.887390
3274.000000	96.895212
3273.000000	96.901628
3272.000000	96.904795
3271.000000	96.905310
3270.000000	96.905548
3269.000000	96.907060
3268.000000	96.909021
3267.000000	96.909608
3266.000000	96.908945
3265.000000	96.910195
3264.000000	96.916868
3263.000000	96.928829
3262.000000	96.941559
3261.000000	96.949609
3260.000000	96.950698
3259.000000	96.946510
3258.000000	96.940723
3257.000000	96.937120
3256.000000	96.938565
3255.000000	96.945906
3254.000000	96.957131
3253.000000	96.968358
3252.000000	96.976418
3251.000000	96.980904
3250.000000	96.984205
3249.000000	96.989649
3248.000000	96.998872
3247.000000	97.010191
3246.000000	97.019843
3245.000000	97.025552
3244.000000	97.028500
3243.000000	97.031224
3242.000000	97.034533
3241.000000	97.037532
3240.000000	97.039784
3239.000000	97.041518
3238.000000	97.042012
3237.000000	97.039952
3236.000000	97.036269
3235.000000	97.034985
3234.000000	97.039712
3233.000000	97.049909
3232.000000	97.061242
3231.000000	97.069314
3230.000000	97.072462
3229.000000	97.071937
3228.000000	97.070738
3227.000000	97.071896
3226.000000	97.076457
3225.000000	97.082657
3224.000000	97.087550
3223.000000	97.089901
3222.000000	97.091167
3221.000000	97.093535
3220.000000	97.097448
3219.000000	97.101193
3218.000000	97.102836
3217.000000	97.102188
3216.000000	97.101005
3215.000000	97.101608
3214.000000	97.105100
3213.000000	97.110541
3212.000000	97.115742
3211.000000	97.119246
3210.000000	97.121810
3209.000000	97.125441
3208.000000	97.130681
3207.000000	97.135373
3206.000000	97.137251
3205.000000	97.137452
3204.000000	97.140076
3203.000000	97.147484
3202.000000	97.156993
3201.000000	97.163255
3200.000000	97.163431
3199.000000	97.159341
3198.000000	97.155055
3197.000000	97.153774
3196.000000	97.156739
3195.000000	97.163585
3194.000000	97.172840
3193.000000	97.182623
3192.000000	97.191836
3191.000000	97.200786
3190.000000	97.210440
3189.000000	97.221207
3188.000000	97.232294
3187.000000	97.241957
3186.000000	97.248483
3185.000000	97.251544
3184.000000	97.252828
3183.000000	97.254892
3182.000000	97.259096
3181.000000	97.264712
3180.000000	97.270026
3179.000000	97.273810
3178.000000	97.275825
3177.000000	97.276610
3176.000000	97.277478
3175.000000	97.280336
3174.000000	97.286566
3173.000000	97.295489
3172.000000	97.304173
3171.000000	97.309585
3170.000000	97.311456
3169.000000	97.313086
3168.000000	97.318795
3167.000000	97.330048
3166.000000	97.343944
3165.000000	97.355402
3164.000000	97.361138
3163.000000	97.361956
3162.000000	97.361916
3161.000000	97.365025
3160.000000	97.372178
3159.000000	97.380836
3158.000000	97.388011
3157.000000	97.393410
3156.000000	97.399069
3155.000000	97.406013
3154.000000	97.412739
3153.000000	97.417823
3152.000000	97.422832
3151.000000	97.430811
3150.000000	97.442006
3149.000000	97.452610
3148.000000	97.458315
3147.000000	97.458127
3146.000000	97.454499
