PE IR       SUBTECH     SPECTRUM    ASCII       PEDS        4.00        
   -1
POD9-1C-C002_1.ASC
23/09/08
14:37:31.00
23/09/08
14:52:56.00
uco
Sample 002 By uco Date Friday, September 08 2023
450.000000
#HDR
-1
-1
#GR
cm-1
%T
1.0
0.0
4000.000000
-1.000000
3551
8
98.789921
89.820220
#DATA
4000.000000	98.735950
3999.000000	98.726548
3998.000000	98.722806
3997.000000	98.723596
3996.000000	98.727536
3995.000000	98.731647
3994.000000	98.733067
3993.000000	98.730519
3992.000000	98.724953
3991.000000	98.718966
3990.000000	98.715460
3989.000000	98.716044
3988.000000	98.719981
3987.000000	98.724484
3986.000000	98.726384
3985.000000	98.724271
3984.000000	98.719323
3983.000000	98.714077
3982.000000	98.710193
3981.000000	98.707290
3980.000000	98.703841
3979.000000	98.699022
3978.000000	98.693629
3977.000000	98.689664
3976.000000	98.689373
3975.000000	98.694051
3974.000000	98.702966
3973.000000	98.712930
3972.000000	98.719655
3971.000000	98.720467
3970.000000	98.715909
3969.000000	98.708961
3968.000000	98.702483
3967.000000	98.697805
3966.000000	98.695166
3965.000000	98.694485
3964.000000	98.695210
3963.000000	98.695876
3962.000000	98.694816
3961.000000	98.691439
3960.000000	98.686966
3959.000000	98.683625
3958.000000	98.682748
3957.000000	98.683827
3956.000000	98.684798
3955.000000	98.683632
3954.000000	98.679940
3953.000000	98.675220
3952.000000	98.672011
3951.000000	98.672342
3950.000000	98.676552
3949.000000	98.683141
3948.000000	98.689829
3947.000000	98.694611
3946.000000	98.696008
3945.000000	98.693509
3944.000000	98.688420
3943.000000	98.683564
3942.000000	98.681566
3941.000000	98.682330
3940.000000	98.683395
3939.000000	98.683249
3938.000000	98.682519
3937.000000	98.682725
3936.000000	98.684051
3935.000000	98.685122
3934.000000	98.684594
3933.000000	98.681769
3932.000000	98.676923
3931.000000	98.670979
3930.000000	98.665597
3929.000000	98.662421
3928.000000	98.660868
3927.000000	98.658747
3926.000000	98.655048
3925.000000	98.651958
3924.000000	98.652398
3923.000000	98.655990
3922.000000	98.660030
3921.000000	98.664003
3920.000000	98.669854
3919.000000	98.678235
3918.000000	98.686156
3917.000000	98.689650
3916.000000	98.687631
3915.000000	98.681649
3914.000000	98.673464
3913.000000	98.664522
3912.000000	98.656441
3911.000000	98.651263
3910.000000	98.650280
3909.000000	98.653697
3908.000000	98.660176
3907.000000	98.668220
3906.000000	98.677858
3905.000000	98.690882
3904.000000	98.707351
3903.000000	98.721067
3902.000000	98.722553
3901.000000	98.709231
3900.000000	98.688946
3899.000000	98.672573
3898.000000	98.664140
3897.000000	98.660266
3896.000000	98.657873
3895.000000	98.657678
3894.000000	98.660041
3893.000000	98.663637
3892.000000	98.668455
3891.000000	98.678513
3890.000000	98.694307
3889.000000	98.708093
3888.000000	98.711324
3887.000000	98.702797
3886.000000	98.689967
3885.000000	98.682765
3884.000000	98.681195
3883.000000	98.676494
3882.000000	98.663901
3881.000000	98.649291
3880.000000	98.643848
3879.000000	98.650291
3878.000000	98.657982
3877.000000	98.656704
3876.000000	98.646904
3875.000000	98.638971
3874.000000	98.644690
3873.000000	98.663508
3872.000000	98.680740
3871.000000	98.683947
3870.000000	98.677878
3869.000000	98.676758
3868.000000	98.681389
3867.000000	98.680768
3866.000000	98.671018
3865.000000	98.658546
3864.000000	98.650442
3863.000000	98.648778
3862.000000	98.651342
3861.000000	98.655774
3860.000000	98.659442
3859.000000	98.661747
3858.000000	98.664230
3857.000000	98.669124
3856.000000	98.674978
3855.000000	98.676003
3854.000000	98.671016
3853.000000	98.669969
3852.000000	98.674081
3851.000000	98.672304
3850.000000	98.663238
3849.000000	98.654984
3848.000000	98.651872
3847.000000	98.651406
3846.000000	98.649116
3845.000000	98.643530
3844.000000	98.637226
3843.000000	98.635019
3842.000000	98.638471
3841.000000	98.644372
3840.000000	98.648782
3839.000000	98.651828
3838.000000	98.655549
3837.000000	98.660311
3836.000000	98.664145
3835.000000	98.664870
3834.000000	98.661782
3833.000000	98.655702
3832.000000	98.648422
3831.000000	98.641638
3830.000000	98.634477
3829.000000	98.624742
3828.000000	98.612878
3827.000000	98.605642
3826.000000	98.611342
3825.000000	98.629845
3824.000000	98.650450
3823.000000	98.660352
3822.000000	98.655319
3821.000000	98.646281
3820.000000	98.645799
3819.000000	98.647810
3818.000000	98.639116
3817.000000	98.620103
3816.000000	98.603742
3815.000000	98.600070
3814.000000	98.602926
3813.000000	98.602737
3812.000000	98.602173
3811.000000	98.609098
3810.000000	98.624411
3809.000000	98.640366
3808.000000	98.649749
3807.000000	98.654648
3806.000000	98.661559
3805.000000	98.668894
3804.000000	98.669058
3803.000000	98.659176
3802.000000	98.645142
3801.000000	98.637940
3800.000000	98.638759
3799.000000	98.634866
3798.000000	98.620049
3797.000000	98.601619
3796.000000	98.590182
3795.000000	98.587465
3794.000000	98.586789
3793.000000	98.583774
3792.000000	98.581184
3791.000000	98.582845
3790.000000	98.588704
3789.000000	98.595520
3788.000000	98.599432
3787.000000	98.598003
3786.000000	98.591938
3785.000000	98.585871
3784.000000	98.584958
3783.000000	98.589181
3782.000000	98.592735
3781.000000	98.590732
3780.000000	98.584560
3779.000000	98.580869
3778.000000	98.583399
3777.000000	98.588705
3776.000000	98.592627
3775.000000	98.596391
3774.000000	98.603271
3773.000000	98.612560
3772.000000	98.620077
3771.000000	98.624312
3770.000000	98.628532
3769.000000	98.635524
3768.000000	98.641454
3767.000000	98.640323
3766.000000	98.631778
3765.000000	98.621316
3764.000000	98.613362
3763.000000	98.606968
3762.000000	98.599544
3761.000000	98.592442
3760.000000	98.588558
3759.000000	98.588647
3758.000000	98.591989
3757.000000	98.598931
3756.000000	98.609712
3755.000000	98.623715
3754.000000	98.642610
3753.000000	98.671652
3752.000000	98.711910
3751.000000	98.750865
3750.000000	98.772041
3749.000000	98.774054
3748.000000	98.764828
3747.000000	98.747179
3746.000000	98.720660
3745.000000	98.692131
3744.000000	98.678160
3743.000000	98.677641
3742.000000	98.672292
3741.000000	98.660557
3740.000000	98.654840
3739.000000	98.661164
3738.000000	98.672112
3737.000000	98.676066
3736.000000	98.670016
3735.000000	98.661634
3734.000000	98.659708
3733.000000	98.663376
3732.000000	98.667023
3731.000000	98.667979
3730.000000	98.666041
3729.000000	98.662148
3728.000000	98.658109
3727.000000	98.655015
3726.000000	98.651207
3725.000000	98.643043
3724.000000	98.630604
3723.000000	98.619558
3722.000000	98.615591
3721.000000	98.617824
3720.000000	98.619925
3719.000000	98.618459
3718.000000	98.617165
3717.000000	98.622735
3716.000000	98.636910
3715.000000	98.654774
3714.000000	98.669276
3713.000000	98.674338
3712.000000	98.666977
3711.000000	98.652295
3710.000000	98.640964
3709.000000	98.638292
3708.000000	98.640686
3707.000000	98.643045
3706.000000	98.643608
3705.000000	98.641889
3704.000000	98.636970
3703.000000	98.628700
3702.000000	98.619558
3701.000000	98.614481
3700.000000	98.615256
3699.000000	98.618438
3698.000000	98.620831
3697.000000	98.622993
3696.000000	98.626399
3695.000000	98.630114
3694.000000	98.632585
3693.000000	98.634548
3692.000000	98.637908
3691.000000	98.642989
3690.000000	98.648356
3689.000000	98.653744
3688.000000	98.659694
3687.000000	98.662190
3686.000000	98.655452
3685.000000	98.640930
3684.000000	98.627107
3683.000000	98.621673
3682.000000	98.625301
3681.000000	98.634476
3680.000000	98.647683
3679.000000	98.663311
3678.000000	98.674386
3677.000000	98.671649
3676.000000	98.657328
3675.000000	98.650942
3674.000000	98.660941
3673.000000	98.669548
3672.000000	98.664390
3671.000000	98.651299
3670.000000	98.642884
3669.000000	98.645410
3668.000000	98.650423
3667.000000	98.646579
3666.000000	98.634047
3665.000000	98.619901
3664.000000	98.609179
3663.000000	98.601976
3662.000000	98.596376
3661.000000	98.592160
3660.000000	98.590875
3659.000000	98.592599
3658.000000	98.595044
3657.000000	98.596144
3656.000000	98.597962
3655.000000	98.602600
3654.000000	98.607912
3653.000000	98.611056
3652.000000	98.613449
3651.000000	98.619884
3650.000000	98.631133
3649.000000	98.636518
3648.000000	98.626006
3647.000000	98.606687
3646.000000	98.589733
3645.000000	98.577796
3644.000000	98.568000
3643.000000	98.558077
3642.000000	98.548067
3641.000000	98.539653
3640.000000	98.533979
3639.000000	98.531072
3638.000000	98.531340
3637.000000	98.534668
3636.000000	98.539991
3635.000000	98.547407
3634.000000	98.559666
3633.000000	98.578639
3632.000000	98.600905
3631.000000	98.617730
3630.000000	98.619565
3629.000000	98.605248
3628.000000	98.586134
3627.000000	98.569128
3626.000000	98.551118
3625.000000	98.534129
3624.000000	98.523238
3623.000000	98.518916
3622.000000	98.517040
3621.000000	98.513673
3620.000000	98.508575
3619.000000	98.505004
3618.000000	98.505371
3617.000000	98.507462
3616.000000	98.507632
3615.000000	98.504866
3614.000000	98.500667
3613.000000	98.497757
3612.000000	98.498314
3611.000000	98.500700
3610.000000	98.500166
3609.000000	98.491861
3608.000000	98.474709
3607.000000	98.453325
3606.000000	98.433150
3605.000000	98.416075
3604.000000	98.401470
3603.000000	98.389182
3602.000000	98.380622
3601.000000	98.377184
3600.000000	98.377747
3599.000000	98.378285
3598.000000	98.375628
3597.000000	98.369580
3596.000000	98.362293
3595.000000	98.356072
3594.000000	98.353522
3593.000000	98.356128
3592.000000	98.363266
3591.000000	98.371355
3590.000000	98.374857
3589.000000	98.369114
3588.000000	98.355528
3587.000000	98.342119
3586.000000	98.334797
3585.000000	98.330064
3584.000000	98.321901
3583.000000	98.309260
3582.000000	98.294993
3581.000000	98.282056
3580.000000	98.272217
3579.000000	98.265007
3578.000000	98.257600
3577.000000	98.246370
3576.000000	98.230238
3575.000000	98.212542
3574.000000	98.198720
3573.000000	98.192243
3572.000000	98.192456
3571.000000	98.195815
3570.000000	98.197401
3569.000000	98.192821
3568.000000	98.180073
3567.000000	98.161246
3566.000000	98.141810
3565.000000	98.126082
3564.000000	98.114112
3563.000000	98.104993
3562.000000	98.098446
3561.000000	98.093465
3560.000000	98.088299
3559.000000	98.082727
3558.000000	98.078147
3557.000000	98.075333
3556.000000	98.072476
3555.000000	98.066456
3554.000000	98.055975
3553.000000	98.043763
3552.000000	98.034578
3551.000000	98.030583
3550.000000	98.029414
3549.000000	98.027238
3548.000000	98.022460
3547.000000	98.015954
3546.000000	98.008989
3545.000000	98.001672
3544.000000	97.993271
3543.000000	97.983115
3542.000000	97.971146
3541.000000	97.957906
3540.000000	97.944113
3539.000000	97.930743
3538.000000	97.919124
3537.000000	97.910378
3536.000000	97.904615
3535.000000	97.900661
3534.000000	97.897344
3533.000000	97.894165
3532.000000	97.891101
3531.000000	97.887723
3530.000000	97.883282
3529.000000	97.877441
3528.000000	97.870444
3527.000000	97.862485
3526.000000	97.853689
3525.000000	97.844559
3524.000000	97.835588
3523.000000	97.826228
3522.000000	97.815118
3521.000000	97.802045
3520.000000	97.789370
3519.000000	97.780679
3518.000000	97.777451
3517.000000	97.776777
3516.000000	97.774020
3515.000000	97.767487
3514.000000	97.759962
3513.000000	97.754681
3512.000000	97.751263
3511.000000	97.746596
3510.000000	97.739580
3509.000000	97.732925
3508.000000	97.729245
3507.000000	97.727289
3506.000000	97.724002
3505.000000	97.719014
3504.000000	97.714697
3503.000000	97.711842
3502.000000	97.707367
3501.000000	97.697396
3500.000000	97.681539
3499.000000	97.663479
3498.000000	97.648532
3497.000000	97.640428
3496.000000	97.639077
3495.000000	97.640582
3494.000000	97.639863
3493.000000	97.634104
3492.000000	97.624173
3491.000000	97.613264
3490.000000	97.604563
3489.000000	97.599571
3488.000000	97.597719
3487.000000	97.596806
3486.000000	97.594241
3485.000000	97.588630
3484.000000	97.580909
3483.000000	97.573900
3482.000000	97.570363
3481.000000	97.570691
3480.000000	97.572390
3479.000000	97.572169
3478.000000	97.568507
3477.000000	97.562016
3476.000000	97.553486
3475.000000	97.542643
3474.000000	97.529551
3473.000000	97.516393
3472.000000	97.506278
3471.000000	97.500024
3470.000000	97.495225
3469.000000	97.489218
3468.000000	97.482229
3467.000000	97.476841
3466.000000	97.474492
3465.000000	97.473650
3464.000000	97.471727
3463.000000	97.467957
3462.000000	97.463832
3461.000000	97.460708
3460.000000	97.457692
3459.000000	97.452494
3458.000000	97.444493
3457.000000	97.436367
3456.000000	97.432000
3455.000000	97.432327
3454.000000	97.434326
3453.000000	97.434212
3452.000000	97.430856
3451.000000	97.424979
3450.000000	97.416330
3449.000000	97.403709
3448.000000	97.387905
3447.000000	97.373104
3446.000000	97.364132
3445.000000	97.362502
3444.000000	97.365712
3443.000000	97.369431
3442.000000	97.369851
3441.000000	97.365337
3440.000000	97.356621
3439.000000	97.345450
3438.000000	97.333372
3437.000000	97.321860
3436.000000	97.312581
3435.000000	97.305941
3434.000000	97.300170
3433.000000	97.293233
3432.000000	97.285981
3431.000000	97.281541
3430.000000	97.281391
3429.000000	97.283321
3428.000000	97.283641
3427.000000	97.280308
3426.000000	97.273293
3425.000000	97.263464
3424.000000	97.252229
3423.000000	97.241666
3422.000000	97.233695
3421.000000	97.228699
3420.000000	97.225386
3419.000000	97.222007
3418.000000	97.217515
3417.000000	97.211681
3416.000000	97.204957
3415.000000	97.198583
3414.000000	97.194481
3413.000000	97.194079
3412.000000	97.196569
3411.000000	97.198597
3410.000000	97.196514
3409.000000	97.189333
3408.000000	97.179169
3407.000000	97.168969
3406.000000	97.160421
3405.000000	97.153817
3404.000000	97.148537
3403.000000	97.142786
3402.000000	97.134000
3401.000000	97.120847
3400.000000	97.105130
3399.000000	97.090972
3398.000000	97.081878
3397.000000	97.078576
3396.000000	97.079310
3395.000000	97.081449
3394.000000	97.082668
3393.000000	97.081454
3392.000000	97.077317
3391.000000	97.070559
3390.000000	97.061517
3389.000000	97.050309
3388.000000	97.037743
3387.000000	97.025973
3386.000000	97.017321
3385.000000	97.011876
3384.000000	97.006916
3383.000000	96.999445
3382.000000	96.989204
3381.000000	96.978453
3380.000000	96.969201
3379.000000	96.961540
3378.000000	96.954660
3377.000000	96.947899
3376.000000	96.939849
3375.000000	96.927695
3374.000000	96.909471
3373.000000	96.887406
3372.000000	96.867674
3371.000000	96.855711
3370.000000	96.851521
3369.000000	96.849504
3368.000000	96.842356
3367.000000	96.825560
3366.000000	96.799653
3365.000000	96.769706
3364.000000	96.742308
3363.000000	96.721624
3362.000000	96.707135
3361.000000	96.694763
3360.000000	96.680196
3359.000000	96.661408
3358.000000	96.638849
3357.000000	96.614202
3356.000000	96.589155
3355.000000	96.564825
3354.000000	96.541815
3353.000000	96.520662
3352.000000	96.501904
3351.000000	96.485380
3350.000000	96.469486
3349.000000	96.451632
3348.000000	96.429776
3347.000000	96.403798
3346.000000	96.375664
3345.000000	96.348253
3344.000000	96.323666
3343.000000	96.302043
3342.000000	96.282005
3341.000000	96.262328
3340.000000	96.242850
3339.000000	96.223391
3338.000000	96.202277
3337.000000	96.177070
3336.000000	96.147374
3335.000000	96.116369
3334.000000	96.088728
3333.000000	96.066739
3332.000000	96.048663
3331.000000	96.030837
3330.000000	96.011226
3329.000000	95.991075
3328.000000	95.973332
3327.000000	95.959495
3326.000000	95.947955
3325.000000	95.935130
3324.000000	95.918235
3323.000000	95.897210
3322.000000	95.874456
3321.000000	95.852811
3320.000000	95.833523
3319.000000	95.815958
3318.000000	95.799314
3317.000000	95.784368
3316.000000	95.773098
3315.000000	95.766292
3314.000000	95.761930
3313.000000	95.756649
3312.000000	95.748830
3311.000000	95.740080
3310.000000	95.733476
3309.000000	95.730304
3308.000000	95.728535
3307.000000	95.724512
3306.000000	95.716093
3305.000000	95.704176
3304.000000	95.691246
3303.000000	95.678723
3302.000000	95.666169
3301.000000	95.653194
3300.000000	95.641600
3299.000000	95.634520
3298.000000	95.633154
3297.000000	95.634822
3296.000000	95.635187
3295.000000	95.632576
3294.000000	95.629285
3293.000000	95.628208
3292.000000	95.628943
3291.000000	95.628157
3290.000000	95.623524
3289.000000	95.616155
3288.000000	95.608990
3287.000000	95.604036
3286.000000	95.601755
3285.000000	95.601939
3284.000000	95.604027
3283.000000	95.607256
3282.000000	95.611509
3281.000000	95.617658
3280.000000	95.626099
3279.000000	95.635338
3278.000000	95.642931
3277.000000	95.647448
3276.000000	95.648919
3275.000000	95.648086
3274.000000	95.646667
3273.000000	95.647549
3272.000000	95.652692
3271.000000	95.660415
3270.000000	95.666420
3269.000000	95.668301
3268.000000	95.667900
3267.000000	95.668907
3266.000000	95.673327
3265.000000	95.680702
3264.000000	95.689336
3263.000000	95.697180
3262.000000	95.702533
3261.000000	95.705401
3260.000000	95.707970
3259.000000	95.712857
3258.000000	95.720953
3257.000000	95.731299
3256.000000	95.742298
3255.000000	95.752236
3254.000000	95.759480
3253.000000	95.763653
3252.000000	95.766696
3251.000000	95.771503
3250.000000	95.779064
3249.000000	95.787481
3248.000000	95.794151
3247.000000	95.798479
3246.000000	95.802296
3245.000000	95.807888
3244.000000	95.815895
3243.000000	95.824939
3242.000000	95.832839
3241.000000	95.838062
3240.000000	95.840366
3239.000000	95.840834
3238.000000	95.841572
3237.000000	95.844918
3236.000000	95.851984
3235.000000	95.861574
3234.000000	95.870938
3233.000000	95.877778
3232.000000	95.881573
3231.000000	95.883130
3230.000000	95.883516
3229.000000	95.883538
3228.000000	95.883521
3227.000000	95.883215
3226.000000	95.882409
3225.000000	95.881887
3224.000000	95.883287
3223.000000	95.887612
3222.000000	95.894301
3221.000000	95.901933
3220.000000	95.908932
3219.000000	95.913307
3218.000000	95.912967
3217.000000	95.908029
3216.000000	95.902558
3215.000000	95.902260
3214.000000	95.909333
3213.000000	95.920422
3212.000000	95.930248
3211.000000	95.936756
3210.000000	95.942074
3209.000000	95.949195
3208.000000	95.958649
3207.000000	95.968373
3206.000000	95.976082
3205.000000	95.981347
3204.000000	95.985469
3203.000000	95.989754
3202.000000	95.994179
3201.000000	95.997969
3200.000000	96.001085
3199.000000	96.004705
3198.000000	96.010098
3197.000000	96.017390
3196.000000	96.025415
3195.000000	96.032408
3194.000000	96.036761
3193.000000	96.037758
3192.000000	96.036144
3191.000000	96.033972
3190.000000	96.033711
3189.000000	96.037320
3188.000000	96.045559
3187.000000	96.057427
3186.000000	96.070072
3185.000000	96.080416
3184.000000	96.087895
3183.000000	96.095223
3182.000000	96.105715
3181.000000	96.119839
3180.000000	96.135067
3179.000000	96.148661
3178.000000	96.159752
3177.000000	96.168642
3176.000000	96.175373
3175.000000	96.180272
3174.000000	96.185294
3173.000000	96.193195
3172.000000	96.204499
3171.000000	96.216017
3170.000000	96.223739
3169.000000	96.227348
3168.000000	96.231275
3167.000000	96.240577
3166.000000	96.255989
3165.000000	96.273218
3164.000000	96.286984
3163.000000	96.295325
3162.000000	96.300389
3161.000000	96.305807
3160.000000	96.313725
3159.000000	96.323737
3158.000000	96.333947
3157.000000	96.342871
3156.000000	96.350606
3155.000000	96.358583
3154.000000	96.368407
3153.000000	96.380711
3152.000000	96.394510
3151.000000	96.407367
3150.000000	96.416667
3149.000000	96.421580
3148.000000	96.423938
3147.000000	96.426833
3146.000000	96.431977
