PE IR       SUBTECH     SPECTRUM    ASCII       PEDS        4.00        
   -1
Chevre_UK-1-C001_1.ASC
23/09/13
10:02:47.00
23/09/13
11:33:37.00
uco
Sample 011 By uco Date Wednesday, September 13 2023
450.000000
#HDR
-1
-1
#GR
cm-1
%T
1.0
0.0
4000.000000
-1.000000
3551
8
98.885754
87.945481
#DATA
4000.000000	98.798085
3999.000000	98.788641
3998.000000	98.784129
3997.000000	98.784570
3996.000000	98.788155
3995.000000	98.792339
3994.000000	98.795125
3993.000000	98.796072
3992.000000	98.796494
3991.000000	98.798310
3990.000000	98.802206
3989.000000	98.806717
3988.000000	98.809207
3987.000000	98.807937
3986.000000	98.803255
3985.000000	98.797033
3984.000000	98.791210
3983.000000	98.786657
3982.000000	98.783238
3981.000000	98.780630
3980.000000	98.778939
3979.000000	98.778486
3978.000000	98.779011
3977.000000	98.779280
3976.000000	98.777779
3975.000000	98.774003
3974.000000	98.768961
3973.000000	98.764444
3972.000000	98.761904
3971.000000	98.761995
3970.000000	98.764496
3969.000000	98.767960
3968.000000	98.769763
3967.000000	98.767530
3966.000000	98.761335
3965.000000	98.754337
3964.000000	98.750631
3963.000000	98.752209
3962.000000	98.757817
3961.000000	98.764623
3960.000000	98.770565
3959.000000	98.774755
3958.000000	98.776436
3957.000000	98.774626
3956.000000	98.769126
3955.000000	98.761448
3954.000000	98.754453
3953.000000	98.751015
3952.000000	98.752596
3951.000000	98.758394
3950.000000	98.765286
3949.000000	98.769027
3948.000000	98.766720
3947.000000	98.758732
3946.000000	98.748365
3945.000000	98.739919
3944.000000	98.736358
3943.000000	98.737781
3942.000000	98.741746
3941.000000	98.745244
3940.000000	98.746559
3939.000000	98.745747
3938.000000	98.743940
3937.000000	98.742399
3936.000000	98.741872
3935.000000	98.742328
3934.000000	98.743129
3933.000000	98.743410
3932.000000	98.742707
3931.000000	98.741204
3930.000000	98.739262
3929.000000	98.737432
3928.000000	98.736998
3927.000000	98.739553
3926.000000	98.744853
3925.000000	98.749544
3924.000000	98.750083
3923.000000	98.746969
3922.000000	98.744203
3921.000000	98.745018
3920.000000	98.748939
3919.000000	98.752733
3918.000000	98.753441
3917.000000	98.750619
3916.000000	98.746067
3915.000000	98.741974
3914.000000	98.739564
3913.000000	98.738941
3912.000000	98.739259
3911.000000	98.739308
3910.000000	98.738246
3909.000000	98.735963
3908.000000	98.733240
3907.000000	98.731652
3906.000000	98.732811
3905.000000	98.736431
3904.000000	98.739601
3903.000000	98.739460
3902.000000	98.736289
3901.000000	98.733192
3900.000000	98.732946
3899.000000	98.735696
3898.000000	98.739125
3897.000000	98.740462
3896.000000	98.738258
3895.000000	98.733642
3894.000000	98.730313
3893.000000	98.731993
3892.000000	98.737435
3891.000000	98.740098
3890.000000	98.735513
3889.000000	98.726502
3888.000000	98.721252
3887.000000	98.726142
3886.000000	98.737828
3885.000000	98.746033
3884.000000	98.745815
3883.000000	98.742038
3882.000000	98.741816
3881.000000	98.745480
3880.000000	98.746282
3879.000000	98.739596
3878.000000	98.728067
3877.000000	98.718131
3876.000000	98.714781
3875.000000	98.717548
3874.000000	98.721345
3873.000000	98.722794
3872.000000	98.723544
3871.000000	98.725202
3870.000000	98.724469
3869.000000	98.719036
3868.000000	98.712475
3867.000000	98.709563
3866.000000	98.710971
3865.000000	98.712683
3864.000000	98.711401
3863.000000	98.710031
3862.000000	98.713040
3861.000000	98.720000
3860.000000	98.726080
3859.000000	98.726311
3858.000000	98.718676
3857.000000	98.705592
3856.000000	98.694525
3855.000000	98.693269
3854.000000	98.697908
3853.000000	98.698180
3852.000000	98.696144
3851.000000	98.698254
3850.000000	98.704778
3849.000000	98.712960
3848.000000	98.720285
3847.000000	98.725722
3846.000000	98.729463
3845.000000	98.732038
3844.000000	98.733551
3843.000000	98.733836
3842.000000	98.732960
3841.000000	98.731426
3840.000000	98.729699
3839.000000	98.727779
3838.000000	98.726259
3837.000000	98.726423
3836.000000	98.728237
3835.000000	98.730151
3834.000000	98.730838
3833.000000	98.729580
3832.000000	98.725553
3831.000000	98.718926
3830.000000	98.712106
3829.000000	98.709229
3828.000000	98.713184
3827.000000	98.722045
3826.000000	98.729219
3825.000000	98.729322
3824.000000	98.723738
3823.000000	98.719761
3822.000000	98.722239
3821.000000	98.727767
3820.000000	98.731182
3819.000000	98.732151
3818.000000	98.734692
3817.000000	98.741241
3816.000000	98.747826
3815.000000	98.750312
3814.000000	98.750543
3813.000000	98.751727
3812.000000	98.753576
3811.000000	98.753064
3810.000000	98.748717
3809.000000	98.743168
3808.000000	98.739678
3807.000000	98.737685
3806.000000	98.734783
3805.000000	98.730666
3804.000000	98.728088
3803.000000	98.730175
3802.000000	98.734520
3801.000000	98.736548
3800.000000	98.737893
3799.000000	98.742051
3798.000000	98.749329
3797.000000	98.757067
3796.000000	98.762311
3795.000000	98.764916
3794.000000	98.766365
3793.000000	98.766895
3792.000000	98.765375
3791.000000	98.761534
3790.000000	98.756989
3789.000000	98.753664
3788.000000	98.751892
3787.000000	98.750661
3786.000000	98.749153
3785.000000	98.747508
3784.000000	98.746461
3783.000000	98.746922
3782.000000	98.749977
3781.000000	98.756261
3780.000000	98.764051
3779.000000	98.769559
3778.000000	98.770503
3777.000000	98.767671
3776.000000	98.762745
3775.000000	98.756306
3774.000000	98.748683
3773.000000	98.742052
3772.000000	98.739976
3771.000000	98.743474
3770.000000	98.748961
3769.000000	98.752453
3768.000000	98.753596
3767.000000	98.753743
3766.000000	98.752581
3765.000000	98.749040
3764.000000	98.744597
3763.000000	98.743239
3762.000000	98.747701
3761.000000	98.756220
3760.000000	98.762794
3759.000000	98.762394
3758.000000	98.755877
3757.000000	98.747636
3756.000000	98.740843
3755.000000	98.736425
3754.000000	98.734363
3753.000000	98.734355
3752.000000	98.736609
3751.000000	98.742903
3750.000000	98.753841
3749.000000	98.764336
3748.000000	98.768198
3747.000000	98.766083
3746.000000	98.764003
3745.000000	98.761640
3744.000000	98.755033
3743.000000	98.749444
3742.000000	98.750360
3741.000000	98.755658
3740.000000	98.760223
3739.000000	98.761362
3738.000000	98.761576
3737.000000	98.764704
3736.000000	98.769627
3735.000000	98.772096
3734.000000	98.771696
3733.000000	98.771329
3732.000000	98.771995
3731.000000	98.772622
3730.000000	98.773172
3729.000000	98.775858
3728.000000	98.782863
3727.000000	98.792490
3726.000000	98.799782
3725.000000	98.802151
3724.000000	98.801747
3723.000000	98.801846
3722.000000	98.802839
3721.000000	98.802506
3720.000000	98.798894
3719.000000	98.792195
3718.000000	98.784020
3717.000000	98.775865
3716.000000	98.769039
3715.000000	98.765341
3714.000000	98.766514
3713.000000	98.771924
3712.000000	98.777208
3711.000000	98.778429
3710.000000	98.777154
3709.000000	98.778234
3708.000000	98.784428
3707.000000	98.794215
3706.000000	98.803287
3705.000000	98.807771
3704.000000	98.806935
3703.000000	98.803151
3702.000000	98.799177
3701.000000	98.795723
3700.000000	98.791974
3699.000000	98.788028
3698.000000	98.785375
3697.000000	98.784830
3696.000000	98.785447
3695.000000	98.785966
3694.000000	98.785733
3693.000000	98.784094
3692.000000	98.779944
3691.000000	98.772600
3690.000000	98.762983
3689.000000	98.754745
3688.000000	98.753154
3687.000000	98.759752
3686.000000	98.770808
3685.000000	98.781189
3684.000000	98.787284
3683.000000	98.788272
3682.000000	98.786115
3681.000000	98.782078
3680.000000	98.773720
3679.000000	98.758359
3678.000000	98.739946
3677.000000	98.728406
3676.000000	98.727087
3675.000000	98.728763
3674.000000	98.727208
3673.000000	98.723350
3672.000000	98.721983
3671.000000	98.724418
3670.000000	98.724938
3669.000000	98.720810
3668.000000	98.717102
3667.000000	98.717904
3666.000000	98.722697
3665.000000	98.728757
3664.000000	98.733177
3663.000000	98.733968
3662.000000	98.730474
3661.000000	98.723034
3660.000000	98.713014
3659.000000	98.703141
3658.000000	98.696851
3657.000000	98.694836
3656.000000	98.692898
3655.000000	98.685732
3654.000000	98.671779
3653.000000	98.654845
3652.000000	98.642377
3651.000000	98.639709
3650.000000	98.642847
3649.000000	98.640989
3648.000000	98.630094
3647.000000	98.616193
3646.000000	98.605110
3645.000000	98.598176
3644.000000	98.594871
3643.000000	98.594141
3642.000000	98.593998
3641.000000	98.591978
3640.000000	98.586738
3639.000000	98.578669
3638.000000	98.569582
3637.000000	98.561999
3636.000000	98.557691
3635.000000	98.555585
3634.000000	98.551446
3633.000000	98.541526
3632.000000	98.526334
3631.000000	98.510320
3630.000000	98.495778
3629.000000	98.480239
3628.000000	98.466654
3627.000000	98.461564
3626.000000	98.463876
3625.000000	98.467541
3624.000000	98.467038
3623.000000	98.459470
3622.000000	98.445374
3621.000000	98.427494
3620.000000	98.408519
3619.000000	98.390706
3618.000000	98.376432
3617.000000	98.366640
3616.000000	98.360319
3615.000000	98.355529
3614.000000	98.349596
3613.000000	98.340707
3612.000000	98.330098
3611.000000	98.320345
3610.000000	98.311798
3609.000000	98.302181
3608.000000	98.290452
3607.000000	98.279731
3606.000000	98.273767
3605.000000	98.272453
3604.000000	98.272253
3603.000000	98.268673
3602.000000	98.258399
3601.000000	98.241214
3600.000000	98.221081
3599.000000	98.203708
3598.000000	98.192080
3597.000000	98.184692
3596.000000	98.177683
3595.000000	98.167709
3594.000000	98.153601
3593.000000	98.136359
3592.000000	98.117801
3591.000000	98.099516
3590.000000	98.082598
3589.000000	98.067039
3588.000000	98.052125
3587.000000	98.039361
3586.000000	98.031656
3585.000000	98.028090
3584.000000	98.024351
3583.000000	98.017336
3582.000000	98.007214
3581.000000	97.996268
3580.000000	97.986096
3579.000000	97.975772
3578.000000	97.962723
3577.000000	97.945501
3576.000000	97.925279
3575.000000	97.904671
3574.000000	97.885381
3573.000000	97.867446
3572.000000	97.850370
3571.000000	97.834248
3570.000000	97.819595
3569.000000	97.806028
3568.000000	97.791452
3567.000000	97.775337
3566.000000	97.761922
3565.000000	97.754906
3564.000000	97.751798
3563.000000	97.746736
3562.000000	97.735922
3561.000000	97.720606
3560.000000	97.705738
3559.000000	97.694791
3558.000000	97.686115
3557.000000	97.675398
3556.000000	97.661037
3555.000000	97.645704
3554.000000	97.632576
3553.000000	97.620950
3552.000000	97.607005
3551.000000	97.588668
3550.000000	97.567815
3549.000000	97.547645
3548.000000	97.529442
3547.000000	97.511993
3546.000000	97.493747
3545.000000	97.475343
3544.000000	97.459142
3543.000000	97.446397
3542.000000	97.435764
3541.000000	97.424525
3540.000000	97.410703
3539.000000	97.393919
3538.000000	97.374794
3537.000000	97.354310
3536.000000	97.333943
3535.000000	97.315171
3534.000000	97.298062
3533.000000	97.281202
3532.000000	97.263823
3531.000000	97.247432
3530.000000	97.234363
3529.000000	97.224674
3528.000000	97.215597
3527.000000	97.204506
3526.000000	97.191236
3525.000000	97.176838
3524.000000	97.161616
3523.000000	97.145642
3522.000000	97.130181
3521.000000	97.116784
3520.000000	97.105044
3519.000000	97.092406
3518.000000	97.076791
3517.000000	97.059190
3516.000000	97.042990
3515.000000	97.030533
3514.000000	97.020752
3513.000000	97.010407
3512.000000	96.997382
3511.000000	96.982522
3510.000000	96.968315
3509.000000	96.955958
3508.000000	96.944053
3507.000000	96.930307
3506.000000	96.914169
3505.000000	96.897497
3504.000000	96.882961
3503.000000	96.871969
3502.000000	96.863955
3501.000000	96.857092
3500.000000	96.849143
3499.000000	96.838034
3498.000000	96.822917
3497.000000	96.805612
3496.000000	96.790412
3495.000000	96.781001
3494.000000	96.777043
3493.000000	96.774365
3492.000000	96.768678
3491.000000	96.758816
3490.000000	96.746555
3489.000000	96.733849
3488.000000	96.720814
3487.000000	96.706653
3486.000000	96.692049
3485.000000	96.679446
3484.000000	96.670379
3483.000000	96.663056
3482.000000	96.653760
3481.000000	96.641227
3480.000000	96.628243
3479.000000	96.617830
3478.000000	96.609086
3477.000000	96.598375
3476.000000	96.584130
3475.000000	96.569176
3474.000000	96.557606
3473.000000	96.550061
3472.000000	96.543048
3471.000000	96.532656
3470.000000	96.518347
3469.000000	96.503251
3468.000000	96.491326
3467.000000	96.484205
3466.000000	96.480150
3465.000000	96.475329
3464.000000	96.465881
3463.000000	96.449851
3462.000000	96.428662
3461.000000	96.406971
3460.000000	96.389690
3459.000000	96.378065
3458.000000	96.369139
3457.000000	96.359460
3456.000000	96.348710
3455.000000	96.339088
3454.000000	96.331910
3453.000000	96.326255
3452.000000	96.320620
3451.000000	96.314282
3450.000000	96.306556
3449.000000	96.296250
3448.000000	96.283248
3447.000000	96.270215
3446.000000	96.260874
3445.000000	96.255711
3444.000000	96.250465
3443.000000	96.239489
3442.000000	96.220821
3441.000000	96.198206
3440.000000	96.177941
3439.000000	96.163632
3438.000000	96.154182
3437.000000	96.146471
3436.000000	96.139060
3435.000000	96.132748
3434.000000	96.128236
3433.000000	96.124611
3432.000000	96.120470
3431.000000	96.115455
3430.000000	96.109893
3429.000000	96.103495
3428.000000	96.095367
3427.000000	96.085211
3426.000000	96.073668
3425.000000	96.061217
3424.000000	96.047294
3423.000000	96.031128
3422.000000	96.013345
3421.000000	95.996341
3420.000000	95.982786
3419.000000	95.973834
3418.000000	95.969029
3417.000000	95.967463
3416.000000	95.968107
3415.000000	95.968879
3414.000000	95.966346
3413.000000	95.957564
3412.000000	95.942559
3411.000000	95.924638
3410.000000	95.907992
3409.000000	95.894797
3408.000000	95.884286
3407.000000	95.874222
3406.000000	95.863343
3405.000000	95.852651
3404.000000	95.844239
3403.000000	95.838650
3402.000000	95.833742
3401.000000	95.826679
3400.000000	95.816855
3399.000000	95.806371
3398.000000	95.797843
3397.000000	95.792190
3396.000000	95.788228
3395.000000	95.783607
3394.000000	95.776199
3393.000000	95.765567
3392.000000	95.753399
3391.000000	95.741787
3390.000000	95.731055
3389.000000	95.720146
3388.000000	95.709031
3387.000000	95.699334
3386.000000	95.691933
3385.000000	95.685107
3384.000000	95.676328
3383.000000	95.665365
3382.000000	95.654519
3381.000000	95.646011
3380.000000	95.639898
3379.000000	95.634206
3378.000000	95.626367
3377.000000	95.614945
3376.000000	95.600966
3375.000000	95.587457
3374.000000	95.576609
3373.000000	95.567168
3372.000000	95.555375
3371.000000	95.538723
3370.000000	95.518159
3369.000000	95.496446
3368.000000	95.475428
3367.000000	95.455717
3366.000000	95.438297
3365.000000	95.424820
3364.000000	95.415658
3363.000000	95.408252
3362.000000	95.397925
3361.000000	95.380494
3360.000000	95.354535
3359.000000	95.322147
3358.000000	95.288312
3357.000000	95.258997
3356.000000	95.238132
3355.000000	95.224977
3354.000000	95.214366
3353.000000	95.200240
3352.000000	95.179453
3351.000000	95.152669
3350.000000	95.122672
3349.000000	95.092614
3348.000000	95.065228
3347.000000	95.042051
3346.000000	95.022527
3345.000000	95.004282
3344.000000	94.984901
3343.000000	94.963340
3342.000000	94.939598
3341.000000	94.913825
3340.000000	94.886471
3339.000000	94.858884
3338.000000	94.832836
3337.000000	94.809396
3336.000000	94.788708
3335.000000	94.770645
3334.000000	94.754822
3333.000000	94.739789
3332.000000	94.723211
3331.000000	94.703828
3330.000000	94.682989
3329.000000	94.663516
3328.000000	94.646895
3327.000000	94.631972
3326.000000	94.616562
3325.000000	94.599868
3324.000000	94.582980
3323.000000	94.567338
3322.000000	94.553314
3321.000000	94.540274
3320.000000	94.527415
3319.000000	94.514308
3318.000000	94.500909
3317.000000	94.487273
3316.000000	94.473287
3315.000000	94.458928
3314.000000	94.445293
3313.000000	94.435148
3312.000000	94.431109
3311.000000	94.432520
3310.000000	94.434894
3309.000000	94.433659
3308.000000	94.428462
3307.000000	94.422695
3306.000000	94.418929
3305.000000	94.416185
3304.000000	94.411860
3303.000000	94.404897
3302.000000	94.396184
3301.000000	94.386764
3300.000000	94.376922
3299.000000	94.366835
3298.000000	94.357051
3297.000000	94.348374
3296.000000	94.341970
3295.000000	94.339275
3294.000000	94.340611
3293.000000	94.343708
3292.000000	94.344642
3291.000000	94.340949
3290.000000	94.333535
3289.000000	94.325330
3288.000000	94.318684
3287.000000	94.314294
3286.000000	94.311797
3285.000000	94.310552
3284.000000	94.310125
3283.000000	94.310605
3282.000000	94.312426
3281.000000	94.315709
3280.000000	94.320058
3279.000000	94.325018
3278.000000	94.330237
3277.000000	94.335049
3276.000000	94.338894
3275.000000	94.342935
3274.000000	94.350125
3273.000000	94.362082
3272.000000	94.376052
3271.000000	94.386421
3270.000000	94.389758
3269.000000	94.387493
3268.000000	94.383629
3267.000000	94.381255
3266.000000	94.381940
3265.000000	94.387187
3264.000000	94.398385
3263.000000	94.414904
3262.000000	94.433355
3261.000000	94.449577
3260.000000	94.461370
3259.000000	94.469121
3258.000000	94.474235
3257.000000	94.477676
3256.000000	94.480080
3255.000000	94.482613
3254.000000	94.486904
3253.000000	94.493991
3252.000000	94.503956
3251.000000	94.516745
3250.000000	94.532494
3249.000000	94.550260
3248.000000	94.567084
3247.000000	94.579699
3246.000000	94.587436
3245.000000	94.592683
3244.000000	94.598164
3243.000000	94.604667
3242.000000	94.611672
3241.000000	94.619006
3240.000000	94.627054
3239.000000	94.636064
3238.000000	94.646011
3237.000000	94.656550
3236.000000	94.666445
3235.000000	94.673964
3234.000000	94.678932
3233.000000	94.683730
3232.000000	94.690957
3231.000000	94.700215
3230.000000	94.708516
3229.000000	94.713926
3228.000000	94.717712
3227.000000	94.722721
3226.000000	94.730591
3225.000000	94.740910
3224.000000	94.751996
3223.000000	94.761796
3222.000000	94.768759
3221.000000	94.772809
3220.000000	94.775554
3219.000000	94.779076
3218.000000	94.784423
3217.000000	94.791428
3216.000000	94.799690
3215.000000	94.809464
3214.000000	94.821590
3213.000000	94.836339
3212.000000	94.852136
3211.000000	94.865626
3210.000000	94.873783
3209.000000	94.876358
3208.000000	94.876178
3207.000000	94.877118
3206.000000	94.881977
3205.000000	94.891828
3204.000000	94.906083
3203.000000	94.922586
3202.000000	94.938376
3201.000000	94.951221
3200.000000	94.960689
3199.000000	94.967911
3198.000000	94.974668
3197.000000	94.982690
3196.000000	94.992956
3195.000000	95.005028
3194.000000	95.017351
3193.000000	95.028655
3192.000000	95.039168
3191.000000	95.050223
3190.000000	95.062790
3189.000000	95.076626
3188.000000	95.090876
3187.000000	95.105417
3186.000000	95.121512
3185.000000	95.140819
3184.000000	95.163365
3183.000000	95.186581
3182.000000	95.206774
3181.000000	95.221807
3180.000000	95.232390
3179.000000	95.241140
3178.000000	95.250723
3177.000000	95.262511
3176.000000	95.276228
3175.000000	95.290512
3174.000000	95.304099
3173.000000	95.316641
3172.000000	95.328431
3171.000000	95.339759
3170.000000	95.351124
3169.000000	95.363751
3168.000000	95.378663
3167.000000	95.394914
3166.000000	95.409893
3165.000000	95.422273
3164.000000	95.434040
3163.000000	95.448551
3162.000000	95.466687
3161.000000	95.485794
3160.000000	95.502650
3159.000000	95.516979
3158.000000	95.531713
3157.000000	95.549831
3156.000000	95.571043
3155.000000	95.591542
3154.000000	95.607095
3153.000000	95.616561
3152.000000	95.622658
3151.000000	95.629669
3150.000000	95.640650
3149.000000	95.656278
3148.000000	95.675244
3147.000000	95.695091
3146.000000	95.713262
