PE IR       SUBTECH     SPECTRUM    ASCII       PEDS        4.00        
   -1
Veau_Al-1-F001_1.ASC
23/09/13
10:48:45.00
23/09/13
11:33:37.00
uco
Sample 001 By uco Date Wednesday, September 13 2023
450.000000
#HDR
-1
-1
#GR
cm-1
%T
1.0
0.0
4000.000000
-1.000000
3551
8
98.987545
84.716882
#DATA
4000.000000	98.834398
3999.000000	98.833140
3998.000000	98.836994
3997.000000	98.842667
3996.000000	98.846750
3995.000000	98.848963
3994.000000	98.851580
3993.000000	98.828504
3992.000000	98.834343
3991.000000	98.840605
3990.000000	98.845911
3989.000000	98.848966
3988.000000	98.848567
3987.000000	98.843870
3986.000000	98.835571
3985.000000	98.826092
3984.000000	98.818208
3983.000000	98.813282
3982.000000	98.810800
3981.000000	98.809433
3980.000000	98.808440
3979.000000	98.808153
3978.000000	98.809189
3977.000000	98.811436
3976.000000	98.813835
3975.000000	98.815107
3974.000000	98.814778
3973.000000	98.813472
3972.000000	98.812357
3971.000000	98.812260
3970.000000	98.813201
3969.000000	98.814227
3968.000000	98.813555
3967.000000	98.809866
3966.000000	98.803879
3965.000000	98.798538
3964.000000	98.797040
3963.000000	98.800443
3962.000000	98.807065
3961.000000	98.813962
3960.000000	98.819035
3959.000000	98.821265
3958.000000	98.820119
3957.000000	98.815448
3956.000000	98.807542
3955.000000	98.797577
3954.000000	98.787871
3953.000000	98.781763
3952.000000	98.782352
3951.000000	98.790354
3950.000000	98.802921
3949.000000	98.814128
3948.000000	98.818317
3947.000000	98.814073
3946.000000	98.804476
3945.000000	98.794591
3944.000000	98.788554
3943.000000	98.787011
3942.000000	98.786998
3941.000000	98.784388
3940.000000	98.777416
3939.000000	98.768050
3938.000000	98.760861
3937.000000	98.760218
3936.000000	98.766583
3935.000000	98.776132
3934.000000	98.783874
3933.000000	98.786904
3932.000000	98.785748
3931.000000	98.782613
3930.000000	98.779234
3929.000000	98.775719
3928.000000	98.771322
3927.000000	98.767086
3926.000000	98.765981
3925.000000	98.770408
3924.000000	98.779708
3923.000000	98.790957
3922.000000	98.801409
3921.000000	98.809552
3920.000000	98.814564
3919.000000	98.815985
3918.000000	98.813588
3917.000000	98.807928
3916.000000	98.800521
3915.000000	98.792564
3914.000000	98.784503
3913.000000	98.776637
3912.000000	98.769892
3911.000000	98.764594
3910.000000	98.760129
3909.000000	98.755913
3908.000000	98.752688
3907.000000	98.753609
3906.000000	98.762774
3905.000000	98.781391
3904.000000	98.803610
3903.000000	98.818871
3902.000000	98.821564
3901.000000	98.815070
3900.000000	98.805628
3899.000000	98.797448
3898.000000	98.791621
3897.000000	98.787499
3896.000000	98.784711
3895.000000	98.783179
3894.000000	98.783465
3893.000000	98.786181
3892.000000	98.790094
3891.000000	98.791670
3890.000000	98.790019
3889.000000	98.787939
3888.000000	98.787953
3887.000000	98.790167
3886.000000	98.792421
3885.000000	98.792204
3884.000000	98.789092
3883.000000	98.784466
3882.000000	98.779572
3881.000000	98.774573
3880.000000	98.767926
3879.000000	98.758853
3878.000000	98.749363
3877.000000	98.742381
3876.000000	98.739714
3875.000000	98.742516
3874.000000	98.751133
3873.000000	98.763617
3872.000000	98.776256
3871.000000	98.784994
3870.000000	98.787635
3869.000000	98.786499
3868.000000	98.785973
3867.000000	98.786103
3866.000000	98.782717
3865.000000	98.774174
3864.000000	98.764704
3863.000000	98.760142
3862.000000	98.762164
3861.000000	98.767297
3860.000000	98.770162
3859.000000	98.768219
3858.000000	98.763024
3857.000000	98.759104
3856.000000	98.760968
3855.000000	98.768670
3854.000000	98.780998
3853.000000	98.788185
3852.000000	98.782504
3851.000000	98.772513
3850.000000	98.766103
3849.000000	98.762076
3848.000000	98.758185
3847.000000	98.753586
3846.000000	98.749554
3845.000000	98.748540
3844.000000	98.751975
3843.000000	98.758692
3842.000000	98.766160
3841.000000	98.771733
3840.000000	98.774180
3839.000000	98.773693
3838.000000	98.770696
3837.000000	98.766781
3836.000000	98.764020
3835.000000	98.763572
3834.000000	98.765533
3833.000000	98.768173
3832.000000	98.767435
3831.000000	98.760659
3830.000000	98.750127
3829.000000	98.742387
3828.000000	98.742669
3827.000000	98.750542
3826.000000	98.761217
3825.000000	98.770172
3824.000000	98.775696
3823.000000	98.776393
3822.000000	98.773075
3821.000000	98.768513
3820.000000	98.763139
3819.000000	98.758455
3818.000000	98.757553
3817.000000	98.761080
3816.000000	98.764605
3815.000000	98.764304
3814.000000	98.762087
3813.000000	98.761506
3812.000000	98.763314
3811.000000	98.766001
3810.000000	98.768660
3809.000000	98.771174
3808.000000	98.773162
3807.000000	98.773592
3806.000000	98.772624
3805.000000	98.771550
3804.000000	98.770467
3803.000000	98.766463
3802.000000	98.758400
3801.000000	98.750057
3800.000000	98.748564
3799.000000	98.755463
3798.000000	98.765929
3797.000000	98.773356
3796.000000	98.773547
3795.000000	98.767238
3794.000000	98.758989
3793.000000	98.753438
3792.000000	98.751835
3791.000000	98.751945
3790.000000	98.750846
3789.000000	98.747484
3788.000000	98.742361
3787.000000	98.736698
3786.000000	98.732081
3785.000000	98.730032
3784.000000	98.730814
3783.000000	98.732780
3782.000000	98.733481
3781.000000	98.731970
3780.000000	98.730226
3779.000000	98.730680
3778.000000	98.733859
3777.000000	98.738382
3776.000000	98.742123
3775.000000	98.743433
3774.000000	98.743299
3773.000000	98.745160
3772.000000	98.751466
3771.000000	98.761014
3770.000000	98.769999
3769.000000	98.775681
3768.000000	98.777489
3767.000000	98.775250
3766.000000	98.768131
3765.000000	98.757270
3764.000000	98.747361
3763.000000	98.742825
3762.000000	98.743857
3761.000000	98.747453
3760.000000	98.751139
3759.000000	98.753749
3758.000000	98.755986
3757.000000	98.760361
3756.000000	98.768573
3755.000000	98.779891
3754.000000	98.793508
3753.000000	98.810553
3752.000000	98.831549
3751.000000	98.849853
3750.000000	98.854727
3749.000000	98.847664
3748.000000	98.838780
3747.000000	98.832729
3746.000000	98.825561
3745.000000	98.810446
3744.000000	98.788657
3743.000000	98.773778
3742.000000	98.775185
3741.000000	98.789809
3740.000000	98.808588
3739.000000	98.823723
3738.000000	98.830664
3737.000000	98.831139
3736.000000	98.832283
3735.000000	98.839974
3734.000000	98.853257
3733.000000	98.863143
3732.000000	98.860031
3731.000000	98.844265
3730.000000	98.825533
3729.000000	98.812935
3728.000000	98.808132
3727.000000	98.806830
3726.000000	98.804086
3725.000000	98.798886
3724.000000	98.793290
3723.000000	98.789182
3722.000000	98.787484
3721.000000	98.787571
3720.000000	98.788769
3719.000000	98.790710
3718.000000	98.793524
3717.000000	98.797633
3716.000000	98.802686
3715.000000	98.806581
3714.000000	98.805083
3713.000000	98.795097
3712.000000	98.780018
3711.000000	98.768301
3710.000000	98.765923
3709.000000	98.773120
3708.000000	98.785120
3707.000000	98.796304
3706.000000	98.804119
3705.000000	98.808650
3704.000000	98.811289
3703.000000	98.812852
3702.000000	98.811681
3701.000000	98.804141
3700.000000	98.788987
3699.000000	98.769820
3698.000000	98.752141
3697.000000	98.739756
3696.000000	98.733148
3695.000000	98.729858
3694.000000	98.727475
3693.000000	98.727137
3692.000000	98.734261
3691.000000	98.753885
3690.000000	98.780726
3689.000000	98.796001
3688.000000	98.787951
3687.000000	98.767701
3686.000000	98.751896
3685.000000	98.746762
3684.000000	98.749523
3683.000000	98.753297
3682.000000	98.751656
3681.000000	98.741841
3680.000000	98.725535
3679.000000	98.707748
3678.000000	98.694887
3677.000000	98.691696
3676.000000	98.699142
3675.000000	98.709103
3674.000000	98.714662
3673.000000	98.716779
3672.000000	98.716443
3671.000000	98.709125
3670.000000	98.692147
3669.000000	98.671879
3668.000000	98.658480
3667.000000	98.654160
3666.000000	98.654533
3665.000000	98.654330
3664.000000	98.650241
3663.000000	98.641274
3662.000000	98.629268
3661.000000	98.617747
3660.000000	98.608730
3659.000000	98.601906
3658.000000	98.596425
3657.000000	98.592457
3656.000000	98.589373
3655.000000	98.585339
3654.000000	98.580360
3653.000000	98.576056
3652.000000	98.574488
3651.000000	98.578407
3650.000000	98.585927
3649.000000	98.581608
3648.000000	98.556477
3647.000000	98.525883
3646.000000	98.505748
3645.000000	98.496946
3644.000000	98.492723
3643.000000	98.486189
3642.000000	98.474183
3641.000000	98.458292
3640.000000	98.441495
3639.000000	98.425086
3638.000000	98.409365
3637.000000	98.395107
3636.000000	98.383455
3635.000000	98.375507
3634.000000	98.373166
3633.000000	98.378152
3632.000000	98.388772
3631.000000	98.398004
3630.000000	98.397218
3629.000000	98.383312
3628.000000	98.361872
3627.000000	98.343625
3626.000000	98.332030
3625.000000	98.323253
3624.000000	98.312029
3623.000000	98.295952
3622.000000	98.275978
3621.000000	98.255141
3620.000000	98.236173
3619.000000	98.219218
3618.000000	98.202873
3617.000000	98.188233
3616.000000	98.176852
3615.000000	98.167346
3614.000000	98.156932
3613.000000	98.144780
3612.000000	98.133112
3611.000000	98.123241
3610.000000	98.112451
3609.000000	98.097029
3608.000000	98.077910
3607.000000	98.060569
3606.000000	98.049550
3605.000000	98.044455
3604.000000	98.040554
3603.000000	98.032694
3602.000000	98.017900
3601.000000	97.996423
3600.000000	97.971738
3599.000000	97.948703
3598.000000	97.929902
3597.000000	97.914299
3596.000000	97.898251
3595.000000	97.878733
3594.000000	97.857268
3593.000000	97.838845
3592.000000	97.826785
3591.000000	97.819676
3590.000000	97.813584
3589.000000	97.805339
3588.000000	97.792410
3587.000000	97.771491
3586.000000	97.745174
3585.000000	97.720191
3584.000000	97.698629
3583.000000	97.678074
3582.000000	97.656733
3581.000000	97.635307
3580.000000	97.615457
3579.000000	97.597373
3578.000000	97.580069
3577.000000	97.563260
3576.000000	97.547579
3575.000000	97.532992
3574.000000	97.518299
3573.000000	97.502415
3572.000000	97.484536
3571.000000	97.464187
3570.000000	97.442044
3569.000000	97.421618
3568.000000	97.406584
3567.000000	97.394701
3566.000000	97.381025
3565.000000	97.367078
3564.000000	97.354678
3563.000000	97.340925
3562.000000	97.322793
3561.000000	97.301148
3560.000000	97.279475
3559.000000	97.260441
3558.000000	97.244036
3557.000000	97.228876
3556.000000	97.213717
3555.000000	97.197807
3554.000000	97.180651
3553.000000	97.162261
3552.000000	97.142969
3551.000000	97.123153
3550.000000	97.103057
3549.000000	97.082863
3548.000000	97.063076
3547.000000	97.044091
3546.000000	97.025447
3545.000000	97.006592
3544.000000	96.987782
3543.000000	96.968810
3542.000000	96.948540
3541.000000	96.925554
3540.000000	96.898999
3539.000000	96.869845
3538.000000	96.841409
3537.000000	96.817988
3536.000000	96.801103
3535.000000	96.788039
3534.000000	96.774460
3533.000000	96.757649
3532.000000	96.737386
3531.000000	96.715173
3530.000000	96.693827
3529.000000	96.676566
3528.000000	96.664777
3527.000000	96.656555
3526.000000	96.648179
3525.000000	96.636419
3524.000000	96.619662
3523.000000	96.598473
3522.000000	96.575515
3521.000000	96.553608
3520.000000	96.533344
3519.000000	96.513670
3518.000000	96.494288
3517.000000	96.476394
3516.000000	96.460783
3515.000000	96.446245
3514.000000	96.430971
3513.000000	96.414598
3512.000000	96.398512
3511.000000	96.384798
3510.000000	96.374644
3509.000000	96.366485
3508.000000	96.355888
3507.000000	96.339285
3506.000000	96.318513
3505.000000	96.300828
3504.000000	96.292237
3503.000000	96.290633
3502.000000	96.287857
3501.000000	96.277819
3500.000000	96.259936
3499.000000	96.236427
3498.000000	96.210105
3497.000000	96.184168
3496.000000	96.161893
3495.000000	96.145217
3494.000000	96.133773
3493.000000	96.125279
3492.000000	96.116752
3491.000000	96.106297
3490.000000	96.094173
3489.000000	96.081407
3488.000000	96.067363
3487.000000	96.050184
3486.000000	96.029977
3485.000000	96.009808
3484.000000	95.992550
3483.000000	95.978078
3482.000000	95.964658
3481.000000	95.951996
3480.000000	95.940930
3479.000000	95.930716
3478.000000	95.918836
3477.000000	95.903977
3476.000000	95.887984
3475.000000	95.874319
3474.000000	95.864631
3473.000000	95.856641
3472.000000	95.845231
3471.000000	95.826544
3470.000000	95.802157
3469.000000	95.778790
3468.000000	95.763062
3467.000000	95.756294
3466.000000	95.754077
3465.000000	95.749969
3464.000000	95.739078
3463.000000	95.720014
3462.000000	95.695620
3461.000000	95.671414
3460.000000	95.651463
3459.000000	95.635319
3458.000000	95.619677
3457.000000	95.602885
3456.000000	95.586704
3455.000000	95.574208
3454.000000	95.566912
3453.000000	95.563754
3452.000000	95.561766
3451.000000	95.557398
3450.000000	95.548651
3449.000000	95.536597
3448.000000	95.524457
3447.000000	95.514629
3446.000000	95.506623
3445.000000	95.497439
3444.000000	95.483592
3443.000000	95.463619
3442.000000	95.439864
3441.000000	95.417489
3440.000000	95.400286
3439.000000	95.387632
3438.000000	95.376175
3437.000000	95.364085
3436.000000	95.352371
3435.000000	95.342572
3434.000000	95.334427
3433.000000	95.326207
3432.000000	95.316979
3431.000000	95.307764
3430.000000	95.300748
3429.000000	95.296834
3428.000000	95.293770
3427.000000	95.287463
3426.000000	95.275615
3425.000000	95.259629
3424.000000	95.242584
3423.000000	95.226422
3422.000000	95.211779
3421.000000	95.199010
3420.000000	95.187720
3419.000000	95.176212
3418.000000	95.163372
3417.000000	95.150652
3416.000000	95.140594
3415.000000	95.133304
3414.000000	95.125786
3413.000000	95.115137
3412.000000	95.101402
3411.000000	95.087119
3410.000000	95.074921
3409.000000	95.065681
3408.000000	95.058123
3407.000000	95.050115
3406.000000	95.040614
3405.000000	95.030388
3404.000000	95.020498
3403.000000	95.010797
3402.000000	95.000653
3401.000000	94.990426
3400.000000	94.981339
3399.000000	94.974028
3398.000000	94.967915
3397.000000	94.961689
3396.000000	94.953899
3395.000000	94.943604
3394.000000	94.931395
3393.000000	94.919497
3392.000000	94.909832
3391.000000	94.901854
3390.000000	94.892901
3389.000000	94.880911
3388.000000	94.866618
3387.000000	94.853012
3386.000000	94.842485
3385.000000	94.834226
3384.000000	94.824745
3383.000000	94.811631
3382.000000	94.796383
3381.000000	94.782419
3380.000000	94.770481
3379.000000	94.757227
3378.000000	94.738897
3377.000000	94.715205
3376.000000	94.689214
3375.000000	94.664448
3374.000000	94.642727
3373.000000	94.623809
3372.000000	94.605930
3371.000000	94.586874
3370.000000	94.565202
3369.000000	94.540532
3368.000000	94.512934
3367.000000	94.483004
3366.000000	94.452621
3365.000000	94.424376
3364.000000	94.399364
3363.000000	94.376141
3362.000000	94.352145
3361.000000	94.325303
3360.000000	94.294146
3359.000000	94.258014
3358.000000	94.218381
3357.000000	94.178975
3356.000000	94.142948
3355.000000	94.109801
3354.000000	94.075945
3353.000000	94.038277
3352.000000	93.996662
3351.000000	93.953331
3350.000000	93.910746
3349.000000	93.870097
3348.000000	93.831303
3347.000000	93.794204
3346.000000	93.759388
3345.000000	93.727417
3344.000000	93.697262
3343.000000	93.666243
3342.000000	93.631987
3341.000000	93.594172
3340.000000	93.554450
3339.000000	93.515270
3338.000000	93.478481
3337.000000	93.444002
3336.000000	93.409785
3335.000000	93.374117
3334.000000	93.338081
3333.000000	93.304511
3332.000000	93.274294
3331.000000	93.245231
3330.000000	93.214981
3329.000000	93.183842
3328.000000	93.153909
3327.000000	93.126769
3326.000000	93.102784
3325.000000	93.081304
3324.000000	93.060379
3323.000000	93.037285
3322.000000	93.010943
3321.000000	92.983471
3320.000000	92.958293
3319.000000	92.937185
3318.000000	92.919825
3317.000000	92.905307
3316.000000	92.892803
3315.000000	92.881024
3314.000000	92.868577
3313.000000	92.855526
3312.000000	92.843898
3311.000000	92.836242
3310.000000	92.833448
3309.000000	92.833500
3308.000000	92.832419
3307.000000	92.827106
3306.000000	92.817552
3305.000000	92.805894
3304.000000	92.793375
3303.000000	92.779169
3302.000000	92.762561
3301.000000	92.745526
3300.000000	92.732169
3299.000000	92.725547
3298.000000	92.725122
3297.000000	92.726893
3296.000000	92.726408
3295.000000	92.722381
3294.000000	92.717271
3293.000000	92.713874
3292.000000	92.711974
3291.000000	92.709583
3290.000000	92.706819
3289.000000	92.706314
3288.000000	92.709279
3287.000000	92.713121
3286.000000	92.714223
3285.000000	92.712029
3284.000000	92.709650
3283.000000	92.711102
3282.000000	92.718051
3281.000000	92.728351
3280.000000	92.737715
3279.000000	92.743918
3278.000000	92.749297
3277.000000	92.757906
3276.000000	92.770580
3275.000000	92.784890
3274.000000	92.799552
3273.000000	92.815594
3272.000000	92.832482
3271.000000	92.846321
3270.000000	92.853976
3269.000000	92.856675
3268.000000	92.857752
3267.000000	92.859111
3266.000000	92.862000
3265.000000	92.869162
3264.000000	92.883014
3263.000000	92.902381
3262.000000	92.923530
3261.000000	92.944116
3260.000000	92.964185
3259.000000	92.983604
3258.000000	93.000794
3257.000000	93.014559
3256.000000	93.025751
3255.000000	93.036636
3254.000000	93.049120
3253.000000	93.063711
3252.000000	93.079870
3251.000000	93.097289
3250.000000	93.116651
3249.000000	93.138059
3248.000000	93.158696
3247.000000	93.173836
3246.000000	93.181298
3245.000000	93.184043
3244.000000	93.187327
3243.000000	93.194219
3242.000000	93.204834
3241.000000	93.218353
3240.000000	93.234107
3239.000000	93.251367
3238.000000	93.269369
3237.000000	93.287211
3236.000000	93.303080
3235.000000	93.314847
3234.000000	93.322368
3233.000000	93.327974
3232.000000	93.333685
3231.000000	93.339207
3230.000000	93.344193
3229.000000	93.350924
3228.000000	93.362428
3227.000000	93.378422
3226.000000	93.395115
3225.000000	93.408953
3224.000000	93.419231
3223.000000	93.427376
3222.000000	93.435164
3221.000000	93.443622
3220.000000	93.452308
3219.000000	93.459545
3218.000000	93.464390
3217.000000	93.468340
3216.000000	93.474385
3215.000000	93.484437
3214.000000	93.498157
3213.000000	93.513767
3212.000000	93.529104
3211.000000	93.542374
3210.000000	93.553155
3209.000000	93.562762
3208.000000	93.572805
3207.000000	93.583653
3206.000000	93.595126
3205.000000	93.608127
3204.000000	93.624223
3203.000000	93.643471
3202.000000	93.663867
3201.000000	93.683206
3200.000000	93.700509
3199.000000	93.715349
3198.000000	93.726846
3197.000000	93.734563
3196.000000	93.740415
3195.000000	93.748713
3194.000000	93.763299
3193.000000	93.784233
3192.000000	93.807549
3191.000000	93.828950
3190.000000	93.847612
3189.000000	93.865868
3188.000000	93.885638
3187.000000	93.906546
3186.000000	93.927662
3185.000000	93.949501
3184.000000	93.973098
3183.000000	93.997902
3182.000000	94.021689
3181.000000	94.042495
3180.000000	94.060296
3179.000000	94.077075
3178.000000	94.095416
3177.000000	94.116212
3176.000000	94.137443
3175.000000	94.156015
3174.000000	94.171140
3173.000000	94.185100
3172.000000	94.200422
3171.000000	94.217408
3170.000000	94.235117
3169.000000	94.253291
3168.000000	94.272085
3167.000000	94.290941
3166.000000	94.309550
3165.000000	94.329484
3164.000000	94.352915
3163.000000	94.379315
3162.000000	94.404630
3161.000000	94.424586
3160.000000	94.438403
3159.000000	94.449133
3158.000000	94.460909
3157.000000	94.476187
3156.000000	94.495113
3155.000000	94.516783
3154.000000	94.540553
3153.000000	94.565807
3152.000000	94.590943
3151.000000	94.613661
3150.000000	94.632730
3149.000000	94.648968
3148.000000	94.664183
3147.000000	94.679743
3146.000000	94.696295
