PE IR       SUBTECH     SPECTRUM    ASCII       PEDS        4.00        
   -1
Veau_UK-1-C001_1.ASC
23/09/13
10:33:01.00
23/09/13
11:33:37.00
uco
Sample 001 By uco Date Wednesday, September 13 2023
450.000000
#HDR
-1
-1
#GR
cm-1
%T
1.0
0.0
4000.000000
-1.000000
3551
8
98.864705
89.365403
#DATA
4000.000000	98.819770
3999.000000	98.818491
3998.000000	98.823406
3997.000000	98.831222
3996.000000	98.836856
3995.000000	98.837450
3994.000000	98.834277
3993.000000	98.811158
3992.000000	98.811106
3991.000000	98.815696
3990.000000	98.822793
3989.000000	98.828489
3988.000000	98.829592
3987.000000	98.825224
3986.000000	98.817102
3985.000000	98.808274
3984.000000	98.801426
3983.000000	98.797648
3982.000000	98.796428
3981.000000	98.796771
3980.000000	98.798390
3979.000000	98.801759
3978.000000	98.806776
3977.000000	98.811674
3976.000000	98.813724
3975.000000	98.811292
3974.000000	98.805311
3973.000000	98.798686
3972.000000	98.794271
3971.000000	98.793096
3970.000000	98.794114
3969.000000	98.795115
3968.000000	98.794086
3967.000000	98.790570
3966.000000	98.786040
3965.000000	98.782994
3964.000000	98.783162
3963.000000	98.786315
3962.000000	98.790692
3961.000000	98.794517
3960.000000	98.797167
3959.000000	98.798445
3958.000000	98.797587
3957.000000	98.793626
3956.000000	98.786513
3955.000000	98.777770
3954.000000	98.769838
3953.000000	98.765152
3952.000000	98.765586
3951.000000	98.771866
3950.000000	98.782684
3949.000000	98.793689
3948.000000	98.799051
3947.000000	98.795460
3946.000000	98.784344
3945.000000	98.770925
3944.000000	98.761410
3943.000000	98.759527
3942.000000	98.764346
3941.000000	98.771009
3940.000000	98.774405
3939.000000	98.772394
3938.000000	98.766919
3937.000000	98.762587
3936.000000	98.762854
3935.000000	98.767459
3934.000000	98.772995
3933.000000	98.775694
3932.000000	98.774616
3931.000000	98.771857
3930.000000	98.769920
3929.000000	98.769021
3928.000000	98.767628
3927.000000	98.765461
3926.000000	98.764003
3925.000000	98.764527
3924.000000	98.766600
3923.000000	98.769033
3922.000000	98.771316
3921.000000	98.773829
3920.000000	98.777031
3919.000000	98.780457
3918.000000	98.781987
3917.000000	98.779366
3916.000000	98.772979
3915.000000	98.765796
3914.000000	98.760823
3913.000000	98.758971
3912.000000	98.759361
3911.000000	98.759902
3910.000000	98.758582
3909.000000	98.754752
3908.000000	98.749651
3907.000000	98.746676
3906.000000	98.750368
3905.000000	98.763781
3904.000000	98.784632
3903.000000	98.804777
3902.000000	98.816044
3901.000000	98.815608
3900.000000	98.805808
3899.000000	98.792195
3898.000000	98.779653
3897.000000	98.769454
3896.000000	98.760710
3895.000000	98.753169
3894.000000	98.749050
3893.000000	98.751297
3892.000000	98.758647
3891.000000	98.763909
3890.000000	98.762061
3889.000000	98.755704
3888.000000	98.750905
3887.000000	98.751455
3886.000000	98.755340
3885.000000	98.756157
3884.000000	98.750466
3883.000000	98.741521
3882.000000	98.735021
3881.000000	98.734035
3880.000000	98.736225
3879.000000	98.737075
3878.000000	98.734800
3877.000000	98.730384
3876.000000	98.725832
3875.000000	98.723983
3874.000000	98.727776
3873.000000	98.738156
3872.000000	98.752802
3871.000000	98.765742
3870.000000	98.769730
3869.000000	98.763682
3868.000000	98.754962
3867.000000	98.750670
3866.000000	98.752011
3865.000000	98.756920
3864.000000	98.762844
3863.000000	98.767523
3862.000000	98.769791
3861.000000	98.769073
3860.000000	98.764656
3859.000000	98.756850
3858.000000	98.747265
3857.000000	98.738422
3856.000000	98.733197
3855.000000	98.734111
3854.000000	98.744252
3853.000000	98.754969
3852.000000	98.754851
3851.000000	98.748627
3850.000000	98.743862
3849.000000	98.741032
3848.000000	98.738935
3847.000000	98.737403
3846.000000	98.737522
3845.000000	98.740090
3844.000000	98.744287
3843.000000	98.748356
3842.000000	98.751430
3841.000000	98.752787
3840.000000	98.751236
3839.000000	98.746189
3838.000000	98.739273
3837.000000	98.734465
3836.000000	98.734450
3835.000000	98.738669
3834.000000	98.744656
3833.000000	98.749041
3832.000000	98.748215
3831.000000	98.741170
3830.000000	98.730852
3829.000000	98.722834
3828.000000	98.721558
3827.000000	98.727064
3826.000000	98.735242
3825.000000	98.741692
3824.000000	98.745412
3823.000000	98.748109
3822.000000	98.753353
3821.000000	98.761082
3820.000000	98.765430
3819.000000	98.764720
3818.000000	98.762621
3817.000000	98.761689
3816.000000	98.760702
3815.000000	98.758668
3814.000000	98.757496
3813.000000	98.758931
3812.000000	98.762133
3811.000000	98.764872
3810.000000	98.766270
3809.000000	98.767069
3808.000000	98.767891
3807.000000	98.767471
3806.000000	98.764466
3805.000000	98.760064
3804.000000	98.756608
3803.000000	98.753599
3802.000000	98.748632
3801.000000	98.741284
3800.000000	98.737071
3799.000000	98.740627
3798.000000	98.749876
3797.000000	98.757672
3796.000000	98.758234
3795.000000	98.752523
3794.000000	98.745922
3793.000000	98.741926
3792.000000	98.739660
3791.000000	98.736677
3790.000000	98.732445
3789.000000	98.728980
3788.000000	98.728525
3787.000000	98.731847
3786.000000	98.737838
3785.000000	98.743837
3784.000000	98.746817
3783.000000	98.745130
3782.000000	98.739529
3781.000000	98.733473
3780.000000	98.731815
3779.000000	98.736109
3778.000000	98.742564
3777.000000	98.746249
3776.000000	98.745501
3775.000000	98.742053
3774.000000	98.739539
3773.000000	98.741519
3772.000000	98.749251
3771.000000	98.760367
3770.000000	98.769703
3769.000000	98.773221
3768.000000	98.771112
3767.000000	98.766204
3766.000000	98.760161
3765.000000	98.753301
3764.000000	98.746917
3763.000000	98.743310
3762.000000	98.743605
3761.000000	98.747114
3760.000000	98.752116
3759.000000	98.755542
3758.000000	98.755101
3757.000000	98.752102
3756.000000	98.749942
3755.000000	98.750667
3754.000000	98.754915
3753.000000	98.764110
3752.000000	98.780490
3751.000000	98.800958
3750.000000	98.814769
3749.000000	98.817018
3748.000000	98.813207
3747.000000	98.809385
3746.000000	98.804748
3745.000000	98.792959
3744.000000	98.772512
3743.000000	98.754466
3742.000000	98.749248
3741.000000	98.756578
3740.000000	98.769874
3739.000000	98.782800
3738.000000	98.791520
3737.000000	98.796654
3736.000000	98.802140
3735.000000	98.811385
3734.000000	98.824974
3733.000000	98.838416
3732.000000	98.844630
3731.000000	98.841131
3730.000000	98.831721
3729.000000	98.821655
3728.000000	98.813411
3727.000000	98.806584
3726.000000	98.799618
3725.000000	98.792245
3724.000000	98.786298
3723.000000	98.784274
3722.000000	98.786812
3721.000000	98.791062
3720.000000	98.793824
3719.000000	98.794140
3718.000000	98.792758
3717.000000	98.790526
3716.000000	98.787758
3715.000000	98.784028
3714.000000	98.777493
3713.000000	98.766966
3712.000000	98.755882
3711.000000	98.750631
3710.000000	98.754141
3709.000000	98.764554
3708.000000	98.777781
3707.000000	98.790441
3706.000000	98.801369
3705.000000	98.810760
3704.000000	98.819528
3703.000000	98.827797
3702.000000	98.832814
3701.000000	98.830367
3700.000000	98.820086
3699.000000	98.806514
3698.000000	98.794211
3697.000000	98.784588
3696.000000	98.776843
3695.000000	98.769857
3694.000000	98.763379
3693.000000	98.759042
3692.000000	98.760765
3691.000000	98.772096
3690.000000	98.789218
3689.000000	98.799136
3688.000000	98.794574
3687.000000	98.784014
3686.000000	98.778258
3685.000000	98.779644
3684.000000	98.784355
3683.000000	98.787368
3682.000000	98.786152
3681.000000	98.781388
3680.000000	98.775416
3679.000000	98.770820
3678.000000	98.769939
3677.000000	98.773818
3676.000000	98.781132
3675.000000	98.785836
3674.000000	98.785584
3673.000000	98.783216
3672.000000	98.779479
3671.000000	98.770794
3670.000000	98.755543
3669.000000	98.739324
3668.000000	98.730886
3667.000000	98.732210
3666.000000	98.739020
3665.000000	98.746473
3664.000000	98.752450
3663.000000	98.756411
3662.000000	98.757303
3661.000000	98.753523
3660.000000	98.744936
3659.000000	98.734390
3658.000000	98.725913
3657.000000	98.721273
3656.000000	98.717733
3655.000000	98.711527
3654.000000	98.702790
3653.000000	98.694322
3652.000000	98.689999
3651.000000	98.695226
3650.000000	98.710794
3649.000000	98.722443
3648.000000	98.717078
3647.000000	98.702249
3646.000000	98.689957
3645.000000	98.682886
3644.000000	98.679079
3643.000000	98.676807
3642.000000	98.674914
3641.000000	98.671643
3640.000000	98.664447
3639.000000	98.652277
3638.000000	98.637911
3637.000000	98.626475
3636.000000	98.621556
3635.000000	98.623027
3634.000000	98.628566
3633.000000	98.636067
3632.000000	98.643639
3631.000000	98.647573
3630.000000	98.643263
3629.000000	98.629717
3628.000000	98.613224
3627.000000	98.603314
3626.000000	98.600630
3625.000000	98.599431
3624.000000	98.595510
3623.000000	98.589516
3622.000000	98.584497
3621.000000	98.581479
3620.000000	98.576847
3619.000000	98.564951
3618.000000	98.545119
3617.000000	98.523934
3616.000000	98.507728
3615.000000	98.497389
3614.000000	98.489771
3613.000000	98.481885
3612.000000	98.474289
3611.000000	98.468316
3610.000000	98.461208
3609.000000	98.448130
3608.000000	98.430024
3607.000000	98.415363
3606.000000	98.411422
3605.000000	98.416886
3604.000000	98.424176
3603.000000	98.426263
3602.000000	98.420386
3601.000000	98.408411
3600.000000	98.395512
3599.000000	98.386754
3598.000000	98.382483
3597.000000	98.377866
3596.000000	98.367040
3595.000000	98.348739
3594.000000	98.328719
3593.000000	98.314638
3592.000000	98.309031
3591.000000	98.308088
3590.000000	98.305764
3589.000000	98.297809
3588.000000	98.282837
3587.000000	98.262002
3586.000000	98.241205
3585.000000	98.225996
3584.000000	98.215910
3583.000000	98.207177
3582.000000	98.197200
3581.000000	98.185777
3580.000000	98.174185
3579.000000	98.163308
3578.000000	98.153104
3577.000000	98.143831
3576.000000	98.136746
3575.000000	98.132425
3574.000000	98.128890
3573.000000	98.122590
3572.000000	98.110870
3571.000000	98.093638
3570.000000	98.073084
3569.000000	98.053134
3568.000000	98.036912
3567.000000	98.023503
3566.000000	98.011321
3565.000000	98.002947
3564.000000	97.998806
3563.000000	97.994308
3562.000000	97.985123
3561.000000	97.971992
3560.000000	97.959979
3559.000000	97.953001
3558.000000	97.949247
3557.000000	97.943473
3556.000000	97.932860
3555.000000	97.919200
3554.000000	97.905677
3553.000000	97.893008
3552.000000	97.879288
3551.000000	97.863170
3550.000000	97.846006
3549.000000	97.831297
3548.000000	97.822885
3547.000000	97.821381
3546.000000	97.821353
3545.000000	97.815190
3544.000000	97.801000
3543.000000	97.783091
3542.000000	97.766003
3541.000000	97.750536
3540.000000	97.735273
3539.000000	97.719788
3538.000000	97.705081
3537.000000	97.691922
3536.000000	97.679737
3535.000000	97.667686
3534.000000	97.655503
3533.000000	97.643037
3532.000000	97.630069
3531.000000	97.616740
3530.000000	97.603746
3529.000000	97.591813
3528.000000	97.581145
3527.000000	97.571421
3526.000000	97.561911
3525.000000	97.551394
3524.000000	97.538908
3523.000000	97.525092
3522.000000	97.512128
3521.000000	97.501635
3520.000000	97.492853
3519.000000	97.483558
3518.000000	97.472249
3517.000000	97.459433
3516.000000	97.446884
3515.000000	97.435521
3514.000000	97.424406
3513.000000	97.411895
3512.000000	97.397974
3511.000000	97.385157
3510.000000	97.376285
3509.000000	97.371195
3508.000000	97.366469
3507.000000	97.358971
3506.000000	97.348769
3505.000000	97.338540
3504.000000	97.330204
3503.000000	97.322841
3502.000000	97.314526
3501.000000	97.304807
3500.000000	97.294083
3499.000000	97.282093
3498.000000	97.268659
3497.000000	97.255096
3496.000000	97.243748
3495.000000	97.235658
3494.000000	97.229505
3493.000000	97.223209
3492.000000	97.215923
3491.000000	97.208323
3490.000000	97.201590
3489.000000	97.196239
3488.000000	97.191464
3487.000000	97.185387
3486.000000	97.176474
3485.000000	97.165112
3484.000000	97.153417
3483.000000	97.143203
3482.000000	97.134416
3481.000000	97.125970
3480.000000	97.117508
3479.000000	97.109426
3478.000000	97.101631
3477.000000	97.093590
3476.000000	97.085601
3475.000000	97.079058
3474.000000	97.074926
3473.000000	97.072217
3472.000000	97.068191
3471.000000	97.060320
3470.000000	97.048717
3469.000000	97.036769
3468.000000	97.028521
3467.000000	97.024531
3466.000000	97.020517
3465.000000	97.011044
3464.000000	96.994460
3463.000000	96.974026
3462.000000	96.954793
3461.000000	96.940040
3460.000000	96.930139
3459.000000	96.923432
3458.000000	96.917794
3457.000000	96.912109
3456.000000	96.906374
3455.000000	96.900467
3454.000000	96.893423
3453.000000	96.884745
3452.000000	96.875944
3451.000000	96.869334
3450.000000	96.865417
3449.000000	96.862387
3448.000000	96.858032
3447.000000	96.851293
3446.000000	96.842224
3445.000000	96.831144
3444.000000	96.818248
3443.000000	96.803783
3442.000000	96.788556
3441.000000	96.774560
3440.000000	96.764407
3439.000000	96.759295
3438.000000	96.757610
3437.000000	96.756275
3436.000000	96.752979
3435.000000	96.746478
3434.000000	96.735605
3433.000000	96.719912
3432.000000	96.701799
3431.000000	96.686085
3430.000000	96.676602
3429.000000	96.673542
3428.000000	96.674193
3427.000000	96.675112
3426.000000	96.673148
3425.000000	96.665808
3424.000000	96.652133
3423.000000	96.633575
3422.000000	96.613584
3421.000000	96.595858
3420.000000	96.582174
3419.000000	96.571362
3418.000000	96.560703
3417.000000	96.548703
3416.000000	96.536501
3415.000000	96.526335
3414.000000	96.519072
3413.000000	96.513760
3412.000000	96.509068
3411.000000	96.504168
3410.000000	96.498506
3409.000000	96.491673
3408.000000	96.483507
3407.000000	96.473578
3406.000000	96.460888
3405.000000	96.445368
3404.000000	96.429454
3403.000000	96.416682
3402.000000	96.408025
3401.000000	96.400709
3400.000000	96.391354
3399.000000	96.379489
3398.000000	96.367559
3397.000000	96.358177
3396.000000	96.351941
3395.000000	96.347347
3394.000000	96.342165
3393.000000	96.335096
3392.000000	96.326446
3391.000000	96.316975
3390.000000	96.306355
3389.000000	96.293890
3388.000000	96.280788
3387.000000	96.270234
3386.000000	96.264122
3385.000000	96.260513
3384.000000	96.255403
3383.000000	96.246473
3382.000000	96.234198
3381.000000	96.219962
3380.000000	96.204569
3379.000000	96.188467
3378.000000	96.172406
3377.000000	96.157540
3376.000000	96.145167
3375.000000	96.135987
3374.000000	96.129029
3373.000000	96.121740
3372.000000	96.111992
3371.000000	96.099850
3370.000000	96.086645
3369.000000	96.072729
3368.000000	96.057305
3367.000000	96.040660
3366.000000	96.025325
3365.000000	96.013973
3364.000000	96.006403
3363.000000	95.999246
3362.000000	95.988654
3361.000000	95.973084
3360.000000	95.953555
3359.000000	95.931744
3358.000000	95.908618
3357.000000	95.885189
3356.000000	95.863793
3355.000000	95.847295
3354.000000	95.836540
3353.000000	95.829128
3352.000000	95.821043
3351.000000	95.809200
3350.000000	95.792625
3349.000000	95.772376
3348.000000	95.751064
3347.000000	95.731849
3346.000000	95.716620
3345.000000	95.704569
3344.000000	95.692561
3343.000000	95.676965
3342.000000	95.655795
3341.000000	95.630046
3340.000000	95.603515
3339.000000	95.580557
3338.000000	95.563027
3337.000000	95.549235
3336.000000	95.536086
3335.000000	95.521954
3334.000000	95.507199
3333.000000	95.492479
3332.000000	95.477475
3331.000000	95.461250
3330.000000	95.443181
3329.000000	95.423541
3328.000000	95.403611
3327.000000	95.385271
3326.000000	95.369939
3325.000000	95.357550
3324.000000	95.346606
3323.000000	95.335290
3322.000000	95.322691
3321.000000	95.309277
3320.000000	95.296352
3319.000000	95.284849
3318.000000	95.274310
3317.000000	95.262924
3316.000000	95.248734
3315.000000	95.231178
3314.000000	95.212192
3313.000000	95.196139
3312.000000	95.187637
3311.000000	95.187938
3310.000000	95.193035
3309.000000	95.196194
3308.000000	95.193260
3307.000000	95.185345
3306.000000	95.176346
3305.000000	95.168739
3304.000000	95.161888
3303.000000	95.153303
3302.000000	95.140885
3301.000000	95.124832
3300.000000	95.108211
3299.000000	95.095129
3298.000000	95.087353
3297.000000	95.082872
3296.000000	95.078418
3295.000000	95.072874
3294.000000	95.067273
3293.000000	95.062065
3292.000000	95.056076
3291.000000	95.048468
3290.000000	95.040445
3289.000000	95.034031
3288.000000	95.029630
3287.000000	95.025570
3286.000000	95.020074
3285.000000	95.013343
3284.000000	95.007674
3283.000000	95.005467
3282.000000	95.006862
3281.000000	95.009470
3280.000000	95.010691
3279.000000	95.010132
3278.000000	95.009540
3277.000000	95.010679
3276.000000	95.013905
3275.000000	95.018547
3274.000000	95.023468
3273.000000	95.026879
3272.000000	95.026794
3271.000000	95.022834
3270.000000	95.017298
3269.000000	95.013561
3268.000000	95.013456
3267.000000	95.016636
3266.000000	95.022145
3265.000000	95.029648
3264.000000	95.038840
3263.000000	95.048448
3262.000000	95.056612
3261.000000	95.062297
3260.000000	95.066073
3259.000000	95.069479
3258.000000	95.073698
3257.000000	95.078868
3256.000000	95.084563
3255.000000	95.090793
3254.000000	95.098137
3253.000000	95.106754
3252.000000	95.115788
3251.000000	95.124362
3250.000000	95.133062
3249.000000	95.143498
3248.000000	95.155974
3247.000000	95.168209
3246.000000	95.176943
3245.000000	95.180768
3244.000000	95.181061
3243.000000	95.180433
3242.000000	95.181009
3241.000000	95.184057
3240.000000	95.190397
3239.000000	95.200457
3238.000000	95.213771
3237.000000	95.228400
3236.000000	95.240960
3235.000000	95.248211
3234.000000	95.249497
3233.000000	95.247541
3232.000000	95.246178
3231.000000	95.247244
3230.000000	95.250364
3229.000000	95.255248
3228.000000	95.262650
3227.000000	95.272714
3226.000000	95.283793
3225.000000	95.293960
3224.000000	95.302868
3223.000000	95.311057
3222.000000	95.317981
3221.000000	95.321979
3220.000000	95.322173
3219.000000	95.319750
3218.000000	95.317334
3217.000000	95.317514
3216.000000	95.321579
3215.000000	95.328835
3214.000000	95.337461
3213.000000	95.346654
3212.000000	95.357325
3211.000000	95.369719
3210.000000	95.381274
3209.000000	95.388791
3208.000000	95.392521
3207.000000	95.396287
3206.000000	95.403035
3205.000000	95.411992
3204.000000	95.420866
3203.000000	95.429272
3202.000000	95.438690
3201.000000	95.449855
3200.000000	95.461378
3199.000000	95.470793
3198.000000	95.476540
3197.000000	95.479479
3196.000000	95.482983
3195.000000	95.490675
3194.000000	95.503311
3193.000000	95.518123
3192.000000	95.531476
3191.000000	95.541750
3190.000000	95.549544
3189.000000	95.556366
3188.000000	95.564042
3187.000000	95.574355
3186.000000	95.587758
3185.000000	95.602596
3184.000000	95.616691
3183.000000	95.629548
3182.000000	95.642258
3181.000000	95.655603
3180.000000	95.669262
3179.000000	95.682623
3178.000000	95.695349
3177.000000	95.707161
3176.000000	95.718045
3175.000000	95.728876
3174.000000	95.740898
3173.000000	95.754211
3172.000000	95.767288
3171.000000	95.778461
3170.000000	95.787663
3169.000000	95.796475
3168.000000	95.806724
3167.000000	95.819089
3166.000000	95.832907
3165.000000	95.847152
3164.000000	95.861522
3163.000000	95.876370
3162.000000	95.891612
3161.000000	95.906284
3160.000000	95.919508
3159.000000	95.931469
3158.000000	95.942999
3157.000000	95.954580
3156.000000	95.966270
3155.000000	95.978262
3154.000000	95.990880
3153.000000	96.004187
3152.000000	96.018129
3151.000000	96.032877
3150.000000	96.048387
3149.000000	96.063823
3148.000000	96.078202
3147.000000	96.091633
3146.000000	96.105045
