PE IR       SUBTECH     SPECTRUM    ASCII       PEDS        4.00        
   -1
Veau_Al-1-C001_1.ASC
23/09/13
10:56:10.00
23/09/13
11:33:37.00
uco
Sample 001 By uco Date Wednesday, September 13 2023
450.000000
#HDR
-1
-1
#GR
cm-1
%T
1.0
0.0
4000.000000
-1.000000
3551
8
99.020283
82.073861
#DATA
4000.000000	98.927998
3999.000000	98.932414
3998.000000	98.941473
3997.000000	98.952257
3996.000000	98.961325
3995.000000	98.966067
3994.000000	98.936330
3993.000000	98.932732
3992.000000	98.929498
3991.000000	98.929867
3990.000000	98.934978
3989.000000	98.942526
3988.000000	98.947463
3987.000000	98.945605
3986.000000	98.936895
3985.000000	98.925553
3984.000000	98.916964
3983.000000	98.914052
3982.000000	98.916137
3981.000000	98.920580
3980.000000	98.925155
3979.000000	98.929074
3978.000000	98.932156
3977.000000	98.933762
3976.000000	98.932771
3975.000000	98.928582
3974.000000	98.922135
3973.000000	98.915752
3972.000000	98.911755
3971.000000	98.910737
3970.000000	98.911216
3969.000000	98.910715
3968.000000	98.907457
3967.000000	98.901864
3966.000000	98.896396
3965.000000	98.893889
3964.000000	98.895406
3963.000000	98.899487
3962.000000	98.903541
3961.000000	98.906079
3960.000000	98.907819
3959.000000	98.910121
3958.000000	98.913080
3957.000000	98.915047
3956.000000	98.913423
3955.000000	98.906621
3954.000000	98.895816
3953.000000	98.885367
3952.000000	98.880803
3951.000000	98.885363
3950.000000	98.897522
3949.000000	98.910758
3948.000000	98.917496
3947.000000	98.914616
3946.000000	98.904761
3945.000000	98.893827
3944.000000	98.887368
3943.000000	98.887215
3942.000000	98.890856
3941.000000	98.893726
3940.000000	98.892597
3939.000000	98.887125
3938.000000	98.879915
3937.000000	98.875135
3936.000000	98.875388
3935.000000	98.880279
3934.000000	98.887218
3933.000000	98.892692
3932.000000	98.893945
3931.000000	98.890264
3930.000000	98.883406
3929.000000	98.875516
3928.000000	98.867651
3927.000000	98.861625
3926.000000	98.860173
3925.000000	98.864699
3924.000000	98.873512
3923.000000	98.883503
3922.000000	98.892476
3921.000000	98.899503
3920.000000	98.903996
3919.000000	98.905213
3918.000000	98.902309
3917.000000	98.895736
3916.000000	98.887914
3915.000000	98.881067
3914.000000	98.875648
3913.000000	98.871068
3912.000000	98.867548
3911.000000	98.865322
3910.000000	98.863923
3909.000000	98.862216
3908.000000	98.859436
3907.000000	98.857378
3906.000000	98.860326
3905.000000	98.871909
3904.000000	98.889881
3903.000000	98.905573
3902.000000	98.911614
3901.000000	98.907313
3900.000000	98.896552
3899.000000	98.885435
3898.000000	98.878682
3897.000000	98.876778
3896.000000	98.877431
3895.000000	98.878253
3894.000000	98.879383
3893.000000	98.881981
3892.000000	98.883975
3891.000000	98.880046
3890.000000	98.869939
3889.000000	98.859152
3888.000000	98.852930
3887.000000	98.853642
3886.000000	98.859195
3885.000000	98.863909
3884.000000	98.863973
3883.000000	98.860082
3882.000000	98.855499
3881.000000	98.853215
3880.000000	98.853018
3879.000000	98.853405
3878.000000	98.853704
3877.000000	98.853130
3876.000000	98.850898
3875.000000	98.847776
3874.000000	98.846395
3873.000000	98.849095
3872.000000	98.855736
3871.000000	98.862491
3870.000000	98.864032
3869.000000	98.860085
3868.000000	98.856130
3867.000000	98.854887
3866.000000	98.854403
3865.000000	98.854034
3864.000000	98.855607
3863.000000	98.859865
3862.000000	98.865405
3861.000000	98.869276
3860.000000	98.868004
3859.000000	98.860373
3858.000000	98.848316
3857.000000	98.836679
3856.000000	98.831551
3855.000000	98.836870
3854.000000	98.853833
3853.000000	98.867577
3852.000000	98.867686
3851.000000	98.864686
3850.000000	98.865214
3849.000000	98.865452
3848.000000	98.862296
3847.000000	98.855601
3846.000000	98.848039
3845.000000	98.843241
3844.000000	98.842996
3843.000000	98.846390
3842.000000	98.851932
3841.000000	98.857454
3840.000000	98.860225
3839.000000	98.857804
3838.000000	98.850393
3837.000000	98.843344
3836.000000	98.841723
3835.000000	98.845287
3834.000000	98.850726
3833.000000	98.854837
3832.000000	98.855131
3831.000000	98.851552
3830.000000	98.846827
3829.000000	98.845478
3828.000000	98.850401
3827.000000	98.860121
3826.000000	98.870536
3825.000000	98.878174
3824.000000	98.881443
3823.000000	98.878912
3822.000000	98.872337
3821.000000	98.865596
3820.000000	98.860308
3819.000000	98.857738
3818.000000	98.857857
3817.000000	98.858920
3816.000000	98.857818
3815.000000	98.854955
3814.000000	98.854845
3813.000000	98.859403
3812.000000	98.866274
3811.000000	98.871842
3810.000000	98.874633
3809.000000	98.875174
3808.000000	98.874172
3807.000000	98.871413
3806.000000	98.868025
3805.000000	98.865987
3804.000000	98.865057
3803.000000	98.860841
3802.000000	98.849795
3801.000000	98.834776
3800.000000	98.826466
3799.000000	98.829182
3798.000000	98.837227
3797.000000	98.843050
3796.000000	98.843781
3795.000000	98.842247
3794.000000	98.842294
3793.000000	98.845183
3792.000000	98.849458
3791.000000	98.852967
3790.000000	98.854587
3789.000000	98.854556
3788.000000	98.853553
3787.000000	98.852698
3786.000000	98.853229
3785.000000	98.855172
3784.000000	98.856721
3783.000000	98.855374
3782.000000	98.849609
3781.000000	98.840300
3780.000000	98.831144
3779.000000	98.825844
3778.000000	98.826161
3777.000000	98.831033
3776.000000	98.837020
3775.000000	98.840671
3774.000000	98.842327
3773.000000	98.846379
3772.000000	98.856697
3771.000000	98.872148
3770.000000	98.886612
3769.000000	98.894466
3768.000000	98.894626
3767.000000	98.889116
3766.000000	98.879998
3765.000000	98.869767
3764.000000	98.861817
3763.000000	98.857831
3762.000000	98.856569
3761.000000	98.856389
3760.000000	98.857736
3759.000000	98.860701
3758.000000	98.864857
3757.000000	98.871051
3756.000000	98.879564
3755.000000	98.888112
3754.000000	98.894502
3753.000000	98.900082
3752.000000	98.908238
3751.000000	98.916638
3750.000000	98.918056
3749.000000	98.914113
3748.000000	98.910963
3747.000000	98.908893
3746.000000	98.902139
3745.000000	98.884951
3744.000000	98.862471
3743.000000	98.853402
3742.000000	98.866508
3741.000000	98.893039
3740.000000	98.919051
3739.000000	98.934678
3738.000000	98.936344
3737.000000	98.929830
3736.000000	98.926502
3735.000000	98.933104
3734.000000	98.946803
3733.000000	98.957653
3732.000000	98.957309
3731.000000	98.947000
3730.000000	98.934644
3729.000000	98.925973
3728.000000	98.920640
3727.000000	98.915537
3726.000000	98.909318
3725.000000	98.904145
3724.000000	98.902528
3723.000000	98.904802
3722.000000	98.909690
3721.000000	98.913828
3720.000000	98.914017
3719.000000	98.908938
3718.000000	98.900328
3717.000000	98.892260
3716.000000	98.887858
3715.000000	98.886338
3714.000000	98.882374
3713.000000	98.870766
3712.000000	98.853793
3711.000000	98.841265
3710.000000	98.841750
3709.000000	98.855503
3708.000000	98.874946
3707.000000	98.891934
3706.000000	98.903126
3705.000000	98.908787
3704.000000	98.910969
3703.000000	98.911497
3702.000000	98.910002
3701.000000	98.904263
3700.000000	98.894089
3699.000000	98.882326
3698.000000	98.871511
3697.000000	98.862081
3696.000000	98.853186
3695.000000	98.843903
3694.000000	98.834283
3693.000000	98.826483
3692.000000	98.825263
3691.000000	98.835216
3690.000000	98.853076
3689.000000	98.864584
3688.000000	98.860973
3687.000000	98.850882
3686.000000	98.844948
3685.000000	98.844550
3684.000000	98.845223
3683.000000	98.841615
3682.000000	98.831816
3681.000000	98.818535
3680.000000	98.806346
3679.000000	98.798599
3678.000000	98.796487
3677.000000	98.797623
3676.000000	98.796216
3675.000000	98.786277
3674.000000	98.774590
3673.000000	98.769238
3672.000000	98.767371
3671.000000	98.759885
3670.000000	98.743569
3669.000000	98.727398
3668.000000	98.723171
3667.000000	98.730137
3666.000000	98.739420
3665.000000	98.743984
3664.000000	98.741847
3663.000000	98.733920
3662.000000	98.722573
3661.000000	98.710983
3660.000000	98.701390
3659.000000	98.694282
3658.000000	98.688406
3657.000000	98.681240
3656.000000	98.669906
3655.000000	98.654580
3654.000000	98.638742
3653.000000	98.624997
3652.000000	98.616070
3651.000000	98.618016
3650.000000	98.631784
3649.000000	98.637541
3648.000000	98.618215
3647.000000	98.587795
3646.000000	98.566904
3645.000000	98.559930
3644.000000	98.559858
3643.000000	98.557085
3642.000000	98.545663
3641.000000	98.526278
3640.000000	98.503520
3639.000000	98.481957
3638.000000	98.465038
3637.000000	98.454547
3636.000000	98.449439
3635.000000	98.446689
3634.000000	98.445406
3633.000000	98.448095
3632.000000	98.455870
3631.000000	98.463422
3630.000000	98.460816
3629.000000	98.440563
3628.000000	98.409065
3627.000000	98.384720
3626.000000	98.372777
3625.000000	98.365948
3624.000000	98.357345
3623.000000	98.345834
3622.000000	98.333610
3621.000000	98.322125
3620.000000	98.309060
3619.000000	98.289668
3618.000000	98.263737
3617.000000	98.238492
3616.000000	98.219819
3615.000000	98.207352
3614.000000	98.197676
3613.000000	98.188554
3612.000000	98.180964
3611.000000	98.175549
3610.000000	98.168547
3609.000000	98.154200
3608.000000	98.131835
3607.000000	98.108212
3606.000000	98.091387
3605.000000	98.083290
3604.000000	98.079125
3603.000000	98.072639
3602.000000	98.059724
3601.000000	98.039723
3600.000000	98.015737
3599.000000	97.992756
3598.000000	97.973536
3597.000000	97.957522
3596.000000	97.941939
3595.000000	97.924165
3594.000000	97.904674
3593.000000	97.886355
3592.000000	97.870878
3591.000000	97.856687
3590.000000	97.841357
3589.000000	97.824111
3588.000000	97.803735
3587.000000	97.776613
3586.000000	97.745600
3585.000000	97.717885
3584.000000	97.695241
3583.000000	97.675378
3582.000000	97.657217
3581.000000	97.641176
3580.000000	97.626844
3579.000000	97.611844
3578.000000	97.593973
3577.000000	97.573768
3576.000000	97.554229
3575.000000	97.537958
3574.000000	97.524958
3573.000000	97.512594
3572.000000	97.496376
3571.000000	97.472750
3570.000000	97.442267
3569.000000	97.411094
3568.000000	97.385522
3567.000000	97.364229
3566.000000	97.344059
3565.000000	97.329528
3564.000000	97.322244
3563.000000	97.315539
3562.000000	97.302519
3561.000000	97.282620
3560.000000	97.260204
3559.000000	97.239126
3558.000000	97.219331
3557.000000	97.199081
3556.000000	97.178170
3555.000000	97.157990
3554.000000	97.139091
3553.000000	97.120079
3552.000000	97.099138
3551.000000	97.076710
3550.000000	97.055374
3549.000000	97.037286
3548.000000	97.022531
3547.000000	97.008386
3546.000000	96.990403
3545.000000	96.966766
3544.000000	96.940839
3543.000000	96.917134
3542.000000	96.897100
3541.000000	96.878406
3540.000000	96.856979
3539.000000	96.830177
3538.000000	96.798652
3537.000000	96.765893
3536.000000	96.735310
3535.000000	96.708738
3534.000000	96.686808
3533.000000	96.669320
3532.000000	96.655000
3531.000000	96.641696
3530.000000	96.627786
3529.000000	96.613270
3528.000000	96.599027
3527.000000	96.585485
3526.000000	96.572015
3525.000000	96.556504
3524.000000	96.535994
3523.000000	96.509465
3522.000000	96.479938
3521.000000	96.451917
3520.000000	96.426796
3519.000000	96.402876
3518.000000	96.379119
3517.000000	96.357127
3516.000000	96.338831
3515.000000	96.323714
3514.000000	96.310000
3513.000000	96.297392
3512.000000	96.287302
3511.000000	96.280516
3510.000000	96.274881
3509.000000	96.265571
3508.000000	96.248292
3507.000000	96.223148
3506.000000	96.195414
3505.000000	96.172476
3504.000000	96.157889
3503.000000	96.148296
3502.000000	96.137958
3501.000000	96.124818
3500.000000	96.110183
3499.000000	96.095019
3498.000000	96.079122
3497.000000	96.062301
3496.000000	96.045164
3495.000000	96.028643
3494.000000	96.013206
3493.000000	95.998325
3492.000000	95.982811
3491.000000	95.966460
3490.000000	95.950812
3489.000000	95.936847
3488.000000	95.922607
3487.000000	95.905455
3486.000000	95.886588
3485.000000	95.870370
3484.000000	95.858344
3483.000000	95.846488
3482.000000	95.830246
3481.000000	95.810849
3480.000000	95.793758
3479.000000	95.781728
3478.000000	95.772224
3477.000000	95.761437
3476.000000	95.748326
3475.000000	95.734516
3474.000000	95.721536
3473.000000	95.708627
3472.000000	95.692936
3471.000000	95.672336
3470.000000	95.648760
3469.000000	95.627735
3468.000000	95.613609
3467.000000	95.605444
3466.000000	95.598018
3465.000000	95.586285
3464.000000	95.568231
3463.000000	95.545061
3462.000000	95.520448
3461.000000	95.498877
3460.000000	95.482772
3459.000000	95.470806
3458.000000	95.459755
3457.000000	95.447882
3456.000000	95.435419
3455.000000	95.422706
3454.000000	95.409330
3453.000000	95.395212
3452.000000	95.381440
3451.000000	95.369275
3450.000000	95.359037
3449.000000	95.349930
3448.000000	95.340417
3447.000000	95.329225
3446.000000	95.316951
3445.000000	95.305408
3444.000000	95.294619
3443.000000	95.281879
3442.000000	95.264920
3441.000000	95.245268
3440.000000	95.226755
3439.000000	95.211448
3438.000000	95.198551
3437.000000	95.186833
3436.000000	95.175769
3435.000000	95.164313
3434.000000	95.150471
3433.000000	95.133426
3432.000000	95.115710
3431.000000	95.101994
3430.000000	95.095732
3429.000000	95.096289
3428.000000	95.098819
3427.000000	95.097364
3426.000000	95.088800
3425.000000	95.074148
3424.000000	95.056244
3423.000000	95.037201
3422.000000	95.018473
3421.000000	95.001606
3420.000000	94.987216
3419.000000	94.974094
3418.000000	94.961034
3417.000000	94.948888
3416.000000	94.939350
3415.000000	94.932140
3414.000000	94.925022
3413.000000	94.916578
3412.000000	94.907428
3411.000000	94.898612
3410.000000	94.890082
3409.000000	94.880949
3408.000000	94.870103
3407.000000	94.856565
3406.000000	94.840224
3405.000000	94.822629
3404.000000	94.806176
3403.000000	94.792315
3402.000000	94.780941
3401.000000	94.771150
3400.000000	94.762054
3399.000000	94.753034
3398.000000	94.743951
3397.000000	94.735010
3396.000000	94.725966
3395.000000	94.715839
3394.000000	94.704123
3393.000000	94.691866
3392.000000	94.680687
3391.000000	94.670773
3390.000000	94.660399
3389.000000	94.647579
3388.000000	94.631936
3387.000000	94.614998
3386.000000	94.598778
3385.000000	94.583840
3384.000000	94.568619
3383.000000	94.551128
3382.000000	94.531265
3381.000000	94.510769
3380.000000	94.490907
3379.000000	94.470855
3378.000000	94.448852
3377.000000	94.424405
3376.000000	94.399152
3375.000000	94.375744
3374.000000	94.355552
3373.000000	94.336763
3372.000000	94.315008
3371.000000	94.287088
3370.000000	94.254262
3369.000000	94.220714
3368.000000	94.188565
3367.000000	94.155865
3366.000000	94.120245
3365.000000	94.083071
3364.000000	94.048312
3363.000000	94.018046
3362.000000	93.990217
3361.000000	93.960332
3360.000000	93.924479
3359.000000	93.881359
3358.000000	93.832935
3357.000000	93.783508
3356.000000	93.737362
3355.000000	93.696401
3354.000000	93.659459
3353.000000	93.623279
3352.000000	93.584095
3351.000000	93.539370
3350.000000	93.489211
3349.000000	93.436207
3348.000000	93.383542
3347.000000	93.333315
3346.000000	93.286298
3345.000000	93.242384
3344.000000	93.200588
3343.000000	93.159049
3342.000000	93.115983
3341.000000	93.070884
3340.000000	93.024827
3339.000000	92.979630
3338.000000	92.936405
3337.000000	92.894494
3336.000000	92.852260
3335.000000	92.809582
3334.000000	92.769045
3333.000000	92.733485
3332.000000	92.702368
3331.000000	92.671848
3330.000000	92.638469
3329.000000	92.601991
3328.000000	92.564797
3327.000000	92.529920
3326.000000	92.499671
3325.000000	92.474416
3324.000000	92.451761
3323.000000	92.427974
3322.000000	92.401008
3321.000000	92.371563
3320.000000	92.341316
3319.000000	92.311720
3318.000000	92.284705
3317.000000	92.262312
3316.000000	92.244277
3315.000000	92.227398
3314.000000	92.209145
3313.000000	92.191241
3312.000000	92.177965
3311.000000	92.171308
3310.000000	92.168792
3309.000000	92.165659
3308.000000	92.158468
3307.000000	92.146969
3306.000000	92.133560
3305.000000	92.120969
3304.000000	92.109929
3303.000000	92.099206
3302.000000	92.087982
3301.000000	92.077515
3300.000000	92.069779
3299.000000	92.065075
3298.000000	92.061775
3297.000000	92.057949
3296.000000	92.052976
3295.000000	92.047900
3294.000000	92.044342
3293.000000	92.042668
3292.000000	92.041215
3291.000000	92.038123
3290.000000	92.033886
3289.000000	92.030934
3288.000000	92.030636
3287.000000	92.032083
3286.000000	92.034253
3285.000000	92.037922
3284.000000	92.044714
3283.000000	92.055205
3282.000000	92.068406
3281.000000	92.082285
3280.000000	92.094617
3279.000000	92.104672
3278.000000	92.114402
3277.000000	92.126550
3276.000000	92.141192
3275.000000	92.155736
3274.000000	92.168666
3273.000000	92.180918
3272.000000	92.192829
3271.000000	92.202316
3270.000000	92.208147
3269.000000	92.213133
3268.000000	92.221599
3267.000000	92.234496
3266.000000	92.248886
3265.000000	92.261955
3264.000000	92.274042
3263.000000	92.287943
3262.000000	92.306506
3261.000000	92.330593
3260.000000	92.358050
3259.000000	92.384616
3258.000000	92.406637
3257.000000	92.423255
3256.000000	92.436159
3255.000000	92.448091
3254.000000	92.461768
3253.000000	92.479101
3252.000000	92.500426
3251.000000	92.524689
3250.000000	92.550656
3249.000000	92.577135
3248.000000	92.601929
3247.000000	92.621950
3246.000000	92.635193
3245.000000	92.642238
3244.000000	92.645828
3243.000000	92.649793
3242.000000	92.658114
3241.000000	92.672963
3240.000000	92.692823
3239.000000	92.714051
3238.000000	92.734802
3237.000000	92.755760
3236.000000	92.776451
3235.000000	92.793523
3234.000000	92.804482
3233.000000	92.811076
3232.000000	92.816949
3231.000000	92.823317
3230.000000	92.829455
3229.000000	92.836320
3228.000000	92.846697
3227.000000	92.861532
3226.000000	92.878198
3225.000000	92.893182
3224.000000	92.905444
3223.000000	92.916753
3222.000000	92.929367
3221.000000	92.943598
3220.000000	92.957208
3219.000000	92.967322
3218.000000	92.973242
3217.000000	92.977068
3216.000000	92.981838
3215.000000	92.989862
3214.000000	93.002571
3213.000000	93.020133
3212.000000	93.040230
3211.000000	93.058592
3210.000000	93.072371
3209.000000	93.082535
3208.000000	93.092047
3207.000000	93.102545
3206.000000	93.114012
3205.000000	93.126977
3204.000000	93.143372
3203.000000	93.165026
3202.000000	93.191974
3201.000000	93.221851
3200.000000	93.250204
3199.000000	93.272496
3198.000000	93.287431
3197.000000	93.298536
3196.000000	93.311448
3195.000000	93.329168
3194.000000	93.350209
3193.000000	93.370747
3192.000000	93.388090
3191.000000	93.402804
3190.000000	93.418333
3189.000000	93.438227
3188.000000	93.463039
3187.000000	93.490230
3186.000000	93.517261
3185.000000	93.543893
3184.000000	93.570680
3183.000000	93.596494
3182.000000	93.619254
3181.000000	93.638947
3180.000000	93.658455
3179.000000	93.680868
3178.000000	93.706554
3177.000000	93.733103
3176.000000	93.757679
3175.000000	93.779380
3174.000000	93.799706
3173.000000	93.820969
3172.000000	93.844188
3171.000000	93.868571
3170.000000	93.892918
3169.000000	93.916706
3168.000000	93.939654
3167.000000	93.961185
3166.000000	93.981213
3165.000000	94.000964
3164.000000	94.022145
3163.000000	94.045607
3162.000000	94.071255
3161.000000	94.098772
3160.000000	94.127539
3159.000000	94.156216
3158.000000	94.183388
3157.000000	94.208585
3156.000000	94.231964
3155.000000	94.253304
3154.000000	94.272374
3153.000000	94.290381
3152.000000	94.309941
3151.000000	94.332910
3150.000000	94.358513
3149.000000	94.383966
3148.000000	94.406905
3147.000000	94.427110
3146.000000	94.446093
