PE IR       SUBTECH     SPECTRUM    ASCII       PEDS        4.00        
   -1
Chevre3-F002_1.ASC
23/09/14
14:21:16.00
23/09/14
14:38:15.00
uco
Sample 002 By uco Date Thursday, September 14 2023
450.000000
#HDR
-1
-1
#GR
cm-1
%T
1.0
0.0
4000.000000
-1.000000
3551
8
99.023520
85.037957
#DATA
4000.000000	98.832727
3999.000000	98.832682
3998.000000	98.832748
3997.000000	98.836606
3996.000000	98.842503
3995.000000	98.847543
3994.000000	98.848702
3993.000000	98.844476
3992.000000	98.836043
3991.000000	98.827018
3990.000000	98.821369
3989.000000	98.820682
3988.000000	98.823211
3987.000000	98.825636
3986.000000	98.825665
3985.000000	98.823146
3984.000000	98.819196
3983.000000	98.814977
3982.000000	98.811583
3981.000000	98.810393
3980.000000	98.812515
3979.000000	98.817440
3978.000000	98.822649
3977.000000	98.825136
3976.000000	98.823719
3975.000000	98.820064
3974.000000	98.817240
3973.000000	98.817203
3972.000000	98.819438
3971.000000	98.821767
3970.000000	98.822270
3969.000000	98.820341
3968.000000	98.816436
3967.000000	98.811382
3966.000000	98.806198
3965.000000	98.802376
3964.000000	98.801447
3963.000000	98.803777
3962.000000	98.807830
3961.000000	98.810997
3960.000000	98.811603
3959.000000	98.809982
3958.000000	98.807883
3957.000000	98.807139
3956.000000	98.808639
3955.000000	98.812110
3954.000000	98.816453
3953.000000	98.820351
3952.000000	98.822655
3951.000000	98.822488
3950.000000	98.819340
3949.000000	98.813673
3948.000000	98.807515
3947.000000	98.803523
3946.000000	98.802715
3945.000000	98.803368
3944.000000	98.802571
3943.000000	98.798933
3942.000000	98.793996
3941.000000	98.790956
3940.000000	98.791649
3939.000000	98.794960
3938.000000	98.798323
3937.000000	98.800280
3936.000000	98.801460
3935.000000	98.803300
3934.000000	98.806069
3933.000000	98.808128
3932.000000	98.807325
3931.000000	98.803561
3930.000000	98.799538
3929.000000	98.798516
3928.000000	98.801688
3927.000000	98.807787
3926.000000	98.814055
3925.000000	98.817486
3924.000000	98.816562
3923.000000	98.812315
3922.000000	98.806728
3921.000000	98.800664
3920.000000	98.793960
3919.000000	98.786782
3918.000000	98.780209
3917.000000	98.775630
3916.000000	98.774108
3915.000000	98.776061
3914.000000	98.780826
3913.000000	98.786674
3912.000000	98.791771
3911.000000	98.795161
3910.000000	98.797122
3909.000000	98.798281
3908.000000	98.798657
3907.000000	98.797365
3906.000000	98.793306
3905.000000	98.786436
3904.000000	98.778452
3903.000000	98.772837
3902.000000	98.772540
3901.000000	98.776720
3900.000000	98.781262
3899.000000	98.783170
3898.000000	98.783653
3897.000000	98.785960
3896.000000	98.791123
3895.000000	98.797615
3894.000000	98.803518
3893.000000	98.807030
3892.000000	98.805924
3891.000000	98.799712
3890.000000	98.792795
3889.000000	98.790518
3888.000000	98.793095
3887.000000	98.796899
3886.000000	98.798160
3885.000000	98.796082
3884.000000	98.794658
3883.000000	98.797723
3882.000000	98.803063
3881.000000	98.804691
3880.000000	98.798561
3879.000000	98.787614
3878.000000	98.779124
3877.000000	98.775595
3876.000000	98.773835
3875.000000	98.771448
3874.000000	98.769523
3873.000000	98.770688
3872.000000	98.775556
3871.000000	98.780699
3870.000000	98.781041
3869.000000	98.776517
3868.000000	98.773570
3867.000000	98.775911
3866.000000	98.780437
3865.000000	98.782727
3864.000000	98.781245
3863.000000	98.777809
3862.000000	98.775485
3861.000000	98.776007
3860.000000	98.779300
3859.000000	98.783153
3858.000000	98.783661
3857.000000	98.777787
3856.000000	98.766759
3855.000000	98.757446
3854.000000	98.756842
3853.000000	98.763730
3852.000000	98.775064
3851.000000	98.790218
3850.000000	98.802531
3849.000000	98.805908
3848.000000	98.801760
3847.000000	98.795527
3846.000000	98.791693
3845.000000	98.792073
3844.000000	98.796416
3843.000000	98.803728
3842.000000	98.812566
3841.000000	98.820889
3840.000000	98.826279
3839.000000	98.826932
3838.000000	98.823194
3837.000000	98.817367
3836.000000	98.811496
3835.000000	98.806092
3834.000000	98.800727
3833.000000	98.795074
3832.000000	98.789110
3831.000000	98.783826
3830.000000	98.781665
3829.000000	98.784238
3828.000000	98.789796
3827.000000	98.794267
3826.000000	98.794609
3825.000000	98.791368
3824.000000	98.787966
3823.000000	98.787918
3822.000000	98.791945
3821.000000	98.795412
3820.000000	98.795465
3819.000000	98.797002
3818.000000	98.803916
3817.000000	98.814069
3816.000000	98.821220
3815.000000	98.820689
3814.000000	98.814269
3813.000000	98.806129
3812.000000	98.797924
3811.000000	98.791298
3810.000000	98.789059
3809.000000	98.792947
3808.000000	98.801273
3807.000000	98.808881
3806.000000	98.812480
3805.000000	98.814458
3804.000000	98.818038
3803.000000	98.823652
3802.000000	98.828315
3801.000000	98.826913
3800.000000	98.820707
3799.000000	98.816340
3798.000000	98.815773
3797.000000	98.816495
3796.000000	98.816007
3795.000000	98.813638
3794.000000	98.810443
3793.000000	98.806864
3792.000000	98.802503
3791.000000	98.798315
3790.000000	98.797085
3789.000000	98.801141
3788.000000	98.810077
3787.000000	98.820361
3786.000000	98.826904
3785.000000	98.826134
3784.000000	98.818547
3783.000000	98.807976
3782.000000	98.797918
3781.000000	98.789524
3780.000000	98.783077
3779.000000	98.780282
3778.000000	98.783734
3777.000000	98.793127
3776.000000	98.803622
3775.000000	98.809471
3774.000000	98.809071
3773.000000	98.805618
3772.000000	98.803220
3771.000000	98.802561
3770.000000	98.800420
3769.000000	98.794820
3768.000000	98.789085
3767.000000	98.788029
3766.000000	98.792833
3765.000000	98.801219
3764.000000	98.810529
3763.000000	98.819726
3762.000000	98.827602
3761.000000	98.831382
3760.000000	98.827721
3759.000000	98.816294
3758.000000	98.803202
3757.000000	98.797297
3756.000000	98.802727
3755.000000	98.816707
3754.000000	98.833236
3753.000000	98.847181
3752.000000	98.854987
3751.000000	98.854131
3750.000000	98.845408
3749.000000	98.834488
3748.000000	98.826287
3747.000000	98.820663
3746.000000	98.816761
3745.000000	98.813647
3744.000000	98.808104
3743.000000	98.804555
3742.000000	98.810571
3741.000000	98.819948
3740.000000	98.823937
3739.000000	98.823096
3738.000000	98.822678
3737.000000	98.825949
3736.000000	98.831237
3735.000000	98.833338
3734.000000	98.829560
3733.000000	98.822619
3732.000000	98.817032
3731.000000	98.815555
3730.000000	98.817107
3729.000000	98.817622
3728.000000	98.814592
3727.000000	98.810321
3726.000000	98.809685
3725.000000	98.815142
3724.000000	98.823494
3723.000000	98.828061
3722.000000	98.824689
3721.000000	98.815468
3720.000000	98.805993
3719.000000	98.800151
3718.000000	98.798943
3717.000000	98.801510
3716.000000	98.806023
3715.000000	98.810541
3714.000000	98.814065
3713.000000	98.817551
3712.000000	98.821781
3711.000000	98.825543
3710.000000	98.826809
3709.000000	98.824879
3708.000000	98.820879
3707.000000	98.816383
3706.000000	98.812595
3705.000000	98.810004
3704.000000	98.809203
3703.000000	98.810409
3702.000000	98.812560
3701.000000	98.813797
3700.000000	98.814237
3699.000000	98.815629
3698.000000	98.818967
3697.000000	98.824131
3696.000000	98.830637
3695.000000	98.837844
3694.000000	98.844052
3693.000000	98.847077
3692.000000	98.845695
3691.000000	98.841052
3690.000000	98.835084
3689.000000	98.828429
3688.000000	98.821463
3687.000000	98.815606
3686.000000	98.810322
3685.000000	98.802964
3684.000000	98.794636
3683.000000	98.790931
3682.000000	98.795929
3681.000000	98.806257
3680.000000	98.812549
3679.000000	98.807283
3678.000000	98.791270
3677.000000	98.772793
3676.000000	98.759035
3675.000000	98.749474
3674.000000	98.743261
3673.000000	98.742102
3672.000000	98.742540
3671.000000	98.738841
3670.000000	98.728324
3669.000000	98.714169
3668.000000	98.705035
3667.000000	98.706373
3666.000000	98.715653
3665.000000	98.727204
3664.000000	98.736078
3663.000000	98.738486
3662.000000	98.732400
3661.000000	98.718504
3660.000000	98.700177
3659.000000	98.682247
3658.000000	98.669179
3657.000000	98.663299
3656.000000	98.662953
3655.000000	98.664693
3654.000000	98.666257
3653.000000	98.666081
3652.000000	98.665315
3651.000000	98.667488
3650.000000	98.670268
3649.000000	98.663453
3648.000000	98.643580
3647.000000	98.620749
3646.000000	98.605614
3645.000000	98.600023
3644.000000	98.599460
3643.000000	98.598725
3642.000000	98.595411
3641.000000	98.589829
3640.000000	98.582770
3639.000000	98.573313
3638.000000	98.559700
3637.000000	98.542512
3636.000000	98.525491
3635.000000	98.512140
3634.000000	98.501666
3633.000000	98.489712
3632.000000	98.473586
3631.000000	98.456297
3630.000000	98.445152
3629.000000	98.442265
3628.000000	98.441395
3627.000000	98.440468
3626.000000	98.439279
3625.000000	98.432138
3624.000000	98.416249
3623.000000	98.396365
3622.000000	98.380132
3621.000000	98.372115
3620.000000	98.370199
3619.000000	98.367027
3618.000000	98.358183
3617.000000	98.346077
3616.000000	98.333686
3615.000000	98.321171
3614.000000	98.308239
3613.000000	98.295576
3612.000000	98.284111
3611.000000	98.273919
3610.000000	98.263201
3609.000000	98.249413
3608.000000	98.232841
3607.000000	98.218618
3606.000000	98.212702
3605.000000	98.215226
3604.000000	98.219998
3603.000000	98.219186
3602.000000	98.208276
3601.000000	98.187939
3600.000000	98.162398
3599.000000	98.136688
3598.000000	98.114947
3597.000000	98.099918
3596.000000	98.091854
3595.000000	98.087901
3594.000000	98.083112
3593.000000	98.074338
3592.000000	98.061670
3591.000000	98.046706
3590.000000	98.031247
3589.000000	98.016929
3588.000000	98.002770
3587.000000	97.984878
3586.000000	97.962934
3585.000000	97.941964
3584.000000	97.925784
3583.000000	97.913840
3582.000000	97.904236
3581.000000	97.895962
3580.000000	97.888613
3579.000000	97.881400
3578.000000	97.873105
3577.000000	97.863691
3576.000000	97.854803
3575.000000	97.847939
3574.000000	97.841688
3573.000000	97.832153
3572.000000	97.816280
3571.000000	97.794090
3570.000000	97.767588
3569.000000	97.739127
3568.000000	97.710453
3567.000000	97.683174
3566.000000	97.660403
3565.000000	97.645725
3564.000000	97.638795
3563.000000	97.634884
3562.000000	97.628787
3561.000000	97.617894
3560.000000	97.602546
3559.000000	97.585056
3558.000000	97.567739
3557.000000	97.551080
3556.000000	97.533903
3555.000000	97.515705
3554.000000	97.498534
3553.000000	97.485611
3552.000000	97.477488
3551.000000	97.470408
3550.000000	97.459140
3549.000000	97.440986
3548.000000	97.417360
3547.000000	97.392127
3546.000000	97.368447
3545.000000	97.347127
3544.000000	97.328008
3543.000000	97.311452
3542.000000	97.298117
3541.000000	97.287837
3540.000000	97.279090
3539.000000	97.269398
3538.000000	97.256739
3537.000000	97.240907
3536.000000	97.223505
3535.000000	97.206308
3534.000000	97.189471
3533.000000	97.171780
3532.000000	97.152501
3531.000000	97.132678
3530.000000	97.114205
3529.000000	97.097828
3528.000000	97.082735
3527.000000	97.068204
3526.000000	97.054863
3525.000000	97.043510
3524.000000	97.033140
3523.000000	97.021287
3522.000000	97.006746
3521.000000	96.990939
3520.000000	96.976035
3519.000000	96.962458
3518.000000	96.949055
3517.000000	96.935208
3516.000000	96.921879
3515.000000	96.910427
3514.000000	96.901126
3513.000000	96.893062
3512.000000	96.884533
3511.000000	96.872995
3510.000000	96.855640
3509.000000	96.831761
3508.000000	96.804621
3507.000000	96.779864
3506.000000	96.761476
3505.000000	96.749487
3504.000000	96.740617
3503.000000	96.730765
3502.000000	96.717722
3501.000000	96.702001
3500.000000	96.685153
3499.000000	96.667881
3498.000000	96.650169
3497.000000	96.632593
3496.000000	96.616768
3495.000000	96.604403
3494.000000	96.596195
3493.000000	96.591521
3492.000000	96.588551
3491.000000	96.584412
3490.000000	96.575994
3489.000000	96.561550
3488.000000	96.541810
3487.000000	96.519491
3486.000000	96.497878
3485.000000	96.479744
3484.000000	96.466791
3483.000000	96.458918
3482.000000	96.453618
3481.000000	96.446886
3480.000000	96.435436
3479.000000	96.418399
3478.000000	96.397451
3477.000000	96.375853
3476.000000	96.356940
3475.000000	96.342271
3474.000000	96.330789
3473.000000	96.320100
3472.000000	96.308533
3471.000000	96.295992
3470.000000	96.283360
3469.000000	96.271701
3468.000000	96.261551
3467.000000	96.252154
3466.000000	96.241592
3465.000000	96.228546
3464.000000	96.214011
3463.000000	96.200532
3462.000000	96.189492
3461.000000	96.179847
3460.000000	96.169745
3459.000000	96.158554
3458.000000	96.146585
3457.000000	96.133542
3456.000000	96.118378
3455.000000	96.100769
3454.000000	96.082062
3453.000000	96.064630
3452.000000	96.050509
3451.000000	96.040682
3450.000000	96.034935
3449.000000	96.031667
3448.000000	96.027711
3447.000000	96.019212
3446.000000	96.004033
3445.000000	95.983762
3444.000000	95.963015
3443.000000	95.946682
3442.000000	95.937192
3441.000000	95.933176
3440.000000	95.930168
3439.000000	95.923096
3438.000000	95.909598
3437.000000	95.892082
3436.000000	95.876249
3435.000000	95.866384
3434.000000	95.861518
3433.000000	95.856521
3432.000000	95.847111
3431.000000	95.833535
3430.000000	95.819517
3429.000000	95.808315
3428.000000	95.799975
3427.000000	95.791712
3426.000000	95.780352
3425.000000	95.764806
3424.000000	95.746861
3423.000000	95.729666
3422.000000	95.715177
3421.000000	95.702948
3420.000000	95.691333
3419.000000	95.679561
3418.000000	95.668440
3417.000000	95.659442
3416.000000	95.653453
3415.000000	95.649916
3414.000000	95.646618
3413.000000	95.640592
3412.000000	95.629991
3411.000000	95.615387
3410.000000	95.599298
3409.000000	95.584526
3408.000000	95.572839
3407.000000	95.564565
3406.000000	95.558712
3405.000000	95.553486
3404.000000	95.547251
3403.000000	95.539287
3402.000000	95.529673
3401.000000	95.518793
3400.000000	95.507411
3399.000000	95.496939
3398.000000	95.488678
3397.000000	95.482397
3396.000000	95.476254
3395.000000	95.468502
3394.000000	95.458848
3393.000000	95.447923
3392.000000	95.436302
3391.000000	95.424801
3390.000000	95.414900
3389.000000	95.407371
3388.000000	95.400553
3387.000000	95.391419
3386.000000	95.378922
3385.000000	95.365112
3384.000000	95.352090
3383.000000	95.339135
3382.000000	95.324135
3381.000000	95.306972
3380.000000	95.289744
3379.000000	95.273897
3378.000000	95.258968
3377.000000	95.244490
3376.000000	95.231472
3375.000000	95.220938
3374.000000	95.212060
3373.000000	95.202899
3372.000000	95.192405
3371.000000	95.180477
3370.000000	95.166369
3369.000000	95.148528
3368.000000	95.126649
3367.000000	95.103091
3366.000000	95.081240
3365.000000	95.062414
3364.000000	95.044815
3363.000000	95.025657
3362.000000	95.003886
3361.000000	94.980548
3360.000000	94.956802
3359.000000	94.932319
3358.000000	94.906074
3357.000000	94.878328
3356.000000	94.851043
3355.000000	94.826146
3354.000000	94.803723
3353.000000	94.782059
3352.000000	94.759089
3351.000000	94.733669
3350.000000	94.705946
3349.000000	94.676997
3348.000000	94.648032
3347.000000	94.619609
3346.000000	94.591506
3345.000000	94.563364
3344.000000	94.535321
3343.000000	94.507980
3342.000000	94.481791
3341.000000	94.456526
3340.000000	94.431255
3339.000000	94.404880
3338.000000	94.376907
3337.000000	94.347856
3336.000000	94.319024
3335.000000	94.291817
3334.000000	94.266996
3333.000000	94.243926
3332.000000	94.220329
3331.000000	94.193639
3330.000000	94.163572
3329.000000	94.133237
3328.000000	94.106882
3327.000000	94.086356
3326.000000	94.070146
3325.000000	94.055444
3324.000000	94.039922
3323.000000	94.021346
3322.000000	93.997330
3321.000000	93.967367
3320.000000	93.934899
3319.000000	93.905934
3318.000000	93.884594
3317.000000	93.869925
3316.000000	93.857312
3315.000000	93.842966
3314.000000	93.826907
3313.000000	93.811743
3312.000000	93.799114
3311.000000	93.787938
3310.000000	93.775969
3309.000000	93.762069
3308.000000	93.746236
3307.000000	93.728205
3306.000000	93.707426
3305.000000	93.684596
3304.000000	93.662099
3303.000000	93.642211
3302.000000	93.625308
3301.000000	93.610349
3300.000000	93.596736
3299.000000	93.584999
3298.000000	93.575790
3297.000000	93.568686
3296.000000	93.562241
3295.000000	93.555147
3294.000000	93.547157
3293.000000	93.538900
3292.000000	93.530995
3291.000000	93.523622
3290.000000	93.516731
3289.000000	93.509913
3288.000000	93.501815
3287.000000	93.490670
3286.000000	93.476425
3285.000000	93.461938
3284.000000	93.451035
3283.000000	93.445305
3282.000000	93.443366
3281.000000	93.443111
3280.000000	93.443679
3279.000000	93.445138
3278.000000	93.447521
3277.000000	93.450793
3276.000000	93.455213
3275.000000	93.461148
3274.000000	93.468469
3273.000000	93.476205
3272.000000	93.482662
3271.000000	93.486317
3270.000000	93.487364
3269.000000	93.488203
3268.000000	93.491519
3267.000000	93.497682
3266.000000	93.504704
3265.000000	93.510914
3264.000000	93.516892
3263.000000	93.524482
3262.000000	93.534805
3261.000000	93.547789
3260.000000	93.563071
3259.000000	93.580419
3258.000000	93.599239
3257.000000	93.618166
3256.000000	93.635460
3255.000000	93.650233
3254.000000	93.663458
3253.000000	93.677412
3252.000000	93.693617
3251.000000	93.711476
3250.000000	93.729186
3249.000000	93.745497
3248.000000	93.759893
3247.000000	93.771657
3246.000000	93.780089
3245.000000	93.785784
3244.000000	93.790678
3243.000000	93.796482
3242.000000	93.803802
3241.000000	93.812939
3240.000000	93.824782
3239.000000	93.840472
3238.000000	93.860424
3237.000000	93.883444
3236.000000	93.906272
3235.000000	93.924717
3234.000000	93.936588
3233.000000	93.943580
3232.000000	93.949385
3231.000000	93.955993
3230.000000	93.962849
3229.000000	93.969202
3228.000000	93.975526
3227.000000	93.982435
3226.000000	93.989957
3225.000000	93.998516
3224.000000	94.009022
3223.000000	94.021001
3222.000000	94.031988
3221.000000	94.040090
3220.000000	94.046405
3219.000000	94.053901
3218.000000	94.064434
3217.000000	94.077839
3216.000000	94.093051
3215.000000	94.108873
3214.000000	94.123956
3213.000000	94.137036
3212.000000	94.147296
3211.000000	94.154339
3210.000000	94.158480
3209.000000	94.161427
3208.000000	94.165747
3207.000000	94.172844
3206.000000	94.182144
3205.000000	94.192845
3204.000000	94.205327
3203.000000	94.219787
3202.000000	94.234434
3201.000000	94.246730
3200.000000	94.256203
3199.000000	94.264741
3198.000000	94.273953
3197.000000	94.283484
3196.000000	94.292108
3195.000000	94.299521
3194.000000	94.306585
3193.000000	94.314626
3192.000000	94.325014
3191.000000	94.338817
3190.000000	94.356035
3189.000000	94.375131
3188.000000	94.393788
3187.000000	94.410653
3186.000000	94.426408
3185.000000	94.442755
3184.000000	94.460111
3183.000000	94.476897
3182.000000	94.491660
3181.000000	94.505224
3180.000000	94.519397
3179.000000	94.533909
3178.000000	94.546562
3177.000000	94.557152
3176.000000	94.569210
3175.000000	94.586093
3174.000000	94.606479
3173.000000	94.625671
3172.000000	94.641006
3171.000000	94.654543
3170.000000	94.670282
3169.000000	94.690198
3168.000000	94.712971
3167.000000	94.735354
3166.000000	94.754388
3165.000000	94.769498
3164.000000	94.783103
3163.000000	94.798557
3162.000000	94.816938
3161.000000	94.836229
3160.000000	94.853762
3159.000000	94.868923
3158.000000	94.883433
3157.000000	94.899759
3156.000000	94.919505
3155.000000	94.942333
3154.000000	94.965762
3153.000000	94.986474
3152.000000	95.002720
3151.000000	95.015532
3150.000000	95.027465
3149.000000	95.040272
3148.000000	95.053960
3147.000000	95.067776
3146.000000	95.081652
