PE IR       SUBTECH     SPECTRUM    ASCII       PEDS        4.00        
   -1
Veau2-F002_1.ASC
23/09/14
14:01:20.00
23/09/14
14:07:51.00
uco
Sample 002 By uco Date Thursday, September 14 2023
450.000000
#HDR
-1
-1
#GR
cm-1
%T
1.0
0.0
4000.000000
-1.000000
3551
8
99.135830
87.898006
#DATA
4000.000000	99.016538
3999.000000	99.021390
3998.000000	99.025245
3997.000000	99.026678
3996.000000	99.025154
3995.000000	99.013901
3994.000000	99.006693
3993.000000	98.998568
3992.000000	98.990752
3991.000000	98.985081
3990.000000	98.982997
3989.000000	98.984141
3988.000000	98.986183
3987.000000	98.986576
3986.000000	98.984705
3985.000000	98.982248
3984.000000	98.981341
3983.000000	98.982233
3982.000000	98.982900
3981.000000	98.981094
3980.000000	98.976784
3979.000000	98.972717
3978.000000	98.972247
3977.000000	98.976391
3976.000000	98.982854
3975.000000	98.987775
3974.000000	98.988718
3973.000000	98.986035
3972.000000	98.981796
3971.000000	98.977943
3970.000000	98.975259
3969.000000	98.973526
3968.000000	98.972018
3967.000000	98.970119
3966.000000	98.968057
3965.000000	98.966977
3964.000000	98.967702
3963.000000	98.969172
3962.000000	98.968725
3961.000000	98.964463
3960.000000	98.957592
3959.000000	98.951703
3958.000000	98.949521
3957.000000	98.950785
3956.000000	98.952960
3955.000000	98.953777
3954.000000	98.953042
3953.000000	98.952233
3952.000000	98.952864
3951.000000	98.955181
3950.000000	98.958144
3949.000000	98.960401
3948.000000	98.961190
3947.000000	98.960344
3946.000000	98.957829
3945.000000	98.953995
3944.000000	98.950153
3943.000000	98.948004
3942.000000	98.948099
3941.000000	98.949043
3940.000000	98.949254
3939.000000	98.949249
3938.000000	98.951086
3937.000000	98.955818
3936.000000	98.961545
3935.000000	98.964753
3934.000000	98.963655
3933.000000	98.959810
3932.000000	98.956760
3931.000000	98.956709
3930.000000	98.958927
3929.000000	98.961047
3928.000000	98.960915
3927.000000	98.958121
3926.000000	98.954321
3925.000000	98.952245
3924.000000	98.953552
3923.000000	98.957114
3922.000000	98.960021
3921.000000	98.960345
3920.000000	98.958495
3919.000000	98.956380
3918.000000	98.955506
3917.000000	98.955961
3916.000000	98.956979
3915.000000	98.957833
3914.000000	98.958391
3913.000000	98.959077
3912.000000	98.960336
3911.000000	98.961696
3910.000000	98.961251
3909.000000	98.957193
3908.000000	98.949675
3907.000000	98.941560
3906.000000	98.937239
3905.000000	98.939840
3904.000000	98.948754
3903.000000	98.960086
3902.000000	98.969809
3901.000000	98.976169
3900.000000	98.978984
3899.000000	98.978779
3898.000000	98.976820
3897.000000	98.974298
3896.000000	98.971447
3895.000000	98.967621
3894.000000	98.962046
3893.000000	98.955611
3892.000000	98.951424
3891.000000	98.952420
3890.000000	98.957447
3889.000000	98.962009
3888.000000	98.963067
3887.000000	98.962133
3886.000000	98.963791
3885.000000	98.970583
3884.000000	98.979176
3883.000000	98.983482
3882.000000	98.980312
3881.000000	98.972562
3880.000000	98.967265
3879.000000	98.968784
3878.000000	98.974744
3877.000000	98.979923
3876.000000	98.981322
3875.000000	98.979569
3874.000000	98.976928
3873.000000	98.973935
3872.000000	98.969026
3871.000000	98.961797
3870.000000	98.955476
3869.000000	98.954182
3868.000000	98.957473
3867.000000	98.961148
3866.000000	98.962420
3865.000000	98.962084
3864.000000	98.962968
3863.000000	98.966558
3862.000000	98.971161
3861.000000	98.974288
3860.000000	98.974829
3859.000000	98.973498
3858.000000	98.971175
3857.000000	98.968114
3856.000000	98.964701
3855.000000	98.961920
3854.000000	98.960301
3853.000000	98.959331
3852.000000	98.959057
3851.000000	98.960511
3850.000000	98.963679
3849.000000	98.967588
3848.000000	98.971306
3847.000000	98.974181
3846.000000	98.975799
3845.000000	98.976311
3844.000000	98.976891
3843.000000	98.979058
3842.000000	98.982835
3841.000000	98.986399
3840.000000	98.987618
3839.000000	98.986415
3838.000000	98.984666
3837.000000	98.983709
3836.000000	98.982725
3835.000000	98.979665
3834.000000	98.973331
3833.000000	98.964691
3832.000000	98.956405
3831.000000	98.951167
3830.000000	98.949826
3829.000000	98.951227
3828.000000	98.953788
3827.000000	98.957175
3826.000000	98.962019
3825.000000	98.968549
3824.000000	98.976269
3823.000000	98.984592
3822.000000	98.992954
3821.000000	99.000090
3820.000000	99.004435
3819.000000	99.005149
3818.000000	99.002465
3817.000000	98.997449
3816.000000	98.990310
3815.000000	98.980772
3814.000000	98.969876
3813.000000	98.960673
3812.000000	98.956632
3811.000000	98.959227
3810.000000	98.966439
3809.000000	98.973638
3808.000000	98.977038
3807.000000	98.976499
3806.000000	98.975030
3805.000000	98.974833
3804.000000	98.975463
3803.000000	98.975604
3802.000000	98.974188
3801.000000	98.971037
3800.000000	98.967785
3799.000000	98.965782
3798.000000	98.964662
3797.000000	98.962964
3796.000000	98.959725
3795.000000	98.955266
3794.000000	98.951145
3793.000000	98.948749
3792.000000	98.947963
3791.000000	98.947207
3790.000000	98.945097
3789.000000	98.942157
3788.000000	98.940381
3787.000000	98.941239
3786.000000	98.944551
3785.000000	98.949436
3784.000000	98.955590
3783.000000	98.962994
3782.000000	98.970456
3781.000000	98.975307
3780.000000	98.974886
3779.000000	98.968947
3778.000000	98.960163
3777.000000	98.951848
3776.000000	98.946196
3775.000000	98.944170
3774.000000	98.945612
3773.000000	98.949404
3772.000000	98.954573
3771.000000	98.961130
3770.000000	98.968959
3769.000000	98.976221
3768.000000	98.979699
3767.000000	98.977356
3766.000000	98.970517
3765.000000	98.963779
3764.000000	98.962113
3763.000000	98.967358
3762.000000	98.977257
3761.000000	98.987081
3760.000000	98.991590
3759.000000	98.988534
3758.000000	98.980680
3757.000000	98.972859
3756.000000	98.967756
3755.000000	98.965625
3754.000000	98.967263
3753.000000	98.974545
3752.000000	98.986759
3751.000000	98.998159
3750.000000	99.003581
3749.000000	99.005218
3748.000000	99.007941
3747.000000	99.012484
3746.000000	99.016553
3745.000000	99.016934
3744.000000	99.013131
3743.000000	99.009052
3742.000000	99.007692
3741.000000	99.008313
3740.000000	99.009424
3739.000000	99.011356
3738.000000	99.015340
3737.000000	99.022019
3736.000000	99.030035
3735.000000	99.035209
3734.000000	99.033659
3733.000000	99.024432
3732.000000	99.010638
3731.000000	98.997930
3730.000000	98.989855
3729.000000	98.985587
3728.000000	98.981552
3727.000000	98.974244
3726.000000	98.962588
3725.000000	98.949061
3724.000000	98.938540
3723.000000	98.935384
3722.000000	98.941448
3721.000000	98.955127
3720.000000	98.971819
3719.000000	98.986160
3718.000000	98.994669
3717.000000	98.997276
3716.000000	98.996725
3715.000000	98.996234
3714.000000	98.997456
3713.000000	98.999979
3712.000000	99.002454
3711.000000	99.004430
3710.000000	99.005341
3709.000000	99.003833
3708.000000	98.999418
3707.000000	98.993253
3706.000000	98.987088
3705.000000	98.981698
3704.000000	98.977284
3703.000000	98.974333
3702.000000	98.973168
3701.000000	98.973235
3700.000000	98.973573
3699.000000	98.974292
3698.000000	98.976747
3697.000000	98.981474
3696.000000	98.986493
3695.000000	98.988501
3694.000000	98.986419
3693.000000	98.983505
3692.000000	98.985178
3691.000000	98.994067
3690.000000	99.006021
3689.000000	99.013135
3688.000000	99.012819
3687.000000	99.009140
3686.000000	99.004449
3685.000000	98.997068
3684.000000	98.985964
3683.000000	98.972661
3682.000000	98.957815
3681.000000	98.938370
3680.000000	98.909823
3679.000000	98.870612
3678.000000	98.824828
3677.000000	98.783498
3676.000000	98.763635
3675.000000	98.775548
3674.000000	98.807987
3673.000000	98.841245
3672.000000	98.866360
3671.000000	98.884513
3670.000000	98.898382
3669.000000	98.907570
3668.000000	98.910264
3667.000000	98.906690
3666.000000	98.899296
3665.000000	98.890526
3664.000000	98.881133
3663.000000	98.870534
3662.000000	98.858501
3661.000000	98.845877
3660.000000	98.833745
3659.000000	98.822840
3658.000000	98.814512
3657.000000	98.810639
3656.000000	98.811375
3655.000000	98.813588
3654.000000	98.814045
3653.000000	98.812850
3652.000000	98.813341
3651.000000	98.817138
3650.000000	98.817336
3649.000000	98.803050
3648.000000	98.776412
3647.000000	98.752264
3646.000000	98.738790
3645.000000	98.732383
3644.000000	98.726763
3643.000000	98.719292
3642.000000	98.709890
3641.000000	98.697675
3640.000000	98.680567
3639.000000	98.658498
3638.000000	98.635694
3637.000000	98.617906
3636.000000	98.608604
3635.000000	98.608264
3634.000000	98.615577
3633.000000	98.627652
3632.000000	98.639752
3631.000000	98.645651
3630.000000	98.638239
3629.000000	98.613698
3628.000000	98.579798
3627.000000	98.550244
3626.000000	98.530381
3625.000000	98.518649
3624.000000	98.512273
3623.000000	98.508211
3622.000000	98.502734
3621.000000	98.492584
3620.000000	98.477180
3619.000000	98.460300
3618.000000	98.447162
3617.000000	98.438689
3616.000000	98.431332
3615.000000	98.421715
3614.000000	98.409948
3613.000000	98.398821
3612.000000	98.389908
3611.000000	98.380823
3610.000000	98.367340
3609.000000	98.347760
3608.000000	98.325366
3607.000000	98.306147
3606.000000	98.293599
3605.000000	98.286932
3604.000000	98.282937
3603.000000	98.278084
3602.000000	98.270313
3601.000000	98.260457
3600.000000	98.251234
3599.000000	98.243505
3598.000000	98.234295
3597.000000	98.219447
3596.000000	98.198699
3595.000000	98.176752
3594.000000	98.159284
3593.000000	98.147603
3592.000000	98.138216
3591.000000	98.126881
3590.000000	98.111859
3589.000000	98.094186
3588.000000	98.076304
3587.000000	98.060108
3586.000000	98.045915
3585.000000	98.032229
3584.000000	98.017282
3583.000000	98.000898
3582.000000	97.984970
3581.000000	97.971996
3580.000000	97.963208
3579.000000	97.957252
3578.000000	97.950911
3577.000000	97.941071
3576.000000	97.926288
3575.000000	97.907258
3574.000000	97.886194
3573.000000	97.865893
3572.000000	97.847839
3571.000000	97.830687
3570.000000	97.810678
3569.000000	97.784650
3568.000000	97.753476
3567.000000	97.723417
3566.000000	97.701872
3565.000000	97.690771
3564.000000	97.685558
3563.000000	97.679789
3562.000000	97.668899
3561.000000	97.651742
3560.000000	97.630397
3559.000000	97.608419
3558.000000	97.588293
3557.000000	97.570683
3556.000000	97.555220
3555.000000	97.541337
3554.000000	97.528311
3553.000000	97.515390
3552.000000	97.502033
3551.000000	97.487526
3550.000000	97.470686
3549.000000	97.450731
3548.000000	97.428475
3547.000000	97.405879
3546.000000	97.384302
3545.000000	97.363753
3544.000000	97.343993
3543.000000	97.325193
3542.000000	97.307618
3541.000000	97.291486
3540.000000	97.277105
3539.000000	97.264455
3538.000000	97.252310
3537.000000	97.238342
3536.000000	97.220979
3535.000000	97.201244
3534.000000	97.182533
3533.000000	97.168204
3532.000000	97.159090
3531.000000	97.152441
3530.000000	97.143251
3529.000000	97.127723
3528.000000	97.105999
3527.000000	97.081507
3526.000000	97.057962
3525.000000	97.037497
3524.000000	97.020738
3523.000000	97.006980
3522.000000	96.994084
3521.000000	96.979487
3520.000000	96.961876
3519.000000	96.941463
3518.000000	96.918807
3517.000000	96.894410
3516.000000	96.870193
3515.000000	96.849874
3514.000000	96.836468
3513.000000	96.829049
3512.000000	96.822892
3511.000000	96.812995
3510.000000	96.797536
3509.000000	96.778385
3508.000000	96.759044
3507.000000	96.742441
3506.000000	96.729721
3505.000000	96.719916
3504.000000	96.710237
3503.000000	96.697945
3502.000000	96.682852
3501.000000	96.667159
3500.000000	96.652448
3499.000000	96.638057
3498.000000	96.623025
3497.000000	96.608518
3496.000000	96.597016
3495.000000	96.588968
3494.000000	96.581653
3493.000000	96.571962
3492.000000	96.559151
3491.000000	96.544107
3490.000000	96.527246
3489.000000	96.508584
3488.000000	96.489461
3487.000000	96.472364
3486.000000	96.458310
3485.000000	96.445481
3484.000000	96.431417
3483.000000	96.416031
3482.000000	96.401981
3481.000000	96.391964
3480.000000	96.385992
3479.000000	96.381331
3478.000000	96.374698
3477.000000	96.364403
3476.000000	96.350992
3475.000000	96.336518
3474.000000	96.323048
3473.000000	96.311160
3472.000000	96.299312
3471.000000	96.284887
3470.000000	96.266673
3469.000000	96.246684
3468.000000	96.229110
3467.000000	96.216996
3466.000000	96.209885
3465.000000	96.204715
3464.000000	96.198388
3463.000000	96.189428
3462.000000	96.178166
3461.000000	96.166026
3460.000000	96.154042
3459.000000	96.141405
3458.000000	96.126185
3457.000000	96.108450
3456.000000	96.092098
3455.000000	96.081899
3454.000000	96.078336
3453.000000	96.076339
3452.000000	96.069761
3451.000000	96.056661
3450.000000	96.040246
3449.000000	96.025455
3448.000000	96.015000
3447.000000	96.007788
3446.000000	96.000583
3445.000000	95.991068
3444.000000	95.979144
3443.000000	95.965862
3442.000000	95.952046
3441.000000	95.938261
3440.000000	95.925070
3439.000000	95.912425
3438.000000	95.899291
3437.000000	95.884920
3436.000000	95.870546
3435.000000	95.858849
3434.000000	95.851619
3433.000000	95.848064
3432.000000	95.845221
3431.000000	95.839371
3430.000000	95.827863
3429.000000	95.811017
3428.000000	95.792472
3427.000000	95.776635
3426.000000	95.765336
3425.000000	95.757313
3424.000000	95.750610
3423.000000	95.744446
3422.000000	95.738660
3421.000000	95.732631
3420.000000	95.725544
3419.000000	95.717206
3418.000000	95.708047
3417.000000	95.698625
3416.000000	95.689359
3415.000000	95.680231
3414.000000	95.670589
3413.000000	95.659908
3412.000000	95.648967
3411.000000	95.639516
3410.000000	95.632260
3409.000000	95.625643
3408.000000	95.617319
3407.000000	95.606717
3406.000000	95.595546
3405.000000	95.585696
3404.000000	95.576993
3403.000000	95.567336
3402.000000	95.555280
3401.000000	95.542152
3400.000000	95.531098
3399.000000	95.523624
3398.000000	95.517451
3397.000000	95.508485
3396.000000	95.494970
3395.000000	95.479121
3394.000000	95.464631
3393.000000	95.453351
3392.000000	95.444627
3391.000000	95.437109
3390.000000	95.430143
3389.000000	95.423333
3388.000000	95.415621
3387.000000	95.405524
3386.000000	95.392439
3385.000000	95.377644
3384.000000	95.363803
3383.000000	95.353106
3382.000000	95.345460
3381.000000	95.338210
3380.000000	95.327780
3379.000000	95.312024
3378.000000	95.291629
3377.000000	95.269496
3376.000000	95.248599
3375.000000	95.230057
3374.000000	95.212905
3373.000000	95.195576
3372.000000	95.177462
3371.000000	95.159093
3370.000000	95.141174
3369.000000	95.123808
3368.000000	95.106435
3367.000000	95.088000
3366.000000	95.067162
3365.000000	95.043179
3364.000000	95.017156
3363.000000	94.991944
3362.000000	94.969793
3361.000000	94.949823
3360.000000	94.928502
3359.000000	94.903148
3358.000000	94.874629
3357.000000	94.846091
3356.000000	94.819302
3355.000000	94.793014
3354.000000	94.764880
3353.000000	94.734154
3352.000000	94.702099
3351.000000	94.670472
3350.000000	94.640347
3349.000000	94.611943
3348.000000	94.584670
3347.000000	94.557330
3346.000000	94.528940
3345.000000	94.499504
3344.000000	94.469782
3343.000000	94.440540
3342.000000	94.412492
3341.000000	94.386459
3340.000000	94.362345
3339.000000	94.337911
3338.000000	94.309921
3337.000000	94.277411
3336.000000	94.243306
3335.000000	94.212064
3334.000000	94.185998
3333.000000	94.164191
3332.000000	94.144296
3331.000000	94.124647
3330.000000	94.105107
3329.000000	94.086699
3328.000000	94.070198
3327.000000	94.054533
3326.000000	94.036909
3325.000000	94.015148
3324.000000	93.989920
3323.000000	93.964201
3322.000000	93.940844
3321.000000	93.921151
3320.000000	93.905068
3319.000000	93.891563
3318.000000	93.878749
3317.000000	93.864824
3316.000000	93.849820
3315.000000	93.836089
3314.000000	93.826375
3313.000000	93.821355
3312.000000	93.818995
3311.000000	93.816117
3310.000000	93.810527
3309.000000	93.802188
3308.000000	93.792965
3307.000000	93.785136
3306.000000	93.779444
3305.000000	93.774026
3304.000000	93.765293
3303.000000	93.750542
3302.000000	93.730593
3301.000000	93.710293
3300.000000	93.695976
3299.000000	93.691363
3298.000000	93.695030
3297.000000	93.701548
3296.000000	93.705615
3295.000000	93.705628
3294.000000	93.703453
3293.000000	93.701055
3292.000000	93.698031
3291.000000	93.692797
3290.000000	93.685630
3289.000000	93.679420
3288.000000	93.677097
3287.000000	93.679063
3286.000000	93.683550
3285.000000	93.688802
3284.000000	93.694151
3283.000000	93.699438
3282.000000	93.704299
3281.000000	93.708351
3280.000000	93.711806
3279.000000	93.715593
3278.000000	93.720602
3277.000000	93.726528
3276.000000	93.731932
3275.000000	93.736458
3274.000000	93.742700
3273.000000	93.754098
3272.000000	93.770213
3271.000000	93.785484
3270.000000	93.794306
3269.000000	93.796651
3268.000000	93.797532
3267.000000	93.801917
3266.000000	93.811537
3265.000000	93.825797
3264.000000	93.843243
3263.000000	93.861557
3262.000000	93.878068
3261.000000	93.891516
3260.000000	93.902723
3259.000000	93.913192
3258.000000	93.924010
3257.000000	93.936214
3256.000000	93.950654
3255.000000	93.966614
3254.000000	93.981658
3253.000000	93.993913
3252.000000	94.003990
3251.000000	94.014158
3250.000000	94.026382
3249.000000	94.041588
3248.000000	94.059718
3247.000000	94.079331
3246.000000	94.097602
3245.000000	94.111702
3244.000000	94.120343
3243.000000	94.123980
3242.000000	94.124471
3241.000000	94.125089
3240.000000	94.129659
3239.000000	94.140140
3238.000000	94.155125
3237.000000	94.171539
3236.000000	94.187595
3235.000000	94.203269
3234.000000	94.218305
3233.000000	94.231181
3232.000000	94.240532
3231.000000	94.246867
3230.000000	94.252354
3229.000000	94.259291
3228.000000	94.268976
3227.000000	94.281368
3226.000000	94.295029
3225.000000	94.307390
3224.000000	94.316098
3223.000000	94.321180
3222.000000	94.325986
3221.000000	94.335070
3220.000000	94.350319
3219.000000	94.369144
3218.000000	94.386992
3217.000000	94.401258
3216.000000	94.412161
3215.000000	94.420609
3214.000000	94.426704
3213.000000	94.430861
3212.000000	94.434989
3211.000000	94.441433
3210.000000	94.450920
3209.000000	94.462297
3208.000000	94.474101
3207.000000	94.485844
3206.000000	94.497756
3205.000000	94.509884
3204.000000	94.521902
3203.000000	94.533776
3202.000000	94.546200
3201.000000	94.559839
3200.000000	94.574070
3199.000000	94.587318
3198.000000	94.599332
3197.000000	94.612462
3196.000000	94.629421
3195.000000	94.649706
3194.000000	94.669614
3193.000000	94.686056
3192.000000	94.699603
3191.000000	94.713392
3190.000000	94.729986
3189.000000	94.749833
3188.000000	94.771676
3187.000000	94.793362
3186.000000	94.812616
3185.000000	94.828291
3184.000000	94.841207
3183.000000	94.853541
3182.000000	94.867393
3181.000000	94.883687
3180.000000	94.901687
3179.000000	94.919054
3178.000000	94.933326
3177.000000	94.944385
3176.000000	94.955079
3175.000000	94.968664
3174.000000	94.985874
3173.000000	95.005143
3172.000000	95.025087
3171.000000	95.045724
3170.000000	95.067209
3169.000000	95.088532
3168.000000	95.108080
3167.000000	95.125152
3166.000000	95.140639
3165.000000	95.156485
3164.000000	95.174411
3163.000000	95.194639
3162.000000	95.215503
3161.000000	95.234715
3160.000000	95.251358
3159.000000	95.266681
3158.000000	95.282966
3157.000000	95.301793
3156.000000	95.323099
3155.000000	95.345224
3154.000000	95.365694
3153.000000	95.382639
3152.000000	95.396323
3151.000000	95.409214
3150.000000	95.424031
3149.000000	95.441170
3148.000000	95.458279
3147.000000	95.472731
3146.000000	95.484742
