PE IR       SUBTECH     SPECTRUM    ASCII       PEDS        4.00        
   -1
Veau2-C002_1.ASC
23/09/14
13:58:12.00
23/09/14
14:07:46.00
uco
Sample 002 By uco Date Thursday, September 14 2023
450.000000
#HDR
-1
-1
#GR
cm-1
%T
1.0
0.0
4000.000000
-1.000000
3551
8
98.951236
91.457415
#DATA
4000.000000	98.786791
3999.000000	98.790454
3998.000000	98.793161
3997.000000	98.791650
3996.000000	98.789211
3995.000000	98.784936
3994.000000	98.779449
3993.000000	98.773016
3992.000000	98.765871
3991.000000	98.758956
3990.000000	98.754054
3989.000000	98.752763
3988.000000	98.755228
3987.000000	98.759794
3986.000000	98.763955
3985.000000	98.766036
3984.000000	98.766308
3983.000000	98.766644
3982.000000	98.768711
3981.000000	98.772169
3980.000000	98.774866
3979.000000	98.775037
3978.000000	98.773133
3977.000000	98.771227
3976.000000	98.770667
3975.000000	98.770599
3974.000000	98.769060
3973.000000	98.765176
3972.000000	98.760064
3971.000000	98.755704
3970.000000	98.753151
3969.000000	98.752001
3968.000000	98.751256
3967.000000	98.750504
3966.000000	98.750215
3965.000000	98.750918
3964.000000	98.752210
3963.000000	98.752729
3962.000000	98.751323
3961.000000	98.748181
3960.000000	98.744796
3959.000000	98.742730
3958.000000	98.742398
3957.000000	98.743058
3956.000000	98.743673
3955.000000	98.743743
3954.000000	98.743530
3953.000000	98.743562
3952.000000	98.743941
3951.000000	98.743894
3950.000000	98.742194
3949.000000	98.738411
3948.000000	98.733861
3947.000000	98.730974
3946.000000	98.731376
3945.000000	98.734742
3944.000000	98.739054
3943.000000	98.741555
3942.000000	98.740470
3941.000000	98.736358
3940.000000	98.732004
3939.000000	98.730726
3938.000000	98.733788
3937.000000	98.739171
3936.000000	98.742950
3935.000000	98.742588
3934.000000	98.739168
3933.000000	98.736191
3932.000000	98.736230
3931.000000	98.738838
3930.000000	98.741905
3929.000000	98.743991
3928.000000	98.744617
3927.000000	98.743754
3926.000000	98.741665
3925.000000	98.739056
3924.000000	98.736745
3923.000000	98.734852
3922.000000	98.732846
3921.000000	98.730665
3920.000000	98.729156
3919.000000	98.729102
3918.000000	98.729809
3917.000000	98.729386
3916.000000	98.726941
3915.000000	98.723880
3914.000000	98.722791
3913.000000	98.725097
3912.000000	98.729802
3911.000000	98.734166
3910.000000	98.735644
3909.000000	98.734020
3908.000000	98.731507
3907.000000	98.731324
3906.000000	98.735947
3905.000000	98.745295
3904.000000	98.755842
3903.000000	98.762395
3902.000000	98.761589
3901.000000	98.754080
3900.000000	98.743592
3899.000000	98.734772
3898.000000	98.730720
3897.000000	98.731512
3896.000000	98.735157
3895.000000	98.739469
3894.000000	98.742894
3893.000000	98.744725
3892.000000	98.745005
3891.000000	98.744670
3890.000000	98.744668
3889.000000	98.744568
3888.000000	98.743216
3887.000000	98.740767
3886.000000	98.739012
3885.000000	98.739558
3884.000000	98.741545
3883.000000	98.742100
3882.000000	98.739039
3881.000000	98.733332
3880.000000	98.728617
3879.000000	98.727701
3878.000000	98.729782
3877.000000	98.732142
3876.000000	98.733183
3875.000000	98.733123
3874.000000	98.732612
3873.000000	98.731647
3872.000000	98.730259
3871.000000	98.729148
3870.000000	98.728887
3869.000000	98.728962
3868.000000	98.728337
3867.000000	98.727055
3866.000000	98.726790
3865.000000	98.729005
3864.000000	98.732713
3863.000000	98.735387
3862.000000	98.736296
3861.000000	98.737316
3860.000000	98.739860
3859.000000	98.743204
3858.000000	98.744940
3857.000000	98.743260
3856.000000	98.738946
3855.000000	98.735230
3854.000000	98.734043
3853.000000	98.732798
3852.000000	98.730203
3851.000000	98.728686
3850.000000	98.729062
3849.000000	98.730742
3848.000000	98.733779
3847.000000	98.738736
3846.000000	98.745385
3845.000000	98.752072
3844.000000	98.756869
3843.000000	98.759454
3842.000000	98.761084
3841.000000	98.762699
3840.000000	98.763483
3839.000000	98.762042
3838.000000	98.758173
3837.000000	98.753017
3836.000000	98.747677
3835.000000	98.742116
3834.000000	98.735856
3833.000000	98.729019
3832.000000	98.722515
3831.000000	98.717830
3830.000000	98.716089
3829.000000	98.717321
3828.000000	98.720745
3827.000000	98.725696
3826.000000	98.731509
3825.000000	98.736888
3824.000000	98.739990
3823.000000	98.739660
3822.000000	98.736835
3821.000000	98.734605
3820.000000	98.736072
3819.000000	98.741064
3818.000000	98.746397
3817.000000	98.749294
3816.000000	98.748458
3815.000000	98.744658
3814.000000	98.740129
3813.000000	98.736557
3812.000000	98.734434
3811.000000	98.733450
3810.000000	98.732872
3809.000000	98.732101
3808.000000	98.731501
3807.000000	98.731923
3806.000000	98.733688
3805.000000	98.735965
3804.000000	98.737243
3803.000000	98.736684
3802.000000	98.734147
3801.000000	98.730149
3800.000000	98.726398
3799.000000	98.723627
3798.000000	98.721115
3797.000000	98.718363
3796.000000	98.715760
3795.000000	98.713832
3794.000000	98.713151
3793.000000	98.714272
3792.000000	98.717223
3791.000000	98.720905
3790.000000	98.723719
3789.000000	98.725100
3788.000000	98.725592
3787.000000	98.725328
3786.000000	98.723405
3785.000000	98.719740
3784.000000	98.716816
3783.000000	98.718135
3782.000000	98.724715
3781.000000	98.733764
3780.000000	98.740288
3779.000000	98.740826
3778.000000	98.736463
3777.000000	98.731106
3776.000000	98.727660
3775.000000	98.726629
3774.000000	98.727005
3773.000000	98.727590
3772.000000	98.728315
3771.000000	98.730272
3770.000000	98.734015
3769.000000	98.738304
3768.000000	98.740948
3767.000000	98.740864
3766.000000	98.739123
3765.000000	98.738191
3764.000000	98.740002
3763.000000	98.744703
3762.000000	98.751054
3761.000000	98.757372
3760.000000	98.761308
3759.000000	98.760937
3758.000000	98.756862
3757.000000	98.751905
3756.000000	98.748074
3755.000000	98.745226
3754.000000	98.743214
3753.000000	98.743681
3752.000000	98.748703
3751.000000	98.757636
3750.000000	98.767328
3749.000000	98.775857
3748.000000	98.782201
3747.000000	98.784159
3746.000000	98.780260
3745.000000	98.772182
3744.000000	98.765963
3743.000000	98.766505
3742.000000	98.771189
3741.000000	98.774342
3740.000000	98.774002
3739.000000	98.773349
3738.000000	98.777315
3737.000000	98.787932
3736.000000	98.800590
3735.000000	98.806237
3734.000000	98.801077
3733.000000	98.789830
3732.000000	98.779820
3731.000000	98.775151
3730.000000	98.774660
3729.000000	98.774323
3728.000000	98.770921
3727.000000	98.764333
3726.000000	98.757551
3725.000000	98.754232
3724.000000	98.755683
3723.000000	98.760077
3722.000000	98.764937
3721.000000	98.769558
3720.000000	98.774452
3719.000000	98.779106
3718.000000	98.781292
3717.000000	98.779092
3716.000000	98.773165
3715.000000	98.766618
3714.000000	98.763109
3713.000000	98.764956
3712.000000	98.771586
3711.000000	98.779989
3710.000000	98.786638
3709.000000	98.789732
3708.000000	98.789609
3707.000000	98.787560
3706.000000	98.784901
3705.000000	98.781713
3704.000000	98.777195
3703.000000	98.770627
3702.000000	98.762715
3701.000000	98.756354
3700.000000	98.754976
3699.000000	98.759839
3698.000000	98.769344
3697.000000	98.779655
3696.000000	98.786066
3695.000000	98.785698
3694.000000	98.779886
3693.000000	98.774068
3692.000000	98.774013
3691.000000	98.781112
3690.000000	98.789994
3689.000000	98.793814
3688.000000	98.793021
3687.000000	98.793337
3686.000000	98.796081
3685.000000	98.797144
3684.000000	98.792755
3683.000000	98.782499
3682.000000	98.768404
3681.000000	98.752559
3680.000000	98.735999
3679.000000	98.718564
3678.000000	98.700400
3677.000000	98.684373
3676.000000	98.676648
3675.000000	98.681901
3674.000000	98.696987
3673.000000	98.713809
3672.000000	98.727558
3671.000000	98.738134
3670.000000	98.745477
3669.000000	98.748187
3668.000000	98.747036
3667.000000	98.745335
3666.000000	98.745814
3665.000000	98.748426
3664.000000	98.750245
3663.000000	98.748122
3662.000000	98.741955
3661.000000	98.734636
3660.000000	98.728826
3659.000000	98.724854
3658.000000	98.722110
3657.000000	98.720639
3656.000000	98.720916
3655.000000	98.722680
3654.000000	98.725436
3653.000000	98.729903
3652.000000	98.738374
3651.000000	98.750670
3650.000000	98.758096
3649.000000	98.749153
3648.000000	98.726757
3647.000000	98.706389
3646.000000	98.696441
3645.000000	98.693351
3644.000000	98.690351
3643.000000	98.684344
3642.000000	98.676349
3641.000000	98.668334
3640.000000	98.660511
3639.000000	98.652310
3638.000000	98.645102
3637.000000	98.641789
3636.000000	98.643994
3635.000000	98.650723
3634.000000	98.659882
3633.000000	98.669892
3632.000000	98.679248
3631.000000	98.684891
3630.000000	98.681547
3629.000000	98.665502
3628.000000	98.643011
3627.000000	98.625323
3626.000000	98.614526
3625.000000	98.606115
3624.000000	98.596914
3623.000000	98.587252
3622.000000	98.579695
3621.000000	98.577030
3620.000000	98.579653
3619.000000	98.583915
3618.000000	98.584476
3617.000000	98.578322
3616.000000	98.565674
3615.000000	98.549234
3614.000000	98.533596
3613.000000	98.522976
3612.000000	98.517562
3611.000000	98.512816
3610.000000	98.503613
3609.000000	98.489309
3608.000000	98.474792
3607.000000	98.465713
3606.000000	98.463258
3605.000000	98.464693
3604.000000	98.466919
3603.000000	98.467692
3602.000000	98.465524
3601.000000	98.460467
3600.000000	98.454975
3599.000000	98.452137
3598.000000	98.452198
3597.000000	98.451626
3596.000000	98.446543
3595.000000	98.436628
3594.000000	98.425412
3593.000000	98.416157
3592.000000	98.408441
3591.000000	98.399736
3590.000000	98.388840
3589.000000	98.376999
3588.000000	98.366045
3587.000000	98.356297
3586.000000	98.347321
3585.000000	98.338652
3584.000000	98.329484
3583.000000	98.318953
3582.000000	98.307390
3581.000000	98.296555
3580.000000	98.288306
3579.000000	98.282603
3578.000000	98.277564
3577.000000	98.271810
3576.000000	98.265804
3575.000000	98.260783
3574.000000	98.256650
3573.000000	98.251963
3572.000000	98.245080
3571.000000	98.234979
3570.000000	98.221212
3569.000000	98.204246
3568.000000	98.185647
3567.000000	98.167853
3566.000000	98.153319
3565.000000	98.143400
3564.000000	98.137519
3563.000000	98.133787
3562.000000	98.129950
3561.000000	98.124321
3560.000000	98.116435
3559.000000	98.106882
3558.000000	98.096079
3557.000000	98.083960
3556.000000	98.070878
3555.000000	98.058400
3554.000000	98.048525
3553.000000	98.041963
3552.000000	98.037175
3551.000000	98.031465
3550.000000	98.023215
3549.000000	98.012856
3548.000000	98.001834
3547.000000	97.990701
3546.000000	97.978654
3545.000000	97.965486
3544.000000	97.953201
3543.000000	97.944212
3542.000000	97.938571
3541.000000	97.933857
3540.000000	97.927489
3539.000000	97.918621
3538.000000	97.907746
3537.000000	97.895146
3536.000000	97.880794
3535.000000	97.865914
3534.000000	97.853637
3533.000000	97.846820
3532.000000	97.845205
3531.000000	97.845172
3530.000000	97.842605
3529.000000	97.836033
3528.000000	97.826659
3527.000000	97.816167
3526.000000	97.805725
3525.000000	97.796563
3524.000000	97.789344
3523.000000	97.782456
3522.000000	97.772818
3521.000000	97.759518
3520.000000	97.745330
3519.000000	97.733360
3518.000000	97.723077
3517.000000	97.710892
3516.000000	97.694836
3515.000000	97.676947
3514.000000	97.660808
3513.000000	97.647802
3512.000000	97.636749
3511.000000	97.626325
3510.000000	97.616821
3509.000000	97.609514
3508.000000	97.605113
3507.000000	97.603238
3506.000000	97.602902
3505.000000	97.602898
3504.000000	97.601738
3503.000000	97.598033
3502.000000	97.591434
3501.000000	97.582672
3500.000000	97.572363
3499.000000	97.560426
3498.000000	97.547277
3497.000000	97.535050
3496.000000	97.526466
3495.000000	97.521913
3494.000000	97.518481
3493.000000	97.512637
3492.000000	97.503406
3491.000000	97.492305
3490.000000	97.480905
3489.000000	97.469503
3488.000000	97.458148
3487.000000	97.447716
3486.000000	97.439189
3485.000000	97.432412
3484.000000	97.426473
3483.000000	97.421114
3482.000000	97.417111
3481.000000	97.414920
3480.000000	97.413324
3479.000000	97.409942
3478.000000	97.403150
3477.000000	97.393382
3476.000000	97.382644
3475.000000	97.372840
3474.000000	97.364248
3473.000000	97.355335
3472.000000	97.344102
3471.000000	97.330135
3470.000000	97.315629
3469.000000	97.304098
3468.000000	97.297636
3467.000000	97.295400
3466.000000	97.294808
3465.000000	97.293770
3464.000000	97.291433
3463.000000	97.287691
3462.000000	97.283106
3461.000000	97.278797
3460.000000	97.274924
3459.000000	97.269180
3458.000000	97.258454
3457.000000	97.242835
3456.000000	97.227007
3455.000000	97.216370
3454.000000	97.212112
3453.000000	97.210836
3452.000000	97.208557
3451.000000	97.204156
3450.000000	97.199250
3449.000000	97.195626
3448.000000	97.192935
3447.000000	97.188553
3446.000000	97.180143
3445.000000	97.168470
3444.000000	97.156952
3443.000000	97.148303
3442.000000	97.142081
3441.000000	97.135740
3440.000000	97.127221
3439.000000	97.115892
3438.000000	97.102078
3437.000000	97.087303
3436.000000	97.074866
3435.000000	97.068360
3434.000000	97.068585
3433.000000	97.071970
3432.000000	97.072600
3431.000000	97.066042
3430.000000	97.052052
3429.000000	97.034518
3428.000000	97.018802
3427.000000	97.008400
3426.000000	97.003412
3425.000000	97.001644
3424.000000	97.000570
3423.000000	96.998280
3422.000000	96.993572
3421.000000	96.986300
3420.000000	96.977537
3419.000000	96.968710
3418.000000	96.960441
3417.000000	96.952410
3416.000000	96.943852
3415.000000	96.933912
3414.000000	96.922227
3413.000000	96.909908
3412.000000	96.899362
3411.000000	96.892260
3410.000000	96.887864
3409.000000	96.883918
3408.000000	96.878820
3407.000000	96.872354
3406.000000	96.864823
3405.000000	96.856530
3404.000000	96.847972
3403.000000	96.839644
3402.000000	96.831726
3401.000000	96.824576
3400.000000	96.819204
3399.000000	96.816178
3398.000000	96.813960
3397.000000	96.809541
3396.000000	96.801365
3395.000000	96.791083
3394.000000	96.781959
3393.000000	96.775905
3392.000000	96.772296
3391.000000	96.769381
3390.000000	96.766317
3389.000000	96.763508
3388.000000	96.760888
3387.000000	96.756181
3386.000000	96.745836
3385.000000	96.728784
3384.000000	96.709032
3383.000000	96.693326
3382.000000	96.685623
3381.000000	96.684051
3380.000000	96.683337
3379.000000	96.679716
3378.000000	96.673341
3377.000000	96.666589
3376.000000	96.660864
3375.000000	96.655377
3374.000000	96.648746
3373.000000	96.641021
3372.000000	96.633368
3371.000000	96.625868
3370.000000	96.616616
3369.000000	96.603699
3368.000000	96.587676
3367.000000	96.571398
3366.000000	96.557533
3365.000000	96.546925
3364.000000	96.538944
3363.000000	96.532225
3362.000000	96.524883
3361.000000	96.515278
3360.000000	96.503631
3359.000000	96.492448
3358.000000	96.484285
3357.000000	96.478700
3356.000000	96.471872
3355.000000	96.459870
3354.000000	96.442510
3353.000000	96.423779
3352.000000	96.408209
3351.000000	96.396838
3350.000000	96.386850
3349.000000	96.374883
3348.000000	96.360128
3347.000000	96.344304
3346.000000	96.329469
3345.000000	96.316451
3344.000000	96.305030
3343.000000	96.294843
3342.000000	96.285885
3341.000000	96.278270
3340.000000	96.271475
3339.000000	96.263921
3338.000000	96.253868
3337.000000	96.241019
3336.000000	96.226837
3335.000000	96.212940
3334.000000	96.199616
3333.000000	96.186389
3332.000000	96.173601
3331.000000	96.162690
3330.000000	96.154925
3329.000000	96.149997
3328.000000	96.145659
3327.000000	96.138816
3326.000000	96.127786
3325.000000	96.113867
3324.000000	96.100067
3323.000000	96.087803
3322.000000	96.075706
3321.000000	96.062117
3320.000000	96.047771
3319.000000	96.035139
3318.000000	96.025844
3317.000000	96.019630
3316.000000	96.015167
3315.000000	96.010663
3314.000000	96.004292
3313.000000	95.995700
3312.000000	95.986915
3311.000000	95.980411
3310.000000	95.976171
3309.000000	95.971757
3308.000000	95.965357
3307.000000	95.957420
3306.000000	95.949166
3305.000000	95.940936
3304.000000	95.932326
3303.000000	95.922596
3302.000000	95.910618
3301.000000	95.895983
3300.000000	95.881153
3299.000000	95.871074
3298.000000	95.869039
3297.000000	95.873193
3296.000000	95.877986
3295.000000	95.878871
3294.000000	95.874982
3293.000000	95.868083
3292.000000	95.860413
3291.000000	95.853484
3290.000000	95.847722
3289.000000	95.842603
3288.000000	95.837573
3287.000000	95.833146
3286.000000	95.830702
3285.000000	95.830846
3284.000000	95.832161
3283.000000	95.832011
3282.000000	95.828879
3281.000000	95.823839
3280.000000	95.819483
3279.000000	95.817329
3278.000000	95.816517
3277.000000	95.815207
3276.000000	95.813149
3275.000000	95.812506
3274.000000	95.815984
3273.000000	95.824399
3272.000000	95.835802
3271.000000	95.846508
3270.000000	95.853086
3269.000000	95.854143
3268.000000	95.850853
3267.000000	95.845828
3266.000000	95.841447
3265.000000	95.839236
3264.000000	95.840329
3263.000000	95.845463
3262.000000	95.854155
3261.000000	95.864572
3260.000000	95.874807
3259.000000	95.883982
3258.000000	95.891757
3257.000000	95.897415
3256.000000	95.900217
3255.000000	95.900540
3254.000000	95.900046
3253.000000	95.900688
3252.000000	95.904118
3251.000000	95.911786
3250.000000	95.924614
3249.000000	95.941821
3248.000000	95.960374
3247.000000	95.976205
3246.000000	95.986357
3245.000000	95.990390
3244.000000	95.990200
3243.000000	95.988675
3242.000000	95.988200
3241.000000	95.989809
3240.000000	95.993306
3239.000000	95.998091
3238.000000	96.004016
3237.000000	96.011583
3236.000000	96.021209
3235.000000	96.032089
3234.000000	96.041860
3233.000000	96.047879
3232.000000	96.049326
3231.000000	96.048021
3230.000000	96.046846
3229.000000	96.047508
3228.000000	96.049930
3227.000000	96.053176
3226.000000	96.056121
3225.000000	96.057421
3224.000000	96.056328
3223.000000	96.054268
3222.000000	96.054691
3221.000000	96.060159
3220.000000	96.069923
3219.000000	96.081181
3218.000000	96.092289
3217.000000	96.103260
3216.000000	96.113362
3215.000000	96.120271
3214.000000	96.122842
3213.000000	96.123406
3212.000000	96.125613
3211.000000	96.130293
3210.000000	96.134902
3209.000000	96.137339
3208.000000	96.139030
3207.000000	96.143629
3206.000000	96.153106
3205.000000	96.165812
3204.000000	96.178039
3203.000000	96.187159
3202.000000	96.193251
3201.000000	96.197968
3200.000000	96.202208
3199.000000	96.205358
3198.000000	96.207081
3197.000000	96.209024
3196.000000	96.213786
3195.000000	96.222066
3194.000000	96.231929
3193.000000	96.241206
3192.000000	96.249911
3191.000000	96.259621
3190.000000	96.270920
3189.000000	96.282269
3188.000000	96.291418
3187.000000	96.297509
3186.000000	96.301746
3185.000000	96.306423
3184.000000	96.313338
3183.000000	96.322896
3182.000000	96.334288
3181.000000	96.346229
3180.000000	96.357350
3179.000000	96.366211
3178.000000	96.371874
3177.000000	96.374999
3176.000000	96.377950
3175.000000	96.383135
3174.000000	96.391188
3173.000000	96.401167
3172.000000	96.412414
3171.000000	96.425708
3170.000000	96.442109
3169.000000	96.460880
3168.000000	96.478913
3167.000000	96.492704
3166.000000	96.501130
3165.000000	96.506416
3164.000000	96.512073
3163.000000	96.519778
3162.000000	96.528321
3161.000000	96.535716
3160.000000	96.541867
3159.000000	96.548672
3158.000000	96.557722
3157.000000	96.568605
3156.000000	96.579417
3155.000000	96.588232
3154.000000	96.593915
3153.000000	96.596623
3152.000000	96.598474
3151.000000	96.603121
3150.000000	96.613158
3149.000000	96.627394
3148.000000	96.641520
3147.000000	96.652035
3146.000000	96.659365
