PE IR       SUBTECH     SPECTRUM    ASCII       PEDS        4.00        
   -1
Chevre-PC2-C001_1.ASC
23/09/14
13:47:20.00
23/09/14
14:07:37.00
uco
Sample 001 By uco Date Thursday, September 14 2023
450.000000
#HDR
-1
-1
#GR
cm-1
%T
1.0
0.0
4000.000000
-1.000000
3551
8
99.110923
89.340177
#DATA
4000.000000	98.921071
3999.000000	98.923307
3998.000000	98.924160
3997.000000	98.923009
3996.000000	98.919139
3995.000000	98.912469
3994.000000	98.904542
3993.000000	98.898307
3992.000000	98.896210
3991.000000	98.898288
3990.000000	98.902266
3989.000000	98.905687
3988.000000	98.907531
3987.000000	98.907846
3986.000000	98.906560
3985.000000	98.903579
3984.000000	98.900059
3983.000000	98.898513
3982.000000	98.900555
3981.000000	98.904574
3980.000000	98.906511
3979.000000	98.903447
3978.000000	98.896297
3977.000000	98.888987
3976.000000	98.885110
3975.000000	98.885247
3974.000000	98.887128
3973.000000	98.887936
3972.000000	98.886623
3971.000000	98.884529
3970.000000	98.884036
3969.000000	98.886468
3968.000000	98.890853
3967.000000	98.894635
3966.000000	98.895682
3965.000000	98.893701
3964.000000	98.890160
3963.000000	98.887062
3962.000000	98.885574
3961.000000	98.885462
3960.000000	98.885651
3959.000000	98.885472
3958.000000	98.885453
3957.000000	98.886612
3956.000000	98.888874
3955.000000	98.890530
3954.000000	98.889575
3953.000000	98.885491
3952.000000	98.879518
3951.000000	98.873473
3950.000000	98.868542
3949.000000	98.864972
3948.000000	98.862359
3947.000000	98.859961
3946.000000	98.857073
3945.000000	98.853827
3944.000000	98.851616
3943.000000	98.852235
3942.000000	98.856194
3941.000000	98.862120
3940.000000	98.868007
3939.000000	98.872857
3938.000000	98.877063
3937.000000	98.881295
3936.000000	98.885346
3935.000000	98.888165
3934.000000	98.888988
3933.000000	98.888340
3932.000000	98.887911
3931.000000	98.889190
3930.000000	98.891796
3929.000000	98.893397
3928.000000	98.891519
3927.000000	98.885319
3926.000000	98.876341
3925.000000	98.867936
3924.000000	98.863126
3923.000000	98.862172
3922.000000	98.862588
3921.000000	98.861918
3920.000000	98.860239
3919.000000	98.859697
3918.000000	98.861795
3917.000000	98.865717
3916.000000	98.869669
3915.000000	98.873114
3914.000000	98.876929
3913.000000	98.882013
3912.000000	98.887969
3911.000000	98.892566
3910.000000	98.892475
3909.000000	98.885044
3908.000000	98.870289
3907.000000	98.851927
3906.000000	98.836165
3905.000000	98.828245
3904.000000	98.828738
3903.000000	98.833911
3902.000000	98.840588
3901.000000	98.849059
3900.000000	98.860740
3899.000000	98.874679
3898.000000	98.887151
3897.000000	98.894423
3896.000000	98.895036
3895.000000	98.890207
3894.000000	98.883054
3893.000000	98.876744
3892.000000	98.872415
3891.000000	98.869246
3890.000000	98.866567
3889.000000	98.864864
3888.000000	98.865662
3887.000000	98.870227
3886.000000	98.877231
3885.000000	98.883463
3884.000000	98.886817
3883.000000	98.887148
3882.000000	98.885640
3881.000000	98.884158
3880.000000	98.884626
3879.000000	98.887962
3878.000000	98.892936
3877.000000	98.897230
3876.000000	98.898921
3875.000000	98.896142
3874.000000	98.887699
3873.000000	98.874975
3872.000000	98.862259
3871.000000	98.854452
3870.000000	98.854120
3869.000000	98.860203
3868.000000	98.868897
3867.000000	98.876089
3866.000000	98.879466
3865.000000	98.879160
3864.000000	98.877146
3863.000000	98.875838
3862.000000	98.875969
3861.000000	98.876329
3860.000000	98.875378
3859.000000	98.872222
3858.000000	98.866931
3857.000000	98.861566
3856.000000	98.860096
3855.000000	98.863788
3854.000000	98.865834
3853.000000	98.861453
3852.000000	98.858577
3851.000000	98.862866
3850.000000	98.870207
3849.000000	98.875499
3848.000000	98.877539
3847.000000	98.878035
3846.000000	98.879379
3845.000000	98.882581
3844.000000	98.886229
3843.000000	98.887946
3842.000000	98.886913
3841.000000	98.884711
3840.000000	98.884483
3839.000000	98.888542
3838.000000	98.895829
3837.000000	98.902089
3836.000000	98.903069
3835.000000	98.897814
3834.000000	98.889202
3833.000000	98.881765
3832.000000	98.878791
3831.000000	98.880480
3830.000000	98.884725
3829.000000	98.889276
3828.000000	98.892501
3827.000000	98.893045
3826.000000	98.890613
3825.000000	98.886782
3824.000000	98.884267
3823.000000	98.884311
3822.000000	98.883847
3821.000000	98.878890
3820.000000	98.871483
3819.000000	98.867566
3818.000000	98.870830
3817.000000	98.880473
3816.000000	98.891159
3815.000000	98.897720
3814.000000	98.899176
3813.000000	98.896909
3812.000000	98.892748
3811.000000	98.888983
3810.000000	98.887997
3809.000000	98.890233
3808.000000	98.891986
3807.000000	98.888235
3806.000000	98.879507
3805.000000	98.871677
3804.000000	98.869840
3803.000000	98.874307
3802.000000	98.879763
3801.000000	98.881099
3800.000000	98.880334
3799.000000	98.881304
3798.000000	98.883462
3797.000000	98.883351
3796.000000	98.879175
3795.000000	98.873809
3794.000000	98.872406
3793.000000	98.877882
3792.000000	98.888840
3791.000000	98.900439
3790.000000	98.907456
3789.000000	98.908185
3788.000000	98.905370
3787.000000	98.903140
3786.000000	98.903064
3785.000000	98.903656
3784.000000	98.903417
3783.000000	98.903059
3782.000000	98.904138
3781.000000	98.906722
3780.000000	98.909230
3779.000000	98.910641
3778.000000	98.911956
3777.000000	98.914186
3776.000000	98.916209
3775.000000	98.915568
3774.000000	98.911143
3773.000000	98.904857
3772.000000	98.900594
3771.000000	98.901198
3770.000000	98.906254
3769.000000	98.912941
3768.000000	98.918815
3767.000000	98.922807
3766.000000	98.924209
3765.000000	98.922828
3764.000000	98.920095
3763.000000	98.918540
3762.000000	98.919760
3761.000000	98.923410
3760.000000	98.927471
3759.000000	98.928951
3758.000000	98.925269
3757.000000	98.915336
3756.000000	98.899953
3755.000000	98.882099
3754.000000	98.866802
3753.000000	98.859715
3752.000000	98.863604
3751.000000	98.874258
3750.000000	98.883081
3749.000000	98.885903
3748.000000	98.885929
3747.000000	98.889997
3746.000000	98.902856
3745.000000	98.919098
3744.000000	98.927714
3743.000000	98.928767
3742.000000	98.928384
3741.000000	98.926785
3740.000000	98.921673
3739.000000	98.913575
3738.000000	98.906064
3737.000000	98.902653
3736.000000	98.903335
3735.000000	98.905211
3734.000000	98.905833
3733.000000	98.904318
3732.000000	98.901133
3731.000000	98.898072
3730.000000	98.896810
3729.000000	98.896893
3728.000000	98.895494
3727.000000	98.889483
3726.000000	98.879549
3725.000000	98.872057
3724.000000	98.873816
3723.000000	98.885469
3722.000000	98.901005
3721.000000	98.913624
3720.000000	98.921228
3719.000000	98.925260
3718.000000	98.926377
3717.000000	98.923330
3716.000000	98.915586
3715.000000	98.905624
3714.000000	98.897982
3713.000000	98.896369
3712.000000	98.901851
3711.000000	98.912582
3710.000000	98.924542
3709.000000	98.933074
3708.000000	98.935464
3707.000000	98.931896
3706.000000	98.924450
3705.000000	98.916050
3704.000000	98.909541
3703.000000	98.906713
3702.000000	98.907006
3701.000000	98.908329
3700.000000	98.909763
3699.000000	98.912363
3698.000000	98.916742
3697.000000	98.921236
3696.000000	98.922587
3695.000000	98.918527
3694.000000	98.909769
3693.000000	98.900078
3692.000000	98.895058
3691.000000	98.898942
3690.000000	98.910063
3689.000000	98.920428
3688.000000	98.924576
3687.000000	98.924512
3686.000000	98.923172
3685.000000	98.920280
3684.000000	98.914957
3683.000000	98.908126
3682.000000	98.901265
3681.000000	98.894044
3680.000000	98.884558
3679.000000	98.872759
3678.000000	98.861428
3677.000000	98.852482
3676.000000	98.844117
3675.000000	98.836662
3674.000000	98.834949
3673.000000	98.840427
3672.000000	98.850341
3671.000000	98.860405
3670.000000	98.865851
3669.000000	98.865969
3668.000000	98.864749
3667.000000	98.865210
3666.000000	98.867633
3665.000000	98.870770
3664.000000	98.872423
3663.000000	98.870226
3662.000000	98.863023
3661.000000	98.851335
3660.000000	98.836764
3659.000000	98.821647
3658.000000	98.808569
3657.000000	98.798774
3656.000000	98.790933
3655.000000	98.782483
3654.000000	98.772012
3653.000000	98.760766
3652.000000	98.752178
3651.000000	98.748124
3650.000000	98.744734
3649.000000	98.736183
3648.000000	98.724490
3647.000000	98.717423
3646.000000	98.717739
3645.000000	98.721799
3644.000000	98.725015
3643.000000	98.724991
3642.000000	98.721645
3641.000000	98.715663
3640.000000	98.707144
3639.000000	98.696189
3638.000000	98.684803
3637.000000	98.676986
3636.000000	98.675577
3635.000000	98.679147
3634.000000	98.682776
3633.000000	98.682451
3632.000000	98.677797
3631.000000	98.669664
3630.000000	98.655105
3629.000000	98.630244
3628.000000	98.603108
3627.000000	98.587203
3626.000000	98.582906
3625.000000	98.581068
3624.000000	98.574159
3623.000000	98.560760
3622.000000	98.544836
3621.000000	98.532148
3620.000000	98.525700
3619.000000	98.523008
3618.000000	98.518725
3617.000000	98.509809
3616.000000	98.496960
3615.000000	98.483261
3614.000000	98.472151
3613.000000	98.465090
3612.000000	98.460217
3611.000000	98.453511
3610.000000	98.441658
3609.000000	98.424811
3608.000000	98.407600
3607.000000	98.395878
3606.000000	98.391665
3605.000000	98.392695
3604.000000	98.395592
3603.000000	98.397719
3602.000000	98.396893
3601.000000	98.391975
3600.000000	98.384121
3599.000000	98.375644
3598.000000	98.366798
3597.000000	98.354967
3596.000000	98.337731
3595.000000	98.316750
3594.000000	98.297653
3593.000000	98.284934
3592.000000	98.278004
3591.000000	98.272796
3590.000000	98.265824
3589.000000	98.255668
3588.000000	98.242313
3587.000000	98.226959
3586.000000	98.211920
3585.000000	98.198505
3584.000000	98.186277
3583.000000	98.174571
3582.000000	98.163312
3581.000000	98.153032
3580.000000	98.144466
3579.000000	98.137845
3578.000000	98.132069
3577.000000	98.125009
3576.000000	98.114911
3575.000000	98.101352
3574.000000	98.085179
3573.000000	98.067707
3572.000000	98.050058
3571.000000	98.032600
3570.000000	98.014495
3569.000000	97.993717
3568.000000	97.968700
3567.000000	97.942164
3566.000000	97.921706
3565.000000	97.912580
3564.000000	97.912163
3563.000000	97.913455
3562.000000	97.910566
3561.000000	97.901231
3560.000000	97.886705
3559.000000	97.870055
3558.000000	97.854068
3557.000000	97.840174
3556.000000	97.828552
3555.000000	97.818599
3554.000000	97.809434
3553.000000	97.800377
3552.000000	97.790814
3551.000000	97.779351
3550.000000	97.763755
3549.000000	97.742745
3548.000000	97.717982
3547.000000	97.693669
3546.000000	97.673726
3545.000000	97.659472
3544.000000	97.649782
3543.000000	97.642262
3542.000000	97.634063
3541.000000	97.623068
3540.000000	97.609517
3539.000000	97.595971
3538.000000	97.584619
3537.000000	97.574673
3536.000000	97.563274
3535.000000	97.549227
3534.000000	97.534566
3533.000000	97.522301
3532.000000	97.513408
3531.000000	97.506025
3530.000000	97.496751
3529.000000	97.482981
3528.000000	97.464913
3527.000000	97.445875
3526.000000	97.430068
3525.000000	97.419297
3524.000000	97.411576
3523.000000	97.402841
3522.000000	97.390320
3521.000000	97.374336
3520.000000	97.357264
3519.000000	97.341213
3518.000000	97.326590
3517.000000	97.312332
3516.000000	97.297342
3515.000000	97.281753
3514.000000	97.266914
3513.000000	97.254141
3512.000000	97.243492
3511.000000	97.233695
3510.000000	97.223296
3509.000000	97.212043
3508.000000	97.201084
3507.000000	97.191704
3506.000000	97.183886
3505.000000	97.176129
3504.000000	97.166483
3503.000000	97.154235
3502.000000	97.140658
3501.000000	97.127677
3500.000000	97.115888
3499.000000	97.104431
3498.000000	97.092638
3497.000000	97.081135
3496.000000	97.070997
3495.000000	97.062150
3494.000000	97.053346
3493.000000	97.043549
3492.000000	97.032556
3491.000000	97.020258
3490.000000	97.006347
3489.000000	96.991364
3488.000000	96.977305
3487.000000	96.966177
3486.000000	96.958088
3485.000000	96.951506
3484.000000	96.945173
3483.000000	96.939041
3482.000000	96.933383
3481.000000	96.927755
3480.000000	96.921220
3479.000000	96.913282
3478.000000	96.904382
3477.000000	96.895694
3476.000000	96.888338
3475.000000	96.882198
3474.000000	96.875372
3473.000000	96.865378
3472.000000	96.851362
3471.000000	96.835195
3470.000000	96.820160
3469.000000	96.808439
3468.000000	96.799633
3467.000000	96.791443
3466.000000	96.781720
3465.000000	96.769933
3464.000000	96.757193
3463.000000	96.745546
3462.000000	96.737297
3461.000000	96.734030
3460.000000	96.735068
3459.000000	96.736701
3458.000000	96.734101
3457.000000	96.724900
3456.000000	96.710913
3455.000000	96.696054
3454.000000	96.682742
3453.000000	96.670832
3452.000000	96.659538
3451.000000	96.649348
3450.000000	96.641547
3449.000000	96.636206
3448.000000	96.631153
3447.000000	96.623402
3446.000000	96.611908
3445.000000	96.598455
3444.000000	96.585623
3443.000000	96.574582
3442.000000	96.565150
3441.000000	96.557125
3440.000000	96.550324
3439.000000	96.543546
3438.000000	96.535111
3437.000000	96.525238
3436.000000	96.516683
3435.000000	96.511866
3434.000000	96.509750
3433.000000	96.506485
3432.000000	96.498842
3431.000000	96.486324
3430.000000	96.470727
3429.000000	96.454959
3428.000000	96.442027
3427.000000	96.433550
3426.000000	96.428609
3425.000000	96.424725
3424.000000	96.420222
3423.000000	96.415013
3422.000000	96.409029
3421.000000	96.401175
3420.000000	96.390612
3419.000000	96.378333
3418.000000	96.366376
3417.000000	96.355726
3416.000000	96.345751
3415.000000	96.335571
3414.000000	96.325422
3413.000000	96.316560
3412.000000	96.310094
3411.000000	96.306006
3410.000000	96.303066
3409.000000	96.299503
3408.000000	96.293888
3407.000000	96.285752
3406.000000	96.275750
3405.000000	96.265279
3404.000000	96.255588
3403.000000	96.246863
3402.000000	96.238156
3401.000000	96.228359
3400.000000	96.217163
3399.000000	96.205033
3398.000000	96.192558
3397.000000	96.180203
3396.000000	96.168575
3395.000000	96.158553
3394.000000	96.150891
3393.000000	96.145684
3392.000000	96.142237
3391.000000	96.139519
3390.000000	96.136817
3389.000000	96.133874
3388.000000	96.130147
3387.000000	96.124147
3386.000000	96.114283
3385.000000	96.101000
3384.000000	96.087571
3383.000000	96.077774
3382.000000	96.072293
3381.000000	96.067782
3380.000000	96.059853
3379.000000	96.047041
3378.000000	96.031862
3377.000000	96.018037
3376.000000	96.006781
3375.000000	95.995892
3374.000000	95.982427
3373.000000	95.966015
3372.000000	95.949247
3371.000000	95.934907
3370.000000	95.923262
3369.000000	95.912069
3368.000000	95.898715
3367.000000	95.882118
3366.000000	95.863047
3365.000000	95.843293
3364.000000	95.824492
3363.000000	95.807240
3362.000000	95.790931
3361.000000	95.774372
3360.000000	95.756651
3359.000000	95.737607
3358.000000	95.717684
3357.000000	95.697394
3356.000000	95.676836
3355.000000	95.655775
3354.000000	95.634217
3353.000000	95.612600
3352.000000	95.591183
3351.000000	95.569622
3350.000000	95.547712
3349.000000	95.526233
3348.000000	95.506259
3347.000000	95.487548
3346.000000	95.468383
3345.000000	95.447323
3344.000000	95.424756
3343.000000	95.402629
3342.000000	95.382975
3341.000000	95.366406
3340.000000	95.351128
3339.000000	95.333532
3338.000000	95.311063
3337.000000	95.285092
3336.000000	95.260014
3335.000000	95.238826
3334.000000	95.220393
3333.000000	95.201711
3332.000000	95.181920
3331.000000	95.163253
3330.000000	95.148790
3329.000000	95.139991
3328.000000	95.135519
3327.000000	95.131366
3326.000000	95.122712
3325.000000	95.107060
3324.000000	95.085891
3323.000000	95.062943
3322.000000	95.041382
3321.000000	95.022989
3320.000000	95.008824
3319.000000	94.999042
3318.000000	94.992129
3317.000000	94.985538
3316.000000	94.977546
3315.000000	94.968162
3314.000000	94.958580
3313.000000	94.950496
3312.000000	94.945386
3311.000000	94.943257
3310.000000	94.942031
3309.000000	94.939002
3308.000000	94.933151
3307.000000	94.925456
3306.000000	94.917241
3305.000000	94.909140
3304.000000	94.901358
3303.000000	94.893725
3302.000000	94.885462
3301.000000	94.876232
3300.000000	94.867867
3299.000000	94.863628
3298.000000	94.864700
3297.000000	94.868152
3296.000000	94.869477
3295.000000	94.866953
3294.000000	94.862520
3293.000000	94.858539
3292.000000	94.854958
3291.000000	94.850258
3290.000000	94.844349
3289.000000	94.839379
3288.000000	94.837567
3287.000000	94.839114
3286.000000	94.842594
3285.000000	94.846515
3284.000000	94.849710
3283.000000	94.850915
3282.000000	94.849494
3281.000000	94.846901
3280.000000	94.846268
3279.000000	94.849739
3278.000000	94.856639
3277.000000	94.864528
3276.000000	94.871581
3275.000000	94.877626
3274.000000	94.883555
3273.000000	94.890305
3272.000000	94.897918
3271.000000	94.905122
3270.000000	94.910373
3269.000000	94.913703
3268.000000	94.916888
3267.000000	94.921413
3266.000000	94.927163
3265.000000	94.933814
3264.000000	94.942387
3263.000000	94.953955
3262.000000	94.967421
3261.000000	94.980114
3260.000000	94.990613
3259.000000	94.999700
3258.000000	95.008430
3257.000000	95.016619
3256.000000	95.023513
3255.000000	95.028857
3254.000000	95.032863
3253.000000	95.036158
3252.000000	95.040409
3251.000000	95.048130
3250.000000	95.060857
3249.000000	95.077572
3248.000000	95.095308
3247.000000	95.111022
3246.000000	95.122776
3245.000000	95.129811
3244.000000	95.132373
3243.000000	95.131690
3242.000000	95.129809
3241.000000	95.129148
3240.000000	95.131826
3239.000000	95.139025
3238.000000	95.150867
3237.000000	95.166808
3236.000000	95.185601
3235.000000	95.204563
3234.000000	95.219646
3233.000000	95.227586
3232.000000	95.228511
3231.000000	95.225878
3230.000000	95.223494
3229.000000	95.223112
3228.000000	95.224901
3227.000000	95.229047
3226.000000	95.235784
3225.000000	95.244296
3224.000000	95.252875
3223.000000	95.260521
3222.000000	95.267749
3221.000000	95.275435
3220.000000	95.283602
3219.000000	95.291895
3218.000000	95.300609
3217.000000	95.310136
3216.000000	95.319527
3215.000000	95.326930
3214.000000	95.332060
3213.000000	95.336983
3212.000000	95.343270
3211.000000	95.349242
3210.000000	95.351971
3209.000000	95.352172
3208.000000	95.355217
3207.000000	95.366127
3206.000000	95.384309
3205.000000	95.404266
3204.000000	95.420808
3203.000000	95.432870
3202.000000	95.442744
3201.000000	95.452835
3200.000000	95.463387
3199.000000	95.472743
3198.000000	95.479669
3197.000000	95.485476
3196.000000	95.493487
3195.000000	95.505794
3194.000000	95.520973
3193.000000	95.535706
3192.000000	95.548583
3191.000000	95.561589
3190.000000	95.577525
3189.000000	95.596453
3188.000000	95.614972
3187.000000	95.628997
3186.000000	95.637328
3185.000000	95.642895
3184.000000	95.650394
3183.000000	95.662497
3182.000000	95.678124
3181.000000	95.694288
3180.000000	95.709254
3179.000000	95.723613
3178.000000	95.738600
3177.000000	95.753750
3176.000000	95.766540
3175.000000	95.774612
3174.000000	95.778701
3173.000000	95.783251
3172.000000	95.793404
3171.000000	95.810694
3170.000000	95.831981
3169.000000	95.852634
3168.000000	95.870309
3167.000000	95.885487
3166.000000	95.899519
3165.000000	95.913274
3164.000000	95.927147
3163.000000	95.941002
3162.000000	95.953867
3161.000000	95.964612
3160.000000	95.973456
3159.000000	95.982556
3158.000000	95.994841
3157.000000	96.012064
3156.000000	96.033132
3155.000000	96.053787
3154.000000	96.068788
3153.000000	96.076085
3152.000000	96.079230
3151.000000	96.084578
3150.000000	96.095605
3149.000000	96.110471
3148.000000	96.125287
3147.000000	96.138550
3146.000000	96.151707
