PE IR       SUBTECH     SPECTRUM    ASCII       PEDS        4.00        
   -1
11775-Hull23-C001_1.ASC
23/09/13
11:59:54.00
23/09/13
12:05:54.00
uco
Sample 001 By uco Date Wednesday, September 13 2023
450.000000
#HDR
-1
-1
#GR
cm-1
%T
1.0
0.0
4000.000000
-1.000000
3551
8
98.761723
81.901136
#DATA
4000.000000	98.621205
3999.000000	98.620732
3998.000000	98.629661
3997.000000	98.643229
3996.000000	98.654300
3995.000000	98.659308
3994.000000	98.660352
3993.000000	98.609735
3992.000000	98.613490
3991.000000	98.621191
3990.000000	98.629475
3989.000000	98.633466
3988.000000	98.630296
3987.000000	98.620523
3986.000000	98.607793
3985.000000	98.596397
3984.000000	98.588866
3983.000000	98.585310
3982.000000	98.584581
3981.000000	98.585929
3980.000000	98.589547
3979.000000	98.595543
3978.000000	98.602342
3977.000000	98.606607
3976.000000	98.605302
3975.000000	98.598239
3974.000000	98.588610
3973.000000	98.580818
3972.000000	98.577726
3971.000000	98.579370
3970.000000	98.583929
3969.000000	98.589090
3968.000000	98.592634
3967.000000	98.593300
3966.000000	98.591457
3965.000000	98.588993
3964.000000	98.587890
3963.000000	98.588654
3962.000000	98.590125
3961.000000	98.590743
3960.000000	98.590273
3959.000000	98.589273
3958.000000	98.587720
3957.000000	98.584548
3956.000000	98.578029
3955.000000	98.567569
3954.000000	98.555033
3953.000000	98.544903
3952.000000	98.542474
3951.000000	98.550678
3950.000000	98.567845
3949.000000	98.586829
3948.000000	98.598526
3947.000000	98.598006
3946.000000	98.586741
3945.000000	98.571320
3944.000000	98.560181
3943.000000	98.558179
3942.000000	98.563356
3941.000000	98.568668
3940.000000	98.568251
3939.000000	98.561822
3938.000000	98.554474
3937.000000	98.552594
3936.000000	98.558035
3935.000000	98.567459
3934.000000	98.575778
3933.000000	98.578975
3932.000000	98.575990
3931.000000	98.568746
3930.000000	98.561044
3929.000000	98.554795
3928.000000	98.548451
3927.000000	98.541482
3926.000000	98.536663
3925.000000	98.537468
3924.000000	98.543910
3923.000000	98.553188
3922.000000	98.563160
3921.000000	98.573502
3920.000000	98.583447
3919.000000	98.590083
3918.000000	98.589408
3917.000000	98.580601
3916.000000	98.567823
3915.000000	98.555796
3914.000000	98.546692
3913.000000	98.540821
3912.000000	98.538741
3911.000000	98.539459
3910.000000	98.540215
3909.000000	98.538675
3908.000000	98.534866
3907.000000	98.533204
3906.000000	98.540452
3905.000000	98.560533
3904.000000	98.587708
3903.000000	98.607592
3902.000000	98.610310
3901.000000	98.598892
3900.000000	98.583574
3899.000000	98.573558
3898.000000	98.570524
3897.000000	98.569567
3896.000000	98.566624
3895.000000	98.560995
3894.000000	98.555107
3893.000000	98.551974
3892.000000	98.552614
3891.000000	98.555525
3890.000000	98.560243
3889.000000	98.565944
3888.000000	98.570354
3887.000000	98.573240
3886.000000	98.575871
3885.000000	98.578245
3884.000000	98.578609
3883.000000	98.574652
3882.000000	98.566626
3881.000000	98.558117
3880.000000	98.551810
3879.000000	98.547689
3878.000000	98.543156
3877.000000	98.534969
3876.000000	98.523388
3875.000000	98.514788
3874.000000	98.516695
3873.000000	98.527982
3872.000000	98.539098
3871.000000	98.542302
3870.000000	98.539345
3869.000000	98.539304
3868.000000	98.547348
3867.000000	98.559129
3866.000000	98.568622
3865.000000	98.575016
3864.000000	98.579596
3863.000000	98.582200
3862.000000	98.583335
3861.000000	98.583765
3860.000000	98.582037
3859.000000	98.577224
3858.000000	98.570071
3857.000000	98.564115
3856.000000	98.563633
3855.000000	98.568450
3854.000000	98.578145
3853.000000	98.581310
3852.000000	98.572202
3851.000000	98.562722
3850.000000	98.559311
3849.000000	98.557934
3848.000000	98.555681
3847.000000	98.551048
3846.000000	98.545301
3845.000000	98.542074
3844.000000	98.544600
3843.000000	98.552881
3842.000000	98.563902
3841.000000	98.572166
3840.000000	98.573859
3839.000000	98.568700
3838.000000	98.558711
3837.000000	98.549978
3836.000000	98.547374
3835.000000	98.549447
3834.000000	98.551415
3833.000000	98.550017
3832.000000	98.544659
3831.000000	98.537625
3830.000000	98.531485
3829.000000	98.527959
3828.000000	98.527556
3827.000000	98.530418
3826.000000	98.537735
3825.000000	98.548605
3824.000000	98.557744
3823.000000	98.556582
3822.000000	98.544586
3821.000000	98.532952
3820.000000	98.528660
3819.000000	98.527580
3818.000000	98.523049
3817.000000	98.515693
3816.000000	98.510543
3815.000000	98.511474
3814.000000	98.517413
3813.000000	98.524036
3812.000000	98.529997
3811.000000	98.536280
3810.000000	98.543356
3809.000000	98.549295
3808.000000	98.551769
3807.000000	98.550841
3806.000000	98.549566
3805.000000	98.548021
3804.000000	98.541860
3803.000000	98.526405
3802.000000	98.506259
3801.000000	98.494143
3800.000000	98.500048
3799.000000	98.517782
3798.000000	98.534054
3797.000000	98.540821
3796.000000	98.538149
3795.000000	98.531256
3794.000000	98.525094
3793.000000	98.522027
3792.000000	98.521316
3791.000000	98.520331
3790.000000	98.517600
3789.000000	98.514029
3788.000000	98.510109
3787.000000	98.504933
3786.000000	98.498495
3785.000000	98.493595
3784.000000	98.493605
3783.000000	98.497982
3782.000000	98.502208
3781.000000	98.502681
3780.000000	98.500849
3779.000000	98.499884
3778.000000	98.501109
3777.000000	98.503413
3776.000000	98.505289
3775.000000	98.506335
3774.000000	98.508065
3773.000000	98.512549
3772.000000	98.520019
3771.000000	98.528905
3770.000000	98.537311
3769.000000	98.544264
3768.000000	98.548367
3767.000000	98.547975
3766.000000	98.542821
3765.000000	98.535899
3764.000000	98.531806
3763.000000	98.531747
3762.000000	98.533193
3761.000000	98.533660
3760.000000	98.533067
3759.000000	98.530825
3758.000000	98.528016
3757.000000	98.529688
3756.000000	98.539103
3755.000000	98.554636
3754.000000	98.575141
3753.000000	98.603361
3752.000000	98.638760
3751.000000	98.667166
3750.000000	98.672568
3749.000000	98.661384
3748.000000	98.646855
3747.000000	98.629675
3746.000000	98.604197
3745.000000	98.571303
3744.000000	98.544046
3743.000000	98.539520
3742.000000	98.557811
3741.000000	98.586414
3740.000000	98.613266
3739.000000	98.630514
3738.000000	98.633154
3737.000000	98.626207
3736.000000	98.622175
3735.000000	98.628321
3734.000000	98.641305
3733.000000	98.650197
3732.000000	98.646824
3731.000000	98.633869
3730.000000	98.620311
3729.000000	98.612197
3728.000000	98.610078
3727.000000	98.611924
3726.000000	98.614060
3725.000000	98.612552
3724.000000	98.605440
3723.000000	98.594827
3722.000000	98.586620
3721.000000	98.583712
3720.000000	98.584388
3719.000000	98.584393
3718.000000	98.581663
3717.000000	98.578387
3716.000000	98.577621
3715.000000	98.580129
3714.000000	98.582183
3713.000000	98.576810
3712.000000	98.560520
3711.000000	98.539206
3710.000000	98.526357
3709.000000	98.531989
3708.000000	98.552884
3707.000000	98.578021
3706.000000	98.598030
3705.000000	98.608098
3704.000000	98.608947
3703.000000	98.605280
3702.000000	98.601316
3701.000000	98.596973
3700.000000	98.589741
3699.000000	98.578942
3698.000000	98.566853
3697.000000	98.557919
3696.000000	98.555484
3695.000000	98.557823
3694.000000	98.559226
3693.000000	98.555543
3692.000000	98.549449
3691.000000	98.549145
3690.000000	98.557407
3689.000000	98.562379
3688.000000	98.554240
3687.000000	98.541108
3686.000000	98.532601
3685.000000	98.529868
3684.000000	98.531018
3683.000000	98.533267
3682.000000	98.533668
3681.000000	98.532264
3680.000000	98.532512
3679.000000	98.537199
3678.000000	98.545044
3677.000000	98.549997
3676.000000	98.548385
3675.000000	98.541720
3674.000000	98.539111
3673.000000	98.541117
3672.000000	98.539025
3671.000000	98.523803
3670.000000	98.495922
3669.000000	98.468354
3668.000000	98.454536
3667.000000	98.453006
3666.000000	98.455259
3665.000000	98.455273
3664.000000	98.450999
3663.000000	98.442717
3662.000000	98.433805
3661.000000	98.430008
3660.000000	98.433802
3659.000000	98.441592
3658.000000	98.446081
3657.000000	98.442224
3656.000000	98.431117
3655.000000	98.418564
3654.000000	98.408806
3653.000000	98.401072
3652.000000	98.396202
3651.000000	98.401783
3650.000000	98.419340
3649.000000	98.422792
3648.000000	98.392296
3647.000000	98.350924
3646.000000	98.325708
3645.000000	98.318070
3644.000000	98.316924
3643.000000	98.312880
3642.000000	98.302738
3641.000000	98.288138
3640.000000	98.270973
3639.000000	98.253019
3638.000000	98.237775
3637.000000	98.228335
3636.000000	98.224262
3635.000000	98.223489
3634.000000	98.227363
3633.000000	98.239003
3632.000000	98.256693
3631.000000	98.271301
3630.000000	98.272323
3629.000000	98.255013
3628.000000	98.226405
3627.000000	98.203793
3626.000000	98.192346
3625.000000	98.187080
3624.000000	98.182471
3623.000000	98.175231
3622.000000	98.162645
3621.000000	98.142205
3620.000000	98.112213
3619.000000	98.074945
3618.000000	98.039425
3617.000000	98.016969
3616.000000	98.010276
3615.000000	98.012560
3614.000000	98.014586
3613.000000	98.010518
3612.000000	98.000774
3611.000000	97.986842
3610.000000	97.965862
3609.000000	97.934081
3608.000000	97.895507
3607.000000	97.861754
3606.000000	97.841400
3605.000000	97.832616
3604.000000	97.825799
3603.000000	97.812450
3602.000000	97.790079
3601.000000	97.762424
3600.000000	97.735956
3599.000000	97.714493
3598.000000	97.695395
3597.000000	97.672256
3596.000000	97.639822
3595.000000	97.598490
3594.000000	97.556827
3593.000000	97.525048
3592.000000	97.505772
3591.000000	97.491063
3590.000000	97.469402
3589.000000	97.434353
3588.000000	97.387272
3587.000000	97.333567
3586.000000	97.283830
3585.000000	97.244666
3584.000000	97.212174
3583.000000	97.180601
3582.000000	97.149339
3581.000000	97.121039
3580.000000	97.097383
3579.000000	97.076773
3578.000000	97.056604
3577.000000	97.036339
3576.000000	97.018167
3575.000000	97.004441
3574.000000	96.995708
3573.000000	96.990636
3572.000000	96.985959
3571.000000	96.978510
3570.000000	96.968553
3569.000000	96.962382
3568.000000	96.965083
3567.000000	96.970285
3566.000000	96.970708
3565.000000	96.973727
3564.000000	96.984180
3563.000000	96.994258
3562.000000	96.994199
3561.000000	96.982228
3560.000000	96.964417
3559.000000	96.948515
3558.000000	96.938079
3557.000000	96.932765
3556.000000	96.930824
3555.000000	96.929967
3554.000000	96.926897
3553.000000	96.918733
3552.000000	96.905154
3551.000000	96.889064
3550.000000	96.874066
3549.000000	96.861931
3548.000000	96.852331
3547.000000	96.842199
3546.000000	96.826419
3545.000000	96.803424
3544.000000	96.778536
3543.000000	96.758026
3542.000000	96.743935
3541.000000	96.734279
3540.000000	96.725619
3539.000000	96.715520
3538.000000	96.703355
3537.000000	96.690172
3536.000000	96.676827
3535.000000	96.663821
3534.000000	96.652151
3533.000000	96.643398
3532.000000	96.638822
3531.000000	96.638250
3530.000000	96.640342
3529.000000	96.643491
3528.000000	96.645980
3527.000000	96.645976
3526.000000	96.642153
3525.000000	96.633557
3524.000000	96.619677
3523.000000	96.602086
3522.000000	96.585284
3521.000000	96.573403
3520.000000	96.565733
3519.000000	96.557892
3518.000000	96.546803
3517.000000	96.533572
3516.000000	96.521367
3515.000000	96.511578
3514.000000	96.503632
3513.000000	96.496807
3512.000000	96.490913
3511.000000	96.485636
3510.000000	96.480018
3509.000000	96.472789
3508.000000	96.462927
3507.000000	96.450509
3506.000000	96.437357
3505.000000	96.427017
3504.000000	96.421249
3503.000000	96.417135
3502.000000	96.410219
3501.000000	96.398974
3500.000000	96.384034
3499.000000	96.365666
3498.000000	96.344712
3497.000000	96.323975
3496.000000	96.307222
3495.000000	96.296249
3494.000000	96.289536
3493.000000	96.283444
3492.000000	96.274499
3491.000000	96.261595
3490.000000	96.246564
3489.000000	96.231924
3488.000000	96.218235
3487.000000	96.204669
3486.000000	96.191671
3485.000000	96.181056
3484.000000	96.172911
3483.000000	96.164104
3482.000000	96.151275
3481.000000	96.134653
3480.000000	96.117267
3479.000000	96.101077
3478.000000	96.085521
3477.000000	96.069737
3476.000000	96.054602
3475.000000	96.042283
3474.000000	96.034137
3473.000000	96.028830
3472.000000	96.022211
3471.000000	96.010016
3470.000000	95.991785
3469.000000	95.971342
3468.000000	95.953060
3467.000000	95.938352
3466.000000	95.925950
3465.000000	95.914318
3464.000000	95.902322
3463.000000	95.888651
3462.000000	95.872670
3461.000000	95.855679
3460.000000	95.839857
3459.000000	95.825564
3458.000000	95.810831
3457.000000	95.794330
3456.000000	95.777321
3455.000000	95.762575
3454.000000	95.751786
3453.000000	95.744230
3452.000000	95.737495
3451.000000	95.728713
3450.000000	95.716190
3449.000000	95.700363
3448.000000	95.683257
3447.000000	95.666980
3446.000000	95.653074
3445.000000	95.641829
3444.000000	95.631333
3443.000000	95.618181
3442.000000	95.600340
3441.000000	95.579255
3440.000000	95.557816
3439.000000	95.537016
3438.000000	95.516027
3437.000000	95.495287
3436.000000	95.476973
3435.000000	95.461987
3434.000000	95.447976
3433.000000	95.431559
3432.000000	95.412525
3431.000000	95.394409
3430.000000	95.381318
3429.000000	95.373738
3428.000000	95.367211
3427.000000	95.355578
3426.000000	95.336030
3425.000000	95.311191
3424.000000	95.286124
3423.000000	95.264008
3422.000000	95.244700
3421.000000	95.225927
3420.000000	95.204924
3419.000000	95.180301
3418.000000	95.153939
3417.000000	95.130270
3416.000000	95.112350
3415.000000	95.098498
3414.000000	95.083721
3413.000000	95.064402
3412.000000	95.040811
3411.000000	95.015815
3410.000000	94.992315
3409.000000	94.971201
3408.000000	94.950440
3407.000000	94.926759
3406.000000	94.899155
3405.000000	94.870410
3404.000000	94.843950
3403.000000	94.820025
3402.000000	94.796027
3401.000000	94.769667
3400.000000	94.740856
3399.000000	94.711239
3398.000000	94.683383
3397.000000	94.659711
3396.000000	94.640707
3395.000000	94.624269
3394.000000	94.607809
3393.000000	94.590620
3392.000000	94.573500
3391.000000	94.556769
3390.000000	94.539786
3389.000000	94.522510
3388.000000	94.506621
3387.000000	94.494686
3386.000000	94.488007
3385.000000	94.484854
3384.000000	94.480838
3383.000000	94.472067
3382.000000	94.458290
3381.000000	94.442157
3380.000000	94.425476
3379.000000	94.407131
3378.000000	94.385279
3377.000000	94.360325
3376.000000	94.335026
3375.000000	94.312291
3374.000000	94.293260
3373.000000	94.276786
3372.000000	94.260218
3371.000000	94.241208
3370.000000	94.219275
3369.000000	94.195520
3368.000000	94.171122
3367.000000	94.147226
3366.000000	94.126049
3365.000000	94.110172
3364.000000	94.099626
3363.000000	94.090652
3362.000000	94.078106
3361.000000	94.058562
3360.000000	94.031183
3359.000000	93.997456
3358.000000	93.961335
3357.000000	93.928361
3356.000000	93.902605
3355.000000	93.883971
3354.000000	93.868927
3353.000000	93.853461
3352.000000	93.834911
3351.000000	93.812079
3350.000000	93.785159
3349.000000	93.755930
3348.000000	93.727353
3347.000000	93.702627
3346.000000	93.683709
3345.000000	93.669723
3344.000000	93.656809
3343.000000	93.640708
3342.000000	93.620330
3341.000000	93.598140
3340.000000	93.577007
3339.000000	93.557596
3338.000000	93.538777
3337.000000	93.519280
3336.000000	93.498663
3335.000000	93.477760
3334.000000	93.458387
3333.000000	93.441438
3332.000000	93.425127
3331.000000	93.406648
3330.000000	93.385646
3329.000000	93.364169
3328.000000	93.342862
3327.000000	93.319850
3326.000000	93.294568
3325.000000	93.270348
3324.000000	93.250876
3323.000000	93.235296
3322.000000	93.219231
3321.000000	93.199627
3320.000000	93.176764
3319.000000	93.152593
3318.000000	93.129042
3317.000000	93.107473
3316.000000	93.087896
3315.000000	93.068659
3314.000000	93.048530
3313.000000	93.029146
3312.000000	93.013759
3311.000000	93.003410
3310.000000	92.995508
3309.000000	92.986489
3308.000000	92.975136
3307.000000	92.962928
3306.000000	92.951730
3305.000000	92.941589
3304.000000	92.930435
3303.000000	92.915857
3302.000000	92.897293
3301.000000	92.876505
3300.000000	92.856045
3299.000000	92.837728
3298.000000	92.822190
3297.000000	92.808596
3296.000000	92.794893
3295.000000	92.779615
3294.000000	92.763863
3293.000000	92.750402
3292.000000	92.740340
3291.000000	92.732060
3290.000000	92.723937
3289.000000	92.716519
3288.000000	92.711120
3287.000000	92.707650
3286.000000	92.705235
3285.000000	92.703983
3284.000000	92.704877
3283.000000	92.708358
3282.000000	92.713623
3281.000000	92.718869
3280.000000	92.722034
3279.000000	92.722522
3278.000000	92.722597
3277.000000	92.725847
3276.000000	92.733755
3275.000000	92.744968
3274.000000	92.758023
3273.000000	92.772586
3272.000000	92.787330
3271.000000	92.799085
3270.000000	92.806039
3269.000000	92.810228
3268.000000	92.815245
3267.000000	92.822806
3266.000000	92.832982
3265.000000	92.846222
3264.000000	92.862970
3263.000000	92.881891
3262.000000	92.900407
3261.000000	92.916925
3260.000000	92.931448
3259.000000	92.944471
3258.000000	92.956221
3257.000000	92.966808
3256.000000	92.976398
3255.000000	92.985687
3254.000000	92.996432
3253.000000	93.010588
3252.000000	93.028482
3251.000000	93.048649
3250.000000	93.069849
3249.000000	93.091707
3248.000000	93.112811
3247.000000	93.129972
3246.000000	93.140661
3245.000000	93.145472
3244.000000	93.147549
3243.000000	93.150461
3242.000000	93.157014
3241.000000	93.168169
3240.000000	93.181753
3239.000000	93.193599
3238.000000	93.201054
3237.000000	93.204560
3236.000000	93.205530
3235.000000	93.204994
3234.000000	93.205329
3233.000000	93.210495
3232.000000	93.222097
3231.000000	93.236531
3230.000000	93.248632
3229.000000	93.256933
3228.000000	93.263171
3227.000000	93.267930
3226.000000	93.269848
3225.000000	93.269052
3224.000000	93.268744
3223.000000	93.272315
3222.000000	93.280047
3221.000000	93.289086
3220.000000	93.295811
3219.000000	93.298488
3218.000000	93.298479
3217.000000	93.298941
3216.000000	93.302019
3215.000000	93.307499
3214.000000	93.314329
3213.000000	93.322166
3212.000000	93.330242
3211.000000	93.335826
3210.000000	93.335936
3209.000000	93.330822
3208.000000	93.324317
3207.000000	93.320449
3206.000000	93.320552
3205.000000	93.323829
3204.000000	93.329588
3203.000000	93.338280
3202.000000	93.350525
3201.000000	93.365319
3200.000000	93.379481
3199.000000	93.389807
3198.000000	93.396031
3197.000000	93.400977
3196.000000	93.407348
3195.000000	93.415135
3194.000000	93.422624
3193.000000	93.428770
3192.000000	93.433778
3191.000000	93.438509
3190.000000	93.444492
3189.000000	93.453561
3188.000000	93.466119
3187.000000	93.480069
3186.000000	93.492604
3185.000000	93.503059
3184.000000	93.513341
3183.000000	93.525975
3182.000000	93.542415
3181.000000	93.562553
3180.000000	93.584733
3179.000000	93.606190
3178.000000	93.624546
3177.000000	93.639126
3176.000000	93.650619
3175.000000	93.660183
3174.000000	93.669298
3173.000000	93.679646
3172.000000	93.691991
3171.000000	93.705526
3170.000000	93.719141
3169.000000	93.732712
3168.000000	93.746571
3167.000000	93.760416
3166.000000	93.773877
3165.000000	93.787621
3164.000000	93.802632
3163.000000	93.818627
3162.000000	93.834244
3161.000000	93.848848
3160.000000	93.863199
3159.000000	93.878218
3158.000000	93.893734
3157.000000	93.908444
3156.000000	93.920706
3155.000000	93.929894
3154.000000	93.937684
3153.000000	93.947469
3152.000000	93.961367
3151.000000	93.977901
3150.000000	93.993255
3149.000000	94.004782
3148.000000	94.012880
3147.000000	94.020160
3146.000000	94.029520
