PE IR       SUBTECH     SPECTRUM    ASCII       PEDS        4.00        
   -1
11753-Hull01-F002_1.ASC
23/09/13
11:20:21.00
23/09/13
11:33:37.00
uco
Sample 002 By uco Date Wednesday, September 13 2023
450.000000
#HDR
-1
-1
#GR
cm-1
%T
1.0
0.0
4000.000000
-1.000000
3551
8
99.076824
87.429721
#DATA
4000.000000	98.917941
3999.000000	98.917046
3998.000000	98.919922
3997.000000	98.925777
3996.000000	98.931772
3995.000000	98.901222
3994.000000	98.902108
3993.000000	98.904518
3992.000000	98.909931
3991.000000	98.918268
3990.000000	98.927192
3989.000000	98.933025
3988.000000	98.933372
3987.000000	98.928644
3986.000000	98.921332
3985.000000	98.913822
3984.000000	98.907111
3983.000000	98.901384
3982.000000	98.896995
3981.000000	98.894474
3980.000000	98.893969
3979.000000	98.895101
3978.000000	98.897197
3977.000000	98.899368
3976.000000	98.900306
3975.000000	98.898625
3974.000000	98.894041
3973.000000	98.888182
3972.000000	98.883865
3971.000000	98.882922
3970.000000	98.884761
3969.000000	98.886711
3968.000000	98.885931
3967.000000	98.881882
3966.000000	98.876870
3965.000000	98.874273
3964.000000	98.875812
3963.000000	98.880385
3962.000000	98.885444
3961.000000	98.889193
3960.000000	98.891617
3959.000000	98.892972
3958.000000	98.892538
3957.000000	98.889073
3956.000000	98.881824
3955.000000	98.871607
3954.000000	98.860859
3953.000000	98.853231
3952.000000	98.852364
3951.000000	98.859961
3950.000000	98.874419
3949.000000	98.890124
3948.000000	98.900005
3947.000000	98.900148
3946.000000	98.891381
3945.000000	98.878326
3944.000000	98.867103
3943.000000	98.861573
3942.000000	98.861353
3941.000000	98.862976
3940.000000	98.863351
3939.000000	98.861951
3938.000000	98.860862
3937.000000	98.862591
3936.000000	98.866923
3935.000000	98.871256
3934.000000	98.873137
3933.000000	98.871605
3932.000000	98.867429
3931.000000	98.862592
3930.000000	98.859596
3929.000000	98.858903
3928.000000	98.858228
3927.000000	98.856300
3926.000000	98.854700
3925.000000	98.855735
3924.000000	98.859418
3923.000000	98.864301
3922.000000	98.869816
3921.000000	98.876580
3920.000000	98.884290
3919.000000	98.890147
3918.000000	98.889755
3917.000000	98.881424
3916.000000	98.868829
3915.000000	98.857463
3914.000000	98.850666
3913.000000	98.848687
3912.000000	98.850184
3911.000000	98.852003
3910.000000	98.850678
3909.000000	98.844715
3908.000000	98.835555
3907.000000	98.828628
3906.000000	98.831741
3905.000000	98.849921
3904.000000	98.877469
3903.000000	98.898318
3902.000000	98.900304
3901.000000	98.885595
3900.000000	98.865808
3899.000000	98.852457
3898.000000	98.849014
3897.000000	98.851209
3896.000000	98.854020
3895.000000	98.855077
3894.000000	98.855521
3893.000000	98.857531
3892.000000	98.860909
3891.000000	98.862734
3890.000000	98.862530
3889.000000	98.861197
3888.000000	98.858700
3887.000000	98.856598
3886.000000	98.856879
3885.000000	98.858831
3884.000000	98.860026
3883.000000	98.858655
3882.000000	98.855760
3881.000000	98.854138
3880.000000	98.853681
3879.000000	98.852028
3878.000000	98.846786
3877.000000	98.836583
3876.000000	98.823850
3875.000000	98.815656
3874.000000	98.817757
3873.000000	98.827659
3872.000000	98.837390
3871.000000	98.841542
3870.000000	98.840866
3869.000000	98.840576
3868.000000	98.844146
3867.000000	98.848660
3866.000000	98.850016
3865.000000	98.848945
3864.000000	98.848632
3863.000000	98.850771
3862.000000	98.855626
3861.000000	98.861364
3860.000000	98.863853
3859.000000	98.860590
3858.000000	98.852266
3857.000000	98.843008
3856.000000	98.838557
3855.000000	98.842471
3854.000000	98.854808
3853.000000	98.858627
3852.000000	98.848002
3851.000000	98.839681
3850.000000	98.840726
3849.000000	98.844760
3848.000000	98.846015
3847.000000	98.841937
3846.000000	98.834682
3845.000000	98.829774
3844.000000	98.832087
3843.000000	98.842276
3842.000000	98.857134
3841.000000	98.870785
3840.000000	98.878263
3839.000000	98.876956
3838.000000	98.867033
3837.000000	98.854542
3836.000000	98.846551
3835.000000	98.844861
3834.000000	98.847073
3833.000000	98.850081
3832.000000	98.851229
3831.000000	98.849742
3830.000000	98.846345
3829.000000	98.842851
3828.000000	98.840995
3827.000000	98.841709
3826.000000	98.845628
3825.000000	98.851663
3824.000000	98.856913
3823.000000	98.858424
3822.000000	98.858944
3821.000000	98.862730
3820.000000	98.867194
3819.000000	98.868366
3818.000000	98.864581
3817.000000	98.857695
3816.000000	98.849982
3815.000000	98.843596
3814.000000	98.840400
3813.000000	98.839994
3812.000000	98.841348
3811.000000	98.843581
3810.000000	98.846512
3809.000000	98.850236
3808.000000	98.854611
3807.000000	98.857823
3806.000000	98.858313
3805.000000	98.855492
3804.000000	98.849028
3803.000000	98.838757
3802.000000	98.828665
3801.000000	98.824850
3800.000000	98.832512
3799.000000	98.847578
3798.000000	98.860065
3797.000000	98.862720
3796.000000	98.855502
3795.000000	98.844969
3794.000000	98.837819
3793.000000	98.836145
3792.000000	98.837197
3791.000000	98.836709
3790.000000	98.832961
3789.000000	98.827689
3788.000000	98.822639
3787.000000	98.817695
3786.000000	98.812370
3785.000000	98.807673
3784.000000	98.805435
3783.000000	98.805773
3782.000000	98.807028
3781.000000	98.808481
3780.000000	98.811452
3779.000000	98.815540
3778.000000	98.818627
3777.000000	98.819535
3776.000000	98.818888
3775.000000	98.818269
3774.000000	98.820003
3773.000000	98.825729
3772.000000	98.834190
3771.000000	98.841467
3770.000000	98.844329
3769.000000	98.844545
3768.000000	98.846556
3767.000000	98.851651
3766.000000	98.856023
3765.000000	98.855170
3764.000000	98.848911
3763.000000	98.840296
3762.000000	98.832698
3761.000000	98.829166
3760.000000	98.831401
3759.000000	98.836081
3758.000000	98.839275
3757.000000	98.842336
3756.000000	98.847920
3755.000000	98.855681
3754.000000	98.865616
3753.000000	98.881214
3752.000000	98.903885
3751.000000	98.923228
3750.000000	98.925929
3749.000000	98.916205
3748.000000	98.903216
3747.000000	98.886667
3746.000000	98.863309
3745.000000	98.836260
3744.000000	98.816208
3743.000000	98.816020
3742.000000	98.835481
3741.000000	98.863507
3740.000000	98.888753
3739.000000	98.903921
3738.000000	98.906494
3737.000000	98.904318
3736.000000	98.909663
3735.000000	98.925415
3734.000000	98.943468
3733.000000	98.951811
3732.000000	98.943267
3731.000000	98.921418
3730.000000	98.896418
3729.000000	98.876405
3728.000000	98.864265
3727.000000	98.859469
3726.000000	98.859117
3725.000000	98.860265
3724.000000	98.861755
3723.000000	98.864134
3722.000000	98.868726
3721.000000	98.874405
3720.000000	98.878710
3719.000000	98.879041
3718.000000	98.874770
3717.000000	98.868281
3716.000000	98.862543
3715.000000	98.858637
3714.000000	98.854299
3713.000000	98.846012
3712.000000	98.833773
3711.000000	98.822209
3710.000000	98.817554
3709.000000	98.822736
3708.000000	98.834194
3707.000000	98.846146
3706.000000	98.855120
3705.000000	98.859635
3704.000000	98.860749
3703.000000	98.861473
3702.000000	98.863301
3701.000000	98.863554
3700.000000	98.858844
3699.000000	98.849231
3698.000000	98.837732
3697.000000	98.827969
3696.000000	98.821152
3695.000000	98.814767
3694.000000	98.805670
3693.000000	98.794690
3692.000000	98.788266
3691.000000	98.793921
3690.000000	98.809827
3689.000000	98.820532
3688.000000	98.816061
3687.000000	98.804550
3686.000000	98.794922
3685.000000	98.788145
3684.000000	98.783039
3683.000000	98.778598
3682.000000	98.773920
3681.000000	98.768822
3680.000000	98.763549
3679.000000	98.758174
3678.000000	98.753568
3677.000000	98.751199
3676.000000	98.751609
3675.000000	98.749880
3674.000000	98.747655
3673.000000	98.747640
3672.000000	98.746554
3671.000000	98.739323
3670.000000	98.725478
3669.000000	98.711512
3668.000000	98.706036
3667.000000	98.707831
3666.000000	98.709432
3665.000000	98.705493
3664.000000	98.695140
3663.000000	98.680342
3662.000000	98.665499
3661.000000	98.655967
3660.000000	98.653526
3659.000000	98.655078
3658.000000	98.655315
3657.000000	98.650451
3656.000000	98.639705
3655.000000	98.625635
3654.000000	98.611191
3653.000000	98.596500
3652.000000	98.583354
3651.000000	98.579234
3650.000000	98.587184
3649.000000	98.588969
3648.000000	98.569308
3647.000000	98.541518
3646.000000	98.521894
3645.000000	98.511584
3644.000000	98.505250
3643.000000	98.498668
3642.000000	98.490237
3641.000000	98.479738
3640.000000	98.466056
3639.000000	98.448457
3638.000000	98.429454
3637.000000	98.413749
3636.000000	98.404207
3635.000000	98.400164
3634.000000	98.399880
3633.000000	98.401820
3632.000000	98.403424
3631.000000	98.400484
3630.000000	98.389900
3629.000000	98.369487
3628.000000	98.342030
3627.000000	98.320480
3626.000000	98.309459
3625.000000	98.304483
3624.000000	98.301040
3623.000000	98.297312
3622.000000	98.291826
3621.000000	98.281833
3620.000000	98.262701
3619.000000	98.232113
3618.000000	98.197271
3617.000000	98.171407
3616.000000	98.159202
3615.000000	98.154112
3614.000000	98.146595
3613.000000	98.132166
3612.000000	98.114822
3611.000000	98.100025
3610.000000	98.086651
3609.000000	98.068783
3608.000000	98.044474
3607.000000	98.019725
3606.000000	98.002291
3605.000000	97.993313
3604.000000	97.986707
3603.000000	97.975856
3602.000000	97.957975
3601.000000	97.934748
3600.000000	97.910406
3599.000000	97.888631
3598.000000	97.869865
3597.000000	97.852629
3596.000000	97.834913
3595.000000	97.815031
3594.000000	97.793641
3593.000000	97.773532
3592.000000	97.756949
3591.000000	97.742950
3590.000000	97.729097
3589.000000	97.713518
3588.000000	97.692677
3587.000000	97.661732
3586.000000	97.626864
3585.000000	97.598800
3584.000000	97.578092
3583.000000	97.558673
3582.000000	97.536850
3581.000000	97.513218
3580.000000	97.489644
3579.000000	97.465956
3578.000000	97.440689
3577.000000	97.413916
3576.000000	97.387919
3575.000000	97.364692
3574.000000	97.344313
3573.000000	97.325630
3572.000000	97.306525
3571.000000	97.284852
3570.000000	97.260354
3569.000000	97.236749
3568.000000	97.216368
3567.000000	97.193497
3566.000000	97.164337
3565.000000	97.137193
3564.000000	97.116227
3563.000000	97.095110
3562.000000	97.067741
3561.000000	97.035139
3560.000000	97.002431
3559.000000	96.972699
3558.000000	96.944908
3557.000000	96.917763
3556.000000	96.892539
3555.000000	96.871213
3554.000000	96.852819
3553.000000	96.833323
3552.000000	96.809246
3551.000000	96.781380
3550.000000	96.753878
3549.000000	96.730740
3548.000000	96.713599
3547.000000	96.699394
3546.000000	96.680308
3545.000000	96.650604
3544.000000	96.613350
3543.000000	96.576622
3542.000000	96.546291
3541.000000	96.522775
3540.000000	96.502591
3539.000000	96.482136
3538.000000	96.459994
3537.000000	96.436842
3536.000000	96.413109
3535.000000	96.388739
3534.000000	96.364316
3533.000000	96.341399
3532.000000	96.321752
3531.000000	96.306359
3530.000000	96.295093
3529.000000	96.286526
3528.000000	96.278038
3527.000000	96.267125
3526.000000	96.252738
3525.000000	96.234207
3524.000000	96.210292
3523.000000	96.181639
3522.000000	96.153484
3521.000000	96.132617
3520.000000	96.120864
3519.000000	96.113900
3518.000000	96.105938
3517.000000	96.094590
3516.000000	96.081067
3515.000000	96.067045
3514.000000	96.053220
3513.000000	96.039823
3512.000000	96.027341
3511.000000	96.016723
3510.000000	96.008748
3509.000000	96.002626
3508.000000	95.995395
3507.000000	95.984182
3506.000000	95.969553
3505.000000	95.956179
3504.000000	95.947891
3503.000000	95.942831
3502.000000	95.935988
3501.000000	95.924938
3500.000000	95.910437
3499.000000	95.893625
3498.000000	95.875607
3497.000000	95.858237
3496.000000	95.843748
3495.000000	95.832988
3494.000000	95.824617
3493.000000	95.816064
3492.000000	95.805256
3491.000000	95.792200
3490.000000	95.778938
3489.000000	95.767050
3488.000000	95.755542
3487.000000	95.742432
3486.000000	95.728129
3485.000000	95.715456
3484.000000	95.706110
3483.000000	95.698660
3482.000000	95.690563
3481.000000	95.681142
3480.000000	95.671574
3479.000000	95.663047
3478.000000	95.655966
3477.000000	95.650177
3476.000000	95.644917
3475.000000	95.639203
3474.000000	95.632861
3473.000000	95.626153
3472.000000	95.618065
3471.000000	95.606785
3470.000000	95.592936
3469.000000	95.580338
3468.000000	95.572234
3467.000000	95.567860
3466.000000	95.563633
3465.000000	95.556544
3464.000000	95.545083
3463.000000	95.528675
3462.000000	95.508516
3461.000000	95.488175
3460.000000	95.471234
3459.000000	95.458202
3458.000000	95.446886
3457.000000	95.435676
3456.000000	95.424736
3455.000000	95.414747
3454.000000	95.405715
3453.000000	95.397108
3452.000000	95.388384
3451.000000	95.379222
3450.000000	95.370255
3449.000000	95.362920
3448.000000	95.357484
3447.000000	95.351738
3446.000000	95.343369
3445.000000	95.332278
3444.000000	95.319121
3443.000000	95.303359
3442.000000	95.284519
3441.000000	95.264301
3440.000000	95.245117
3439.000000	95.227235
3438.000000	95.209169
3437.000000	95.190601
3436.000000	95.172775
3435.000000	95.156505
3434.000000	95.141433
3433.000000	95.127134
3432.000000	95.113584
3431.000000	95.100184
3430.000000	95.086285
3429.000000	95.072365
3428.000000	95.059207
3427.000000	95.045942
3426.000000	95.030311
3425.000000	95.011047
3424.000000	94.988786
3423.000000	94.964839
3422.000000	94.940020
3421.000000	94.914430
3420.000000	94.887512
3419.000000	94.858976
3418.000000	94.830634
3417.000000	94.806168
3416.000000	94.787792
3415.000000	94.773568
3414.000000	94.759318
3413.000000	94.742675
3412.000000	94.723869
3411.000000	94.703593
3410.000000	94.682211
3409.000000	94.660646
3408.000000	94.640112
3407.000000	94.621149
3406.000000	94.604053
3405.000000	94.589803
3404.000000	94.578821
3403.000000	94.569362
3402.000000	94.558723
3401.000000	94.545606
3400.000000	94.530346
3399.000000	94.513687
3398.000000	94.497163
3397.000000	94.483761
3396.000000	94.475794
3395.000000	94.471924
3394.000000	94.468065
3393.000000	94.461456
3392.000000	94.452709
3391.000000	94.443797
3390.000000	94.435310
3389.000000	94.426397
3388.000000	94.416504
3387.000000	94.406614
3386.000000	94.398974
3385.000000	94.395428
3384.000000	94.395388
3383.000000	94.395756
3382.000000	94.393338
3381.000000	94.387039
3380.000000	94.377606
3379.000000	94.365979
3378.000000	94.352790
3377.000000	94.338898
3376.000000	94.325646
3375.000000	94.314518
3374.000000	94.306474
3373.000000	94.300914
3372.000000	94.295152
3371.000000	94.285948
3370.000000	94.272229
3369.000000	94.255632
3368.000000	94.238038
3367.000000	94.219813
3366.000000	94.201131
3365.000000	94.183501
3364.000000	94.168103
3363.000000	94.153373
3362.000000	94.135793
3361.000000	94.113113
3360.000000	94.086118
3359.000000	94.057921
3358.000000	94.032419
3357.000000	94.012548
3356.000000	93.998196
3355.000000	93.985520
3354.000000	93.969552
3353.000000	93.947995
3352.000000	93.922279
3351.000000	93.895336
3350.000000	93.869094
3349.000000	93.843746
3348.000000	93.818531
3347.000000	93.793126
3346.000000	93.768257
3345.000000	93.744738
3344.000000	93.721934
3343.000000	93.698072
3342.000000	93.672709
3341.000000	93.647906
3340.000000	93.626102
3339.000000	93.607333
3338.000000	93.589205
3337.000000	93.569208
3336.000000	93.546678
3335.000000	93.523025
3334.000000	93.500399
3333.000000	93.479653
3332.000000	93.459379
3331.000000	93.437544
3330.000000	93.414038
3329.000000	93.390660
3328.000000	93.368707
3327.000000	93.348210
3326.000000	93.329617
3325.000000	93.314007
3324.000000	93.300474
3323.000000	93.285236
3322.000000	93.265388
3321.000000	93.242396
3320.000000	93.220446
3319.000000	93.202498
3318.000000	93.189021
3317.000000	93.179042
3316.000000	93.170513
3315.000000	93.160663
3314.000000	93.148443
3313.000000	93.136514
3312.000000	93.128675
3311.000000	93.125230
3310.000000	93.122341
3309.000000	93.116148
3308.000000	93.106538
3307.000000	93.096716
3306.000000	93.089975
3305.000000	93.086836
3304.000000	93.084255
3303.000000	93.077710
3302.000000	93.065021
3301.000000	93.048398
3300.000000	93.032355
3299.000000	93.020088
3298.000000	93.012201
3297.000000	93.007606
3296.000000	93.004599
3295.000000	93.001600
3294.000000	92.998005
3293.000000	92.994268
3292.000000	92.990572
3291.000000	92.986220
3290.000000	92.981098
3289.000000	92.976820
3288.000000	92.975249
3287.000000	92.976337
3286.000000	92.978514
3285.000000	92.980786
3284.000000	92.983527
3283.000000	92.987443
3282.000000	92.992420
3281.000000	92.997487
3280.000000	93.001915
3279.000000	93.006779
3278.000000	93.015036
3277.000000	93.028716
3276.000000	93.046012
3275.000000	93.062742
3274.000000	93.076729
3273.000000	93.088654
3272.000000	93.098591
3271.000000	93.104801
3270.000000	93.107433
3269.000000	93.110387
3268.000000	93.117057
3267.000000	93.126337
3266.000000	93.135389
3265.000000	93.144697
3264.000000	93.157232
3263.000000	93.173584
3262.000000	93.191252
3261.000000	93.208610
3260.000000	93.226717
3259.000000	93.246460
3258.000000	93.266129
3257.000000	93.283123
3256.000000	93.296834
3255.000000	93.309170
3254.000000	93.322641
3253.000000	93.338209
3252.000000	93.354691
3251.000000	93.370328
3250.000000	93.385149
3249.000000	93.400767
3248.000000	93.417280
3247.000000	93.431798
3246.000000	93.441482
3245.000000	93.447432
3244.000000	93.454009
3243.000000	93.464455
3242.000000	93.478608
3241.000000	93.494345
3240.000000	93.509845
3239.000000	93.524526
3238.000000	93.538837
3237.000000	93.553274
3236.000000	93.567042
3235.000000	93.578443
3234.000000	93.587223
3233.000000	93.595575
3232.000000	93.605840
3231.000000	93.618004
3230.000000	93.630734
3229.000000	93.643677
3228.000000	93.656947
3227.000000	93.669277
3226.000000	93.679021
3225.000000	93.687045
3224.000000	93.696765
3223.000000	93.710558
3222.000000	93.727220
3221.000000	93.743333
3220.000000	93.756334
3219.000000	93.766221
3218.000000	93.774893
3217.000000	93.784186
3216.000000	93.794447
3215.000000	93.805142
3214.000000	93.816991
3213.000000	93.832282
3212.000000	93.852013
3211.000000	93.873304
3210.000000	93.891125
3209.000000	93.902639
3208.000000	93.908948
3207.000000	93.913092
3206.000000	93.917663
3205.000000	93.924436
3204.000000	93.934716
3203.000000	93.949110
3202.000000	93.967305
3201.000000	93.988009
3200.000000	94.008677
3199.000000	94.025983
3198.000000	94.038051
3197.000000	94.046737
3196.000000	94.056834
3195.000000	94.072280
3194.000000	94.093271
3193.000000	94.116718
3192.000000	94.138818
3191.000000	94.157478
3190.000000	94.173251
3189.000000	94.188580
3188.000000	94.206050
3187.000000	94.227059
3186.000000	94.251564
3185.000000	94.278192
3184.000000	94.304431
3183.000000	94.327785
3182.000000	94.347622
3181.000000	94.365428
3180.000000	94.382657
3179.000000	94.398919
3178.000000	94.413161
3177.000000	94.426151
3176.000000	94.440493
3175.000000	94.458342
3174.000000	94.479918
3173.000000	94.503980
3172.000000	94.528582
3171.000000	94.551536
3170.000000	94.571332
3169.000000	94.588049
3168.000000	94.602993
3167.000000	94.617323
3166.000000	94.631578
3165.000000	94.646318
3164.000000	94.662279
3163.000000	94.679770
3162.000000	94.698570
3161.000000	94.718750
3160.000000	94.740896
3159.000000	94.765015
3158.000000	94.789421
3157.000000	94.811057
3156.000000	94.827270
3155.000000	94.838052
3154.000000	94.847027
3153.000000	94.859649
3152.000000	94.879204
3151.000000	94.904277
3150.000000	94.930200
3149.000000	94.952817
3148.000000	94.970730
3147.000000	94.985009
3146.000000	94.998048
