PE IR       SUBTECH     SPECTRUM    ASCII       PEDS        4.00        
   -1
11768-Hull16-C002_1.ASC
23/09/13
11:39:21.00
23/09/13
12:05:54.00
uco
Sample 002 By uco Date Wednesday, September 13 2023
450.000000
#HDR
-1
-1
#GR
cm-1
%T
1.0
0.0
4000.000000
-1.000000
3551
8
98.571204
78.152627
#DATA
4000.000000	98.340613
3999.000000	98.340708
3998.000000	98.346057
3997.000000	98.353888
3996.000000	98.360759
3995.000000	98.365575
3994.000000	98.369653
3993.000000	98.329344
3992.000000	98.334198
3991.000000	98.340701
3990.000000	98.348546
3989.000000	98.355729
3988.000000	98.359123
3987.000000	98.355980
3986.000000	98.346402
3985.000000	98.333991
3984.000000	98.323994
3983.000000	98.320186
3982.000000	98.322773
3981.000000	98.328787
3980.000000	98.334646
3979.000000	98.338657
3978.000000	98.340969
3977.000000	98.341596
3976.000000	98.339162
3975.000000	98.332255
3974.000000	98.322100
3973.000000	98.313027
3972.000000	98.309643
3971.000000	98.313184
3970.000000	98.320733
3969.000000	98.327284
3968.000000	98.328694
3967.000000	98.324150
3966.000000	98.316393
3965.000000	98.309845
3964.000000	98.307572
3963.000000	98.309616
3962.000000	98.313977
3961.000000	98.318638
3960.000000	98.322576
3959.000000	98.324334
3958.000000	98.321634
3957.000000	98.313364
3956.000000	98.301160
3955.000000	98.288998
3954.000000	98.280660
3953.000000	98.278289
3952.000000	98.282729
3951.000000	98.293819
3950.000000	98.310017
3949.000000	98.326670
3948.000000	98.336949
3947.000000	98.336149
3946.000000	98.324305
3945.000000	98.306403
3944.000000	98.290312
3943.000000	98.281913
3942.000000	98.281189
3941.000000	98.282516
3940.000000	98.279974
3939.000000	98.272185
3938.000000	98.263274
3937.000000	98.259545
3936.000000	98.263771
3935.000000	98.273710
3934.000000	98.284584
3933.000000	98.291683
3932.000000	98.292637
3931.000000	98.288202
3930.000000	98.281791
3929.000000	98.275995
3928.000000	98.270621
3927.000000	98.266110
3926.000000	98.265191
3925.000000	98.270086
3924.000000	98.278748
3923.000000	98.286741
3922.000000	98.292101
3921.000000	98.296676
3920.000000	98.302733
3919.000000	98.309375
3918.000000	98.312135
3917.000000	98.307323
3916.000000	98.296014
3915.000000	98.282131
3914.000000	98.269364
3913.000000	98.259991
3912.000000	98.255423
3911.000000	98.254559
3910.000000	98.254457
3909.000000	98.252888
3908.000000	98.249935
3907.000000	98.249264
3906.000000	98.256096
3905.000000	98.273100
3904.000000	98.295038
3903.000000	98.310082
3902.000000	98.311119
3901.000000	98.301881
3900.000000	98.290709
3899.000000	98.283468
3898.000000	98.279885
3897.000000	98.276101
3896.000000	98.270573
3895.000000	98.264566
3894.000000	98.261018
3893.000000	98.262132
3892.000000	98.266991
3891.000000	98.271603
3890.000000	98.274379
3889.000000	98.276381
3888.000000	98.278493
3887.000000	98.281714
3886.000000	98.285357
3885.000000	98.285645
3884.000000	98.279139
3883.000000	98.266563
3882.000000	98.253656
3881.000000	98.247735
3880.000000	98.250088
3879.000000	98.254856
3878.000000	98.255069
3877.000000	98.247876
3876.000000	98.236220
3875.000000	98.228355
3874.000000	98.232002
3873.000000	98.245876
3872.000000	98.261036
3871.000000	98.270074
3870.000000	98.272575
3869.000000	98.273075
3868.000000	98.274334
3867.000000	98.274027
3866.000000	98.269962
3865.000000	98.264908
3864.000000	98.263044
3863.000000	98.265135
3862.000000	98.269544
3861.000000	98.273417
3860.000000	98.272986
3859.000000	98.267192
3858.000000	98.258130
3857.000000	98.249938
3856.000000	98.246017
3855.000000	98.248003
3854.000000	98.263011
3853.000000	98.281592
3852.000000	98.284383
3851.000000	98.273349
3850.000000	98.259445
3849.000000	98.246793
3848.000000	98.236931
3847.000000	98.229620
3846.000000	98.225658
3845.000000	98.226782
3844.000000	98.233044
3843.000000	98.241612
3842.000000	98.248990
3841.000000	98.252396
3840.000000	98.252116
3839.000000	98.249893
3838.000000	98.245348
3837.000000	98.239379
3836.000000	98.234652
3835.000000	98.232661
3834.000000	98.232817
3833.000000	98.233320
3832.000000	98.232070
3831.000000	98.228789
3830.000000	98.224753
3829.000000	98.222532
3828.000000	98.224627
3827.000000	98.232313
3826.000000	98.245309
3825.000000	98.259615
3824.000000	98.267824
3823.000000	98.261802
3822.000000	98.243731
3821.000000	98.227707
3820.000000	98.222256
3819.000000	98.224284
3818.000000	98.227678
3817.000000	98.230706
3816.000000	98.232793
3815.000000	98.233284
3814.000000	98.233154
3813.000000	98.234808
3812.000000	98.240937
3811.000000	98.250658
3810.000000	98.259420
3809.000000	98.261801
3808.000000	98.256791
3807.000000	98.249345
3806.000000	98.245411
3805.000000	98.244265
3804.000000	98.240498
3803.000000	98.229235
3802.000000	98.213906
3801.000000	98.203901
3800.000000	98.206222
3799.000000	98.217012
3798.000000	98.228897
3797.000000	98.237331
3796.000000	98.240505
3795.000000	98.238654
3794.000000	98.233669
3793.000000	98.228803
3792.000000	98.226202
3791.000000	98.225248
3790.000000	98.224350
3789.000000	98.222907
3788.000000	98.220438
3787.000000	98.216521
3786.000000	98.212079
3785.000000	98.209745
3784.000000	98.211442
3783.000000	98.215349
3782.000000	98.217135
3781.000000	98.214832
3780.000000	98.211824
3779.000000	98.212103
3778.000000	98.216001
3777.000000	98.220919
3776.000000	98.224987
3775.000000	98.228513
3774.000000	98.233415
3773.000000	98.240964
3772.000000	98.249786
3771.000000	98.256994
3770.000000	98.260572
3769.000000	98.260871
3768.000000	98.258820
3767.000000	98.254937
3766.000000	98.249556
3765.000000	98.243806
3764.000000	98.239107
3763.000000	98.235051
3762.000000	98.230448
3761.000000	98.226460
3760.000000	98.227094
3759.000000	98.233427
3758.000000	98.243437
3757.000000	98.255996
3756.000000	98.269857
3755.000000	98.282548
3754.000000	98.294366
3753.000000	98.311090
3752.000000	98.337110
3751.000000	98.362270
3750.000000	98.368669
3749.000000	98.357746
3748.000000	98.343016
3747.000000	98.329878
3746.000000	98.315220
3745.000000	98.296936
3744.000000	98.278930
3743.000000	98.270529
3742.000000	98.276158
3741.000000	98.294016
3740.000000	98.317612
3739.000000	98.337093
3738.000000	98.343063
3737.000000	98.338549
3736.000000	98.337291
3735.000000	98.347174
3734.000000	98.362492
3733.000000	98.371128
3732.000000	98.366332
3731.000000	98.351523
3730.000000	98.335129
3729.000000	98.323183
3728.000000	98.317015
3727.000000	98.315127
3726.000000	98.313846
3725.000000	98.309528
3724.000000	98.301606
3723.000000	98.293583
3722.000000	98.290481
3721.000000	98.292456
3720.000000	98.295486
3719.000000	98.294820
3718.000000	98.289359
3717.000000	98.283066
3716.000000	98.281211
3715.000000	98.286127
3714.000000	98.293821
3713.000000	98.295560
3712.000000	98.285974
3711.000000	98.269705
3710.000000	98.258847
3709.000000	98.261596
3708.000000	98.274395
3707.000000	98.288368
3706.000000	98.297891
3705.000000	98.301740
3704.000000	98.302821
3703.000000	98.305704
3702.000000	98.311580
3701.000000	98.315609
3700.000000	98.312582
3699.000000	98.302689
3698.000000	98.289818
3697.000000	98.277699
3696.000000	98.267285
3695.000000	98.256665
3694.000000	98.244315
3693.000000	98.232618
3692.000000	98.228797
3691.000000	98.240459
3690.000000	98.264472
3689.000000	98.281563
3688.000000	98.277902
3687.000000	98.263264
3686.000000	98.252824
3685.000000	98.252401
3684.000000	98.260119
3683.000000	98.269014
3682.000000	98.271692
3681.000000	98.266477
3680.000000	98.258214
3679.000000	98.252432
3678.000000	98.250139
3677.000000	98.248222
3676.000000	98.247112
3675.000000	98.248432
3674.000000	98.255300
3673.000000	98.264996
3672.000000	98.269728
3671.000000	98.261323
3670.000000	98.239893
3669.000000	98.217342
3668.000000	98.206850
3667.000000	98.208708
3666.000000	98.216117
3665.000000	98.223179
3664.000000	98.226388
3663.000000	98.223438
3662.000000	98.215012
3661.000000	98.205821
3660.000000	98.200477
3659.000000	98.200141
3658.000000	98.202395
3657.000000	98.203929
3656.000000	98.201758
3655.000000	98.194911
3654.000000	98.185492
3653.000000	98.175807
3652.000000	98.169033
3651.000000	98.171133
3650.000000	98.181986
3649.000000	98.181436
3648.000000	98.157894
3647.000000	98.131431
3646.000000	98.119355
3645.000000	98.118093
3644.000000	98.117824
3643.000000	98.113168
3642.000000	98.104601
3641.000000	98.095552
3640.000000	98.087887
3639.000000	98.081924
3638.000000	98.078339
3637.000000	98.077109
3636.000000	98.076488
3635.000000	98.075960
3634.000000	98.079796
3633.000000	98.092731
3632.000000	98.112329
3631.000000	98.127991
3630.000000	98.130195
3629.000000	98.118490
3628.000000	98.100792
3627.000000	98.088765
3626.000000	98.084665
3625.000000	98.085060
3624.000000	98.086039
3623.000000	98.084807
3622.000000	98.079120
3621.000000	98.067366
3620.000000	98.048070
3619.000000	98.021266
3618.000000	97.991926
3617.000000	97.968895
3616.000000	97.955813
3615.000000	97.949352
3614.000000	97.945275
3613.000000	97.942729
3612.000000	97.943633
3611.000000	97.946263
3610.000000	97.942762
3609.000000	97.926165
3608.000000	97.900037
3607.000000	97.876828
3606.000000	97.865606
3605.000000	97.864638
3604.000000	97.864942
3603.000000	97.859217
3602.000000	97.846074
3601.000000	97.829194
3600.000000	97.813737
3599.000000	97.802655
3598.000000	97.794738
3597.000000	97.786897
3596.000000	97.776510
3595.000000	97.763268
3594.000000	97.750615
3593.000000	97.742466
3592.000000	97.738883
3591.000000	97.735067
3590.000000	97.726406
3589.000000	97.713843
3588.000000	97.701533
3587.000000	97.688565
3586.000000	97.674721
3585.000000	97.662482
3584.000000	97.651321
3583.000000	97.638798
3582.000000	97.623996
3581.000000	97.607924
3580.000000	97.592680
3579.000000	97.579498
3578.000000	97.567966
3577.000000	97.556916
3576.000000	97.545910
3575.000000	97.535322
3574.000000	97.525785
3573.000000	97.517652
3572.000000	97.509589
3571.000000	97.499277
3570.000000	97.485927
3569.000000	97.473571
3568.000000	97.466490
3567.000000	97.460320
3566.000000	97.448590
3565.000000	97.435896
3564.000000	97.426690
3563.000000	97.418619
3562.000000	97.409392
3561.000000	97.400470
3560.000000	97.393798
3559.000000	97.388388
3558.000000	97.380674
3557.000000	97.368525
3556.000000	97.353363
3555.000000	97.338422
3554.000000	97.325329
3553.000000	97.312977
3552.000000	97.299348
3551.000000	97.284916
3550.000000	97.272929
3549.000000	97.266421
3548.000000	97.265778
3547.000000	97.267181
3546.000000	97.263821
3545.000000	97.251860
3544.000000	97.234362
3543.000000	97.216993
3542.000000	97.203562
3541.000000	97.194691
3540.000000	97.188192
3539.000000	97.180812
3538.000000	97.170276
3537.000000	97.156598
3536.000000	97.140516
3535.000000	97.122560
3534.000000	97.103442
3533.000000	97.084632
3532.000000	97.068358
3531.000000	97.056973
3530.000000	97.052311
3529.000000	97.054265
3528.000000	97.059336
3527.000000	97.062034
3526.000000	97.058940
3525.000000	97.050099
3524.000000	97.036965
3523.000000	97.021086
3522.000000	97.005018
3521.000000	96.991965
3520.000000	96.982995
3519.000000	96.976223
3518.000000	96.968736
3517.000000	96.959031
3516.000000	96.947451
3515.000000	96.934761
3514.000000	96.921653
3513.000000	96.908887
3512.000000	96.897558
3511.000000	96.889243
3510.000000	96.885205
3509.000000	96.884598
3508.000000	96.883954
3507.000000	96.880129
3506.000000	96.873818
3505.000000	96.869419
3504.000000	96.869171
3503.000000	96.868820
3502.000000	96.862241
3501.000000	96.848428
3500.000000	96.830736
3499.000000	96.811731
3498.000000	96.792177
3497.000000	96.773297
3496.000000	96.758253
3495.000000	96.750244
3494.000000	96.749474
3493.000000	96.752164
3492.000000	96.752779
3491.000000	96.748023
3490.000000	96.738906
3489.000000	96.728350
3488.000000	96.717306
3487.000000	96.704614
3486.000000	96.690503
3485.000000	96.678128
3484.000000	96.670515
3483.000000	96.666911
3482.000000	96.663059
3481.000000	96.655118
3480.000000	96.642613
3479.000000	96.627921
3478.000000	96.613887
3477.000000	96.602302
3476.000000	96.593822
3475.000000	96.588656
3474.000000	96.586723
3473.000000	96.586495
3472.000000	96.584159
3471.000000	96.575816
3470.000000	96.561631
3469.000000	96.546447
3468.000000	96.535370
3467.000000	96.529130
3466.000000	96.523887
3465.000000	96.514954
3464.000000	96.500246
3463.000000	96.481541
3462.000000	96.463514
3461.000000	96.450381
3460.000000	96.442043
3459.000000	96.433770
3458.000000	96.420725
3457.000000	96.403145
3456.000000	96.386225
3455.000000	96.375508
3454.000000	96.372705
3453.000000	96.375340
3452.000000	96.379261
3451.000000	96.380900
3450.000000	96.378662
3449.000000	96.372915
3448.000000	96.364842
3447.000000	96.355396
3446.000000	96.345657
3445.000000	96.336629
3444.000000	96.327924
3443.000000	96.317835
3442.000000	96.305440
3441.000000	96.291954
3440.000000	96.278921
3439.000000	96.266258
3438.000000	96.253411
3437.000000	96.241685
3436.000000	96.233052
3435.000000	96.226942
3434.000000	96.219888
3433.000000	96.208950
3432.000000	96.194832
3431.000000	96.180711
3430.000000	96.169234
3429.000000	96.160590
3428.000000	96.152843
3427.000000	96.143936
3426.000000	96.133551
3425.000000	96.123081
3424.000000	96.113555
3423.000000	96.104302
3422.000000	96.093956
3421.000000	96.081860
3420.000000	96.068013
3419.000000	96.052883
3418.000000	96.038194
3417.000000	96.026360
3416.000000	96.017776
3415.000000	96.009336
3414.000000	95.997361
3413.000000	95.981830
3412.000000	95.966157
3411.000000	95.953182
3410.000000	95.942631
3409.000000	95.932013
3408.000000	95.918708
3407.000000	95.901633
3406.000000	95.882071
3405.000000	95.862942
3404.000000	95.846139
3403.000000	95.830884
3402.000000	95.815254
3401.000000	95.798431
3400.000000	95.780873
3399.000000	95.763168
3398.000000	95.745978
3397.000000	95.730222
3396.000000	95.716011
3395.000000	95.702006
3394.000000	95.687202
3393.000000	95.673046
3392.000000	95.662604
3391.000000	95.657614
3390.000000	95.657057
3389.000000	95.658583
3388.000000	95.660398
3387.000000	95.661704
3386.000000	95.661958
3385.000000	95.660117
3384.000000	95.654819
3383.000000	95.645765
3382.000000	95.634741
3381.000000	95.624399
3380.000000	95.615958
3379.000000	95.608523
3378.000000	95.600764
3377.000000	95.592381
3376.000000	95.583951
3375.000000	95.576256
3374.000000	95.569779
3373.000000	95.563841
3372.000000	95.556157
3371.000000	95.544522
3370.000000	95.529490
3369.000000	95.514425
3368.000000	95.502387
3367.000000	95.493850
3366.000000	95.487673
3365.000000	95.482762
3364.000000	95.477800
3363.000000	95.470783
3362.000000	95.460391
3361.000000	95.447284
3360.000000	95.432928
3359.000000	95.417746
3358.000000	95.401640
3357.000000	95.386018
3356.000000	95.373821
3355.000000	95.366837
3354.000000	95.363485
3353.000000	95.359600
3352.000000	95.351426
3351.000000	95.338072
3350.000000	95.321427
3349.000000	95.303998
3348.000000	95.287086
3347.000000	95.271176
3346.000000	95.257081
3345.000000	95.245641
3344.000000	95.236422
3343.000000	95.227579
3342.000000	95.217238
3341.000000	95.204341
3340.000000	95.188688
3339.000000	95.171408
3338.000000	95.155130
3337.000000	95.142093
3336.000000	95.131796
3335.000000	95.121754
3334.000000	95.110654
3333.000000	95.099276
3332.000000	95.088142
3331.000000	95.076247
3330.000000	95.062811
3329.000000	95.048613
3328.000000	95.034691
3327.000000	95.021251
3326.000000	95.008740
3325.000000	94.998420
3324.000000	94.990419
3323.000000	94.982247
3322.000000	94.971013
3321.000000	94.956591
3320.000000	94.941626
3319.000000	94.929083
3318.000000	94.920267
3317.000000	94.914058
3316.000000	94.907142
3315.000000	94.896163
3314.000000	94.881358
3313.000000	94.867466
3312.000000	94.859435
3311.000000	94.857391
3310.000000	94.856907
3309.000000	94.853885
3308.000000	94.848107
3307.000000	94.842071
3306.000000	94.837615
3305.000000	94.834110
3304.000000	94.829101
3303.000000	94.820346
3302.000000	94.807665
3301.000000	94.793277
3300.000000	94.780336
3299.000000	94.770942
3298.000000	94.764870
3297.000000	94.759442
3296.000000	94.751358
3295.000000	94.739881
3294.000000	94.728245
3293.000000	94.720721
3292.000000	94.718034
3291.000000	94.716791
3290.000000	94.713600
3289.000000	94.708297
3288.000000	94.702783
3287.000000	94.698431
3286.000000	94.695771
3285.000000	94.695252
3284.000000	94.696862
3283.000000	94.699545
3282.000000	94.701904
3281.000000	94.703221
3280.000000	94.703353
3279.000000	94.702580
3278.000000	94.702093
3277.000000	94.703884
3276.000000	94.709596
3275.000000	94.719709
3274.000000	94.733426
3273.000000	94.748161
3272.000000	94.759603
3271.000000	94.764592
3270.000000	94.764674
3269.000000	94.764867
3268.000000	94.768191
3267.000000	94.773146
3266.000000	94.777395
3265.000000	94.781756
3264.000000	94.788635
3263.000000	94.798179
3262.000000	94.808289
3261.000000	94.817705
3260.000000	94.827072
3259.000000	94.837146
3258.000000	94.847481
3257.000000	94.857215
3256.000000	94.866113
3255.000000	94.874723
3254.000000	94.883874
3253.000000	94.894064
3252.000000	94.905308
3251.000000	94.917806
3250.000000	94.932548
3249.000000	94.949863
3248.000000	94.967129
3247.000000	94.979421
3246.000000	94.983621
3245.000000	94.981672
3244.000000	94.979327
3243.000000	94.981985
3242.000000	94.991707
3241.000000	95.006672
3240.000000	95.022651
3239.000000	95.035883
3238.000000	95.045106
3237.000000	95.050651
3236.000000	95.052345
3235.000000	95.050439
3234.000000	95.048332
3233.000000	95.051230
3232.000000	95.060449
3231.000000	95.070974
3230.000000	95.077099
3229.000000	95.079189
3228.000000	95.082875
3227.000000	95.092239
3226.000000	95.105684
3225.000000	95.118410
3224.000000	95.127214
3223.000000	95.132535
3222.000000	95.136678
3221.000000	95.140696
3220.000000	95.143153
3219.000000	95.142319
3218.000000	95.139126
3217.000000	95.136582
3216.000000	95.136396
3215.000000	95.137608
3214.000000	95.139027
3213.000000	95.141210
3212.000000	95.144931
3211.000000	95.149272
3210.000000	95.152965
3209.000000	95.156810
3208.000000	95.162881
3207.000000	95.171752
3206.000000	95.181759
3205.000000	95.190784
3204.000000	95.197805
3203.000000	95.203205
3202.000000	95.208560
3201.000000	95.215592
3200.000000	95.224150
3199.000000	95.231604
3198.000000	95.235366
3197.000000	95.235902
3196.000000	95.236530
3195.000000	95.240409
3194.000000	95.248255
3193.000000	95.258274
3192.000000	95.267311
3191.000000	95.272871
3190.000000	95.275277
3189.000000	95.277672
3188.000000	95.283186
3187.000000	95.292471
3186.000000	95.304496
3185.000000	95.318637
3184.000000	95.334755
3183.000000	95.352031
3182.000000	95.369362
3181.000000	95.386611
3180.000000	95.403971
3179.000000	95.420139
3178.000000	95.432718
3177.000000	95.440799
3176.000000	95.445957
3175.000000	95.450602
3174.000000	95.456275
3173.000000	95.463637
3172.000000	95.472772
3171.000000	95.483196
3170.000000	95.494448
3169.000000	95.506667
3168.000000	95.519831
3167.000000	95.532634
3166.000000	95.543571
3165.000000	95.553324
3164.000000	95.564536
3163.000000	95.578615
3162.000000	95.593904
3161.000000	95.607859
3160.000000	95.619901
3159.000000	95.631223
3158.000000	95.642812
3157.000000	95.654826
3156.000000	95.667204
3155.000000	95.679613
3154.000000	95.691076
3153.000000	95.700780
3152.000000	95.709256
3151.000000	95.717876
3150.000000	95.727033
3149.000000	95.735553
3148.000000	95.742371
3147.000000	95.748388
3146.000000	95.756206
