PE IR       SUBTECH     SPECTRUM    ASCII       PEDS        4.00        
   -1
11768-Hull16-F001_1.ASC
23/09/13
11:45:42.00
23/09/13
12:05:54.00
uco
Sample 001 By uco Date Wednesday, September 13 2023
450.000000
#HDR
-1
-1
#GR
cm-1
%T
1.0
0.0
4000.000000
-1.000000
3551
8
99.047835
85.311904
#DATA
4000.000000	98.880212
3999.000000	98.880614
3998.000000	98.888294
3997.000000	98.897939
3996.000000	98.903638
3995.000000	98.863297
3994.000000	98.862144
3993.000000	98.867230
3992.000000	98.878361
3991.000000	98.891120
3990.000000	98.900193
3989.000000	98.902227
3988.000000	98.897006
3987.000000	98.886661
3986.000000	98.874645
3985.000000	98.864521
3984.000000	98.858609
3983.000000	98.857188
3982.000000	98.858800
3981.000000	98.861582
3980.000000	98.864522
3979.000000	98.867574
3978.000000	98.870580
3977.000000	98.872614
3976.000000	98.872586
3975.000000	98.870245
3974.000000	98.866355
3973.000000	98.861978
3972.000000	98.858126
3971.000000	98.855809
3970.000000	98.855883
3969.000000	98.858090
3968.000000	98.860304
3967.000000	98.860168
3966.000000	98.857374
3965.000000	98.853847
3964.000000	98.851544
3963.000000	98.850701
3962.000000	98.850548
3961.000000	98.850878
3960.000000	98.852209
3959.000000	98.853811
3958.000000	98.853356
3957.000000	98.849061
3956.000000	98.841097
3955.000000	98.831320
3954.000000	98.822015
3953.000000	98.815824
3952.000000	98.815807
3951.000000	98.823720
3950.000000	98.837766
3949.000000	98.851374
3948.000000	98.856785
3947.000000	98.851146
3946.000000	98.837692
3945.000000	98.822961
3944.000000	98.813292
3943.000000	98.811334
3942.000000	98.814988
3941.000000	98.818987
3940.000000	98.819010
3939.000000	98.814714
3938.000000	98.810130
3937.000000	98.811021
3936.000000	98.819645
3935.000000	98.833006
3934.000000	98.845218
3933.000000	98.850783
3932.000000	98.848018
3931.000000	98.839841
3930.000000	98.831650
3929.000000	98.826529
3928.000000	98.823543
3927.000000	98.822024
3926.000000	98.823464
3925.000000	98.829049
3924.000000	98.836683
3923.000000	98.842679
3922.000000	98.845618
3921.000000	98.847436
3920.000000	98.850706
3919.000000	98.855261
3918.000000	98.856841
3917.000000	98.851189
3916.000000	98.839400
3915.000000	98.826591
3914.000000	98.817054
3913.000000	98.811500
3912.000000	98.808612
3911.000000	98.805793
3910.000000	98.801123
3909.000000	98.794700
3908.000000	98.788257
3907.000000	98.785584
3906.000000	98.791517
3905.000000	98.809298
3904.000000	98.835729
3903.000000	98.860004
3902.000000	98.871930
3901.000000	98.869288
3900.000000	98.856665
3899.000000	98.842441
3898.000000	98.832863
3897.000000	98.828373
3896.000000	98.826852
3895.000000	98.826591
3894.000000	98.828179
3893.000000	98.832646
3892.000000	98.838182
3891.000000	98.840305
3890.000000	98.838300
3889.000000	98.834518
3888.000000	98.830015
3887.000000	98.824757
3886.000000	98.818837
3885.000000	98.813919
3884.000000	98.812063
3883.000000	98.812379
3882.000000	98.812487
3881.000000	98.811263
3880.000000	98.808235
3879.000000	98.803977
3878.000000	98.799226
3877.000000	98.793551
3876.000000	98.786440
3875.000000	98.780437
3874.000000	98.781231
3873.000000	98.791390
3872.000000	98.806127
3871.000000	98.816204
3870.000000	98.816069
3869.000000	98.811554
3868.000000	98.812772
3867.000000	98.820436
3866.000000	98.827344
3865.000000	98.828874
3864.000000	98.826894
3863.000000	98.825964
3862.000000	98.828640
3861.000000	98.832936
3860.000000	98.833011
3859.000000	98.824258
3858.000000	98.806359
3857.000000	98.786046
3856.000000	98.775095
3855.000000	98.779465
3854.000000	98.795692
3853.000000	98.805413
3852.000000	98.801781
3851.000000	98.799605
3850.000000	98.805733
3849.000000	98.813852
3848.000000	98.819149
3847.000000	98.819671
3846.000000	98.816090
3845.000000	98.810930
3844.000000	98.806862
3843.000000	98.805052
3842.000000	98.805584
3841.000000	98.806722
3840.000000	98.807194
3839.000000	98.806497
3838.000000	98.803272
3837.000000	98.799165
3836.000000	98.798265
3835.000000	98.802120
3834.000000	98.808692
3833.000000	98.813935
3832.000000	98.813551
3831.000000	98.807129
3830.000000	98.798475
3829.000000	98.792994
3828.000000	98.793448
3827.000000	98.798800
3826.000000	98.807541
3825.000000	98.818548
3824.000000	98.829329
3823.000000	98.832967
3822.000000	98.824859
3821.000000	98.810060
3820.000000	98.796828
3819.000000	98.789047
3818.000000	98.786421
3817.000000	98.788167
3816.000000	98.791131
3815.000000	98.793723
3814.000000	98.797690
3813.000000	98.803235
3812.000000	98.809153
3811.000000	98.814432
3810.000000	98.819098
3809.000000	98.822451
3808.000000	98.822383
3807.000000	98.817863
3806.000000	98.812408
3805.000000	98.808656
3804.000000	98.804266
3803.000000	98.793763
3802.000000	98.777752
3801.000000	98.766230
3800.000000	98.770852
3799.000000	98.787669
3798.000000	98.802752
3797.000000	98.806369
3796.000000	98.799037
3795.000000	98.788455
3794.000000	98.781170
3793.000000	98.779142
3792.000000	98.780521
3791.000000	98.781730
3790.000000	98.780062
3789.000000	98.775361
3788.000000	98.768871
3787.000000	98.762277
3786.000000	98.757350
3785.000000	98.755653
3784.000000	98.757840
3783.000000	98.762891
3782.000000	98.768537
3781.000000	98.773446
3780.000000	98.779035
3779.000000	98.786240
3778.000000	98.793252
3777.000000	98.796763
3776.000000	98.794954
3775.000000	98.788962
3774.000000	98.783477
3773.000000	98.783905
3772.000000	98.791318
3771.000000	98.801542
3770.000000	98.810099
3769.000000	98.817391
3768.000000	98.825650
3767.000000	98.833790
3766.000000	98.837024
3765.000000	98.832416
3764.000000	98.823015
3763.000000	98.813736
3762.000000	98.806257
3761.000000	98.799961
3760.000000	98.796132
3759.000000	98.795893
3758.000000	98.798468
3757.000000	98.802544
3756.000000	98.806246
3755.000000	98.807828
3754.000000	98.809561
3753.000000	98.818749
3752.000000	98.840777
3751.000000	98.867620
3750.000000	98.882729
3749.000000	98.884158
3748.000000	98.879769
3747.000000	98.871703
3746.000000	98.855936
3745.000000	98.829300
3744.000000	98.801482
3743.000000	98.794828
3742.000000	98.815090
3741.000000	98.847870
3740.000000	98.876644
3739.000000	98.892823
3738.000000	98.894068
3737.000000	98.886276
3736.000000	98.880341
3735.000000	98.883342
3734.000000	98.893579
3733.000000	98.901026
3732.000000	98.896863
3731.000000	98.883043
3730.000000	98.868734
3729.000000	98.860213
3728.000000	98.857172
3727.000000	98.856880
3726.000000	98.858019
3725.000000	98.861137
3724.000000	98.865423
3723.000000	98.868350
3722.000000	98.869098
3721.000000	98.867449
3720.000000	98.863505
3719.000000	98.856362
3718.000000	98.845473
3717.000000	98.833152
3716.000000	98.823570
3715.000000	98.819535
3714.000000	98.818717
3713.000000	98.814815
3712.000000	98.805312
3711.000000	98.795981
3710.000000	98.795252
3709.000000	98.806024
3708.000000	98.823175
3707.000000	98.840036
3706.000000	98.853876
3705.000000	98.863783
3704.000000	98.869431
3703.000000	98.870783
3702.000000	98.868195
3701.000000	98.861976
3700.000000	98.852750
3699.000000	98.841469
3698.000000	98.828817
3697.000000	98.816271
3696.000000	98.806628
3695.000000	98.801551
3694.000000	98.799220
3693.000000	98.796250
3692.000000	98.792518
3691.000000	98.792980
3690.000000	98.800259
3689.000000	98.806290
3688.000000	98.804389
3687.000000	98.801272
3686.000000	98.802761
3685.000000	98.806024
3684.000000	98.807154
3683.000000	98.805020
3682.000000	98.800894
3681.000000	98.797080
3680.000000	98.795429
3679.000000	98.796768
3678.000000	98.800844
3677.000000	98.803199
3676.000000	98.798834
3675.000000	98.788741
3674.000000	98.783801
3673.000000	98.787228
3672.000000	98.791674
3671.000000	98.785795
3670.000000	98.765724
3669.000000	98.743370
3668.000000	98.734094
3667.000000	98.737712
3666.000000	98.744840
3665.000000	98.747327
3664.000000	98.741826
3663.000000	98.729579
3662.000000	98.716055
3661.000000	98.708040
3660.000000	98.708002
3659.000000	98.712737
3658.000000	98.715680
3657.000000	98.710704
3656.000000	98.696224
3655.000000	98.677744
3654.000000	98.662885
3653.000000	98.654058
3652.000000	98.650748
3651.000000	98.655070
3650.000000	98.666372
3649.000000	98.666221
3648.000000	98.641112
3647.000000	98.608376
3646.000000	98.587880
3645.000000	98.581394
3644.000000	98.581662
3643.000000	98.580855
3642.000000	98.574415
3641.000000	98.562835
3640.000000	98.549082
3639.000000	98.536100
3638.000000	98.526460
3637.000000	98.521207
3636.000000	98.518423
3635.000000	98.515033
3634.000000	98.511842
3633.000000	98.513407
3632.000000	98.521393
3631.000000	98.528984
3630.000000	98.523899
3629.000000	98.499724
3628.000000	98.467755
3627.000000	98.448826
3626.000000	98.446385
3625.000000	98.450927
3624.000000	98.453108
3623.000000	98.449278
3622.000000	98.440247
3621.000000	98.428347
3620.000000	98.414273
3619.000000	98.396989
3618.000000	98.377844
3617.000000	98.363150
3616.000000	98.356977
3615.000000	98.356641
3614.000000	98.356290
3613.000000	98.352343
3612.000000	98.346123
3611.000000	98.338128
3610.000000	98.322526
3609.000000	98.292116
3608.000000	98.250410
3607.000000	98.213014
3606.000000	98.193583
3605.000000	98.192431
3604.000000	98.198544
3603.000000	98.199564
3602.000000	98.189256
3601.000000	98.170580
3600.000000	98.153020
3599.000000	98.144076
3598.000000	98.141541
3597.000000	98.135957
3596.000000	98.118281
3595.000000	98.086877
3594.000000	98.050502
3593.000000	98.021546
3592.000000	98.006237
3591.000000	98.001303
3590.000000	97.999108
3589.000000	97.993581
3588.000000	97.981330
3587.000000	97.960141
3586.000000	97.935718
3585.000000	97.915877
3584.000000	97.900484
3583.000000	97.885210
3582.000000	97.868358
3581.000000	97.851502
3580.000000	97.836648
3579.000000	97.822828
3578.000000	97.806698
3577.000000	97.786490
3576.000000	97.764618
3575.000000	97.745470
3574.000000	97.731359
3573.000000	97.721145
3572.000000	97.711060
3571.000000	97.697937
3570.000000	97.681719
3569.000000	97.666665
3568.000000	97.655753
3567.000000	97.643895
3566.000000	97.626569
3565.000000	97.611094
3564.000000	97.601783
3563.000000	97.592797
3562.000000	97.577862
3561.000000	97.557595
3560.000000	97.537420
3559.000000	97.521441
3558.000000	97.508611
3557.000000	97.495544
3556.000000	97.480797
3555.000000	97.465590
3554.000000	97.451016
3553.000000	97.436402
3552.000000	97.420325
3551.000000	97.403124
3550.000000	97.386971
3549.000000	97.373848
3548.000000	97.364341
3547.000000	97.356301
3546.000000	97.344680
3545.000000	97.326086
3544.000000	97.303164
3543.000000	97.281271
3542.000000	97.263635
3541.000000	97.249461
3540.000000	97.235054
3539.000000	97.217052
3538.000000	97.195030
3537.000000	97.171933
3536.000000	97.150869
3535.000000	97.132732
3534.000000	97.116431
3533.000000	97.100487
3532.000000	97.084348
3531.000000	97.068541
3530.000000	97.054436
3529.000000	97.043392
3528.000000	97.035429
3527.000000	97.029025
3526.000000	97.022307
3525.000000	97.013370
3524.000000	97.000365
3523.000000	96.983227
3522.000000	96.965164
3521.000000	96.950277
3520.000000	96.939211
3519.000000	96.929006
3518.000000	96.916643
3517.000000	96.901918
3516.000000	96.886725
3515.000000	96.872237
3514.000000	96.858233
3513.000000	96.844113
3512.000000	96.829860
3511.000000	96.816193
3510.000000	96.803840
3509.000000	96.792377
3508.000000	96.779948
3507.000000	96.765151
3506.000000	96.749225
3505.000000	96.736338
3504.000000	96.729428
3503.000000	96.725959
3502.000000	96.719997
3501.000000	96.707761
3500.000000	96.689413
3499.000000	96.667301
3498.000000	96.644796
3497.000000	96.625281
3496.000000	96.611068
3495.000000	96.602626
3494.000000	96.598740
3493.000000	96.597005
3492.000000	96.594494
3491.000000	96.589179
3490.000000	96.580757
3489.000000	96.569276
3488.000000	96.553818
3487.000000	96.534108
3486.000000	96.512917
3485.000000	96.494833
3484.000000	96.482245
3483.000000	96.473478
3482.000000	96.465045
3481.000000	96.454969
3480.000000	96.443380
3479.000000	96.431138
3478.000000	96.418894
3477.000000	96.407087
3476.000000	96.395915
3475.000000	96.385413
3474.000000	96.375626
3473.000000	96.366137
3472.000000	96.355406
3471.000000	96.341871
3470.000000	96.326436
3469.000000	96.312539
3468.000000	96.303134
3467.000000	96.298182
3466.000000	96.294935
3465.000000	96.289635
3464.000000	96.278762
3463.000000	96.260651
3462.000000	96.237479
3461.000000	96.214329
3460.000000	96.194757
3459.000000	96.177756
3458.000000	96.160243
3457.000000	96.142110
3456.000000	96.126832
3455.000000	96.117454
3454.000000	96.113062
3453.000000	96.109411
3452.000000	96.102406
3451.000000	96.090541
3450.000000	96.075568
3449.000000	96.061359
3448.000000	96.051275
3447.000000	96.045328
3446.000000	96.040150
3445.000000	96.031711
3444.000000	96.017888
3443.000000	95.999292
3442.000000	95.978553
3441.000000	95.958755
3440.000000	95.941492
3439.000000	95.926256
3438.000000	95.911556
3437.000000	95.896612
3436.000000	95.881896
3435.000000	95.868776
3434.000000	95.858423
3433.000000	95.850173
3432.000000	95.841365
3431.000000	95.829216
3430.000000	95.813537
3429.000000	95.796539
3428.000000	95.779914
3427.000000	95.763321
3426.000000	95.745650
3425.000000	95.726366
3424.000000	95.705192
3423.000000	95.682445
3422.000000	95.660386
3421.000000	95.642127
3420.000000	95.627670
3419.000000	95.612880
3418.000000	95.594165
3417.000000	95.572415
3416.000000	95.550957
3415.000000	95.530999
3414.000000	95.510822
3413.000000	95.488556
3412.000000	95.463765
3411.000000	95.436913
3410.000000	95.408831
3409.000000	95.380299
3408.000000	95.351047
3407.000000	95.319772
3406.000000	95.285786
3405.000000	95.249712
3404.000000	95.211532
3403.000000	95.169700
3402.000000	95.123857
3401.000000	95.077092
3400.000000	95.033965
3399.000000	94.996770
3398.000000	94.964875
3397.000000	94.936511
3396.000000	94.909693
3395.000000	94.882552
3394.000000	94.854979
3393.000000	94.829985
3392.000000	94.812053
3391.000000	94.803787
3390.000000	94.804482
3389.000000	94.811559
3388.000000	94.822280
3387.000000	94.834507
3386.000000	94.846713
3385.000000	94.857496
3384.000000	94.865339
3383.000000	94.869660
3382.000000	94.872047
3381.000000	94.874939
3380.000000	94.878663
3379.000000	94.880661
3378.000000	94.878315
3377.000000	94.871438
3376.000000	94.861931
3375.000000	94.852402
3374.000000	94.845311
3373.000000	94.841639
3372.000000	94.839244
3371.000000	94.833798
3370.000000	94.822432
3369.000000	94.805816
3368.000000	94.786526
3367.000000	94.767114
3366.000000	94.750317
3365.000000	94.738689
3364.000000	94.731826
3363.000000	94.725293
3362.000000	94.714192
3361.000000	94.697201
3360.000000	94.676018
3359.000000	94.652304
3358.000000	94.627249
3357.000000	94.603344
3356.000000	94.583963
3355.000000	94.570392
3354.000000	94.560413
3353.000000	94.550113
3352.000000	94.536304
3351.000000	94.517579
3350.000000	94.494495
3349.000000	94.469340
3348.000000	94.445032
3347.000000	94.423796
3346.000000	94.406219
3345.000000	94.390796
3344.000000	94.374341
3343.000000	94.353963
3342.000000	94.329760
3341.000000	94.304916
3340.000000	94.282560
3339.000000	94.263088
3338.000000	94.244819
3337.000000	94.226283
3336.000000	94.207199
3335.000000	94.188053
3334.000000	94.169503
3333.000000	94.151679
3332.000000	94.133578
3331.000000	94.113962
3330.000000	94.093220
3329.000000	94.073330
3328.000000	94.055446
3327.000000	94.038751
3326.000000	94.022193
3325.000000	94.005882
3324.000000	93.989698
3323.000000	93.971724
3322.000000	93.949758
3321.000000	93.923625
3320.000000	93.895097
3319.000000	93.866596
3318.000000	93.840798
3317.000000	93.820132
3316.000000	93.805140
3315.000000	93.793947
3314.000000	93.784653
3313.000000	93.777527
3312.000000	93.773434
3311.000000	93.771165
3310.000000	93.767958
3309.000000	93.762138
3308.000000	93.753790
3307.000000	93.743196
3306.000000	93.730265
3305.000000	93.715518
3304.000000	93.700113
3303.000000	93.684703
3302.000000	93.669248
3301.000000	93.654235
3300.000000	93.641154
3299.000000	93.631349
3298.000000	93.624720
3297.000000	93.619400
3296.000000	93.612966
3295.000000	93.604580
3294.000000	93.595981
3293.000000	93.589502
3292.000000	93.584842
3291.000000	93.579243
3290.000000	93.571437
3289.000000	93.563730
3288.000000	93.558826
3287.000000	93.555931
3286.000000	93.551931
3285.000000	93.545804
3284.000000	93.540225
3283.000000	93.538841
3282.000000	93.542782
3281.000000	93.549812
3280.000000	93.556126
3279.000000	93.559197
3278.000000	93.559590
3277.000000	93.560095
3276.000000	93.563362
3275.000000	93.571013
3274.000000	93.584213
3273.000000	93.602613
3272.000000	93.621976
3271.000000	93.635355
3270.000000	93.638950
3269.000000	93.635920
3268.000000	93.633207
3267.000000	93.635621
3266.000000	93.643939
3265.000000	93.656891
3264.000000	93.672552
3263.000000	93.688390
3262.000000	93.702528
3261.000000	93.715572
3260.000000	93.729814
3259.000000	93.746187
3258.000000	93.762770
3257.000000	93.776639
3256.000000	93.786693
3255.000000	93.794864
3254.000000	93.804754
3253.000000	93.818804
3252.000000	93.836586
3251.000000	93.855941
3250.000000	93.875559
3249.000000	93.895214
3248.000000	93.913610
3247.000000	93.927938
3246.000000	93.936538
3245.000000	93.940854
3244.000000	93.943810
3243.000000	93.947226
3242.000000	93.951822
3241.000000	93.958345
3240.000000	93.967210
3239.000000	93.977836
3238.000000	93.989409
3237.000000	94.001617
3236.000000	94.013637
3235.000000	94.023523
3234.000000	94.029787
3233.000000	94.032828
3232.000000	94.033964
3231.000000	94.034005
3230.000000	94.034154
3229.000000	94.036991
3228.000000	94.044480
3227.000000	94.055243
3226.000000	94.065407
3225.000000	94.072233
3224.000000	94.076128
3223.000000	94.079344
3222.000000	94.083595
3221.000000	94.088679
3220.000000	94.092644
3219.000000	94.093693
3218.000000	94.092440
3217.000000	94.091691
3216.000000	94.093714
3215.000000	94.098573
3214.000000	94.105655
3213.000000	94.115269
3212.000000	94.127240
3211.000000	94.138870
3210.000000	94.146331
3209.000000	94.148305
3208.000000	94.147020
3207.000000	94.145822
3206.000000	94.146619
3205.000000	94.149531
3204.000000	94.153786
3203.000000	94.158836
3202.000000	94.165235
3201.000000	94.174064
3200.000000	94.184769
3199.000000	94.194330
3198.000000	94.199885
3197.000000	94.202012
3196.000000	94.204320
3195.000000	94.209702
3194.000000	94.217857
3193.000000	94.226274
3192.000000	94.232823
3191.000000	94.237752
3190.000000	94.244000
3189.000000	94.255148
3188.000000	94.272097
3187.000000	94.291948
3186.000000	94.310868
3185.000000	94.327788
3184.000000	94.344534
3183.000000	94.363143
3182.000000	94.384458
3181.000000	94.408853
3180.000000	94.436365
3179.000000	94.465475
3178.000000	94.493187
3177.000000	94.517304
3176.000000	94.538096
3175.000000	94.557627
3174.000000	94.578007
3173.000000	94.600328
3172.000000	94.624003
3171.000000	94.646753
3170.000000	94.666298
3169.000000	94.682767
3168.000000	94.699221
3167.000000	94.719274
3166.000000	94.744498
3165.000000	94.773925
3164.000000	94.805078
3163.000000	94.834907
3162.000000	94.860560
3161.000000	94.880621
3160.000000	94.896095
3159.000000	94.909999
3158.000000	94.925560
3157.000000	94.944361
3156.000000	94.965604
3155.000000	94.987164
3154.000000	95.007655
3153.000000	95.027514
3152.000000	95.047816
3151.000000	95.068384
3150.000000	95.087728
3149.000000	95.104905
3148.000000	95.120699
3147.000000	95.136692
3146.000000	95.153657
