PE IR       SUBTECH     SPECTRUM    ASCII       PEDS        4.00        
   -1
11775-Hull23-F002_1.ASC
23/09/13
11:53:47.00
23/09/13
12:05:54.00
uco
Sample 002 By uco Date Wednesday, September 13 2023
450.000000
#HDR
-1
-1
#GR
cm-1
%T
1.0
0.0
4000.000000
-1.000000
3551
8
99.036581
86.481307
#DATA
4000.000000	98.902776
3999.000000	98.900768
3998.000000	98.906250
3997.000000	98.917026
3996.000000	98.928380
3995.000000	98.937089
3994.000000	98.942930
3993.000000	98.896899
3992.000000	98.899186
3991.000000	98.902254
3990.000000	98.905742
3989.000000	98.907231
3988.000000	98.904150
3987.000000	98.895689
3986.000000	98.884053
3985.000000	98.873145
3984.000000	98.866079
3983.000000	98.863673
3982.000000	98.864800
3981.000000	98.867780
3980.000000	98.871527
3979.000000	98.875753
3978.000000	98.880122
3977.000000	98.883437
3976.000000	98.883914
3975.000000	98.880669
3974.000000	98.875203
3973.000000	98.870984
3972.000000	98.871176
3971.000000	98.876160
3970.000000	98.883285
3969.000000	98.888412
3968.000000	98.887977
3967.000000	98.881292
3966.000000	98.871390
3965.000000	98.863815
3964.000000	98.863080
3963.000000	98.869186
3962.000000	98.877330
3961.000000	98.881386
3960.000000	98.878918
3959.000000	98.871918
3958.000000	98.863910
3957.000000	98.857006
3956.000000	98.850752
3955.000000	98.844038
3954.000000	98.837184
3953.000000	98.832720
3952.000000	98.834056
3951.000000	98.842965
3950.000000	98.858203
3949.000000	98.874890
3948.000000	98.886578
3947.000000	98.888945
3946.000000	98.881049
3945.000000	98.865956
3944.000000	98.850642
3943.000000	98.842158
3942.000000	98.842643
3941.000000	98.847354
3940.000000	98.849097
3939.000000	98.844518
3938.000000	98.836863
3937.000000	98.832661
3936.000000	98.834726
3935.000000	98.840483
3934.000000	98.845751
3933.000000	98.848263
3932.000000	98.848535
3931.000000	98.847759
3930.000000	98.846572
3929.000000	98.843877
3928.000000	98.837730
3927.000000	98.829900
3926.000000	98.826274
3925.000000	98.831486
3924.000000	98.843383
3923.000000	98.855689
3922.000000	98.864739
3921.000000	98.871564
3920.000000	98.878238
3919.000000	98.884117
3918.000000	98.885542
3917.000000	98.880078
3916.000000	98.869655
3915.000000	98.857629
3914.000000	98.846104
3913.000000	98.836112
3912.000000	98.829365
3911.000000	98.826405
3910.000000	98.825774
3909.000000	98.825097
3908.000000	98.822435
3907.000000	98.819345
3906.000000	98.821237
3905.000000	98.834108
3904.000000	98.856484
3903.000000	98.876316
3902.000000	98.881734
3901.000000	98.871946
3900.000000	98.856083
3899.000000	98.845992
3898.000000	98.846791
3897.000000	98.854338
3896.000000	98.862066
3895.000000	98.865228
3894.000000	98.862857
3893.000000	98.856981
3892.000000	98.851011
3891.000000	98.847722
3890.000000	98.849285
3889.000000	98.853708
3888.000000	98.855515
3887.000000	98.853277
3886.000000	98.850590
3885.000000	98.849728
3884.000000	98.847976
3883.000000	98.840506
3882.000000	98.827240
3881.000000	98.815134
3880.000000	98.810939
3879.000000	98.814760
3878.000000	98.819665
3877.000000	98.817690
3876.000000	98.808325
3875.000000	98.801732
3874.000000	98.809491
3873.000000	98.830440
3872.000000	98.851519
3871.000000	98.861215
3870.000000	98.858717
3869.000000	98.852610
3868.000000	98.850777
3867.000000	98.852642
3866.000000	98.854654
3865.000000	98.856349
3864.000000	98.857447
3863.000000	98.856814
3862.000000	98.856431
3861.000000	98.858795
3860.000000	98.862360
3859.000000	98.865170
3858.000000	98.866747
3857.000000	98.867784
3856.000000	98.867829
3855.000000	98.866205
3854.000000	98.871755
3853.000000	98.878456
3852.000000	98.874275
3851.000000	98.866051
3850.000000	98.860332
3849.000000	98.854864
3848.000000	98.848312
3847.000000	98.840498
3846.000000	98.833422
3845.000000	98.830013
3844.000000	98.831677
3843.000000	98.837038
3842.000000	98.843268
3841.000000	98.846620
3840.000000	98.845214
3839.000000	98.839339
3838.000000	98.829849
3837.000000	98.821273
3836.000000	98.818546
3835.000000	98.821471
3834.000000	98.825645
3833.000000	98.826705
3832.000000	98.822691
3831.000000	98.815363
3830.000000	98.807477
3829.000000	98.801110
3828.000000	98.797982
3827.000000	98.800637
3826.000000	98.811494
3825.000000	98.827456
3824.000000	98.838815
3823.000000	98.834794
3822.000000	98.818573
3821.000000	98.807203
3820.000000	98.810057
3819.000000	98.822133
3818.000000	98.832355
3817.000000	98.835077
3816.000000	98.830602
3815.000000	98.822825
3814.000000	98.816360
3813.000000	98.813407
3812.000000	98.815268
3811.000000	98.821406
3810.000000	98.828790
3809.000000	98.832949
3808.000000	98.832864
3807.000000	98.832306
3806.000000	98.835995
3805.000000	98.842835
3804.000000	98.846454
3803.000000	98.840674
3802.000000	98.828605
3801.000000	98.819288
3800.000000	98.820295
3799.000000	98.828053
3798.000000	98.833865
3797.000000	98.833504
3796.000000	98.828628
3795.000000	98.822913
3794.000000	98.818151
3793.000000	98.814584
3792.000000	98.811507
3791.000000	98.807729
3790.000000	98.803240
3789.000000	98.799582
3788.000000	98.797430
3787.000000	98.795910
3786.000000	98.794359
3785.000000	98.793586
3784.000000	98.794571
3783.000000	98.795968
3782.000000	98.794869
3781.000000	98.791028
3780.000000	98.788969
3779.000000	98.791785
3778.000000	98.797436
3777.000000	98.801598
3776.000000	98.802265
3775.000000	98.800932
3774.000000	98.801092
3773.000000	98.804975
3772.000000	98.811897
3771.000000	98.820016
3770.000000	98.827418
3769.000000	98.832147
3768.000000	98.831735
3767.000000	98.825176
3766.000000	98.814856
3765.000000	98.806136
3764.000000	98.802792
3763.000000	98.802508
3762.000000	98.800458
3761.000000	98.796000
3760.000000	98.793661
3759.000000	98.795858
3758.000000	98.802080
3757.000000	98.812726
3756.000000	98.827038
3755.000000	98.841678
3754.000000	98.855992
3753.000000	98.875278
3752.000000	98.903126
3751.000000	98.929070
3750.000000	98.938474
3749.000000	98.937134
3748.000000	98.935134
3747.000000	98.927889
3746.000000	98.905574
3745.000000	98.870874
3744.000000	98.841408
3743.000000	98.834820
3742.000000	98.850477
3741.000000	98.876970
3740.000000	98.902956
3739.000000	98.919626
3738.000000	98.921231
3737.000000	98.913557
3736.000000	98.908525
3735.000000	98.909678
3734.000000	98.912970
3733.000000	98.912453
3732.000000	98.903988
3731.000000	98.889470
3730.000000	98.874638
3729.000000	98.863474
3728.000000	98.856741
3727.000000	98.853801
3726.000000	98.851850
3725.000000	98.847322
3724.000000	98.839860
3723.000000	98.834165
3722.000000	98.837131
3721.000000	98.849199
3720.000000	98.863735
3719.000000	98.872798
3718.000000	98.874408
3717.000000	98.873158
3716.000000	98.873353
3715.000000	98.874214
3714.000000	98.870436
3713.000000	98.857402
3712.000000	98.837489
3711.000000	98.818780
3710.000000	98.809924
3709.000000	98.815509
3708.000000	98.831877
3707.000000	98.851699
3706.000000	98.869437
3705.000000	98.881806
3704.000000	98.888394
3703.000000	98.891571
3702.000000	98.893308
3701.000000	98.892681
3700.000000	98.887743
3699.000000	98.878415
3698.000000	98.867085
3697.000000	98.858068
3696.000000	98.854170
3695.000000	98.852765
3694.000000	98.848500
3693.000000	98.839413
3692.000000	98.831257
3691.000000	98.833890
3690.000000	98.849252
3689.000000	98.862782
3688.000000	98.861638
3687.000000	98.851989
3686.000000	98.843064
3685.000000	98.837315
3684.000000	98.834395
3683.000000	98.832580
3682.000000	98.829777
3681.000000	98.827381
3680.000000	98.829451
3679.000000	98.836294
3678.000000	98.842283
3677.000000	98.841330
3676.000000	98.837116
3675.000000	98.836223
3674.000000	98.844565
3673.000000	98.856875
3672.000000	98.859991
3671.000000	98.844620
3670.000000	98.815604
3669.000000	98.790347
3668.000000	98.784255
3667.000000	98.794790
3666.000000	98.809984
3665.000000	98.820674
3664.000000	98.823762
3663.000000	98.820235
3662.000000	98.813913
3661.000000	98.809292
3660.000000	98.807104
3659.000000	98.804449
3658.000000	98.798986
3657.000000	98.792613
3656.000000	98.788260
3655.000000	98.786061
3654.000000	98.784419
3653.000000	98.781590
3652.000000	98.780750
3651.000000	98.792429
3650.000000	98.818801
3649.000000	98.831286
3648.000000	98.807512
3647.000000	98.768941
3646.000000	98.742187
3645.000000	98.730498
3644.000000	98.726142
3643.000000	98.722752
3642.000000	98.717792
3641.000000	98.710598
3640.000000	98.699712
3639.000000	98.684589
3638.000000	98.667664
3637.000000	98.652011
3636.000000	98.639402
3635.000000	98.632885
3634.000000	98.638802
3633.000000	98.659868
3632.000000	98.687571
3631.000000	98.704999
3630.000000	98.700583
3629.000000	98.676511
3628.000000	98.646280
3627.000000	98.627516
3626.000000	98.622050
3625.000000	98.622329
3624.000000	98.622505
3623.000000	98.620353
3622.000000	98.614965
3621.000000	98.606372
3620.000000	98.594336
3619.000000	98.578017
3618.000000	98.559767
3617.000000	98.546330
3616.000000	98.539667
3615.000000	98.535302
3614.000000	98.529618
3613.000000	98.523927
3612.000000	98.522116
3611.000000	98.522415
3610.000000	98.515202
3609.000000	98.491646
3608.000000	98.454668
3607.000000	98.418545
3606.000000	98.395713
3605.000000	98.386849
3604.000000	98.382981
3603.000000	98.375290
3602.000000	98.360321
3601.000000	98.340097
3600.000000	98.319053
3599.000000	98.299963
3598.000000	98.281050
3597.000000	98.258090
3596.000000	98.228264
3595.000000	98.193446
3594.000000	98.161990
3593.000000	98.142663
3592.000000	98.136761
3591.000000	98.135758
3590.000000	98.128565
3589.000000	98.109520
3588.000000	98.078381
3587.000000	98.036216
3586.000000	97.992576
3585.000000	97.958921
3584.000000	97.936500
3583.000000	97.920718
3582.000000	97.908002
3581.000000	97.896122
3580.000000	97.883202
3579.000000	97.867591
3578.000000	97.849549
3577.000000	97.831356
3576.000000	97.815933
3575.000000	97.804630
3574.000000	97.797590
3573.000000	97.794880
3572.000000	97.795156
3571.000000	97.795199
3570.000000	97.792967
3569.000000	97.792463
3568.000000	97.798435
3567.000000	97.804900
3566.000000	97.803569
3565.000000	97.800303
3564.000000	97.801014
3563.000000	97.802528
3562.000000	97.800820
3561.000000	97.796418
3560.000000	97.791853
3559.000000	97.788101
3558.000000	97.784074
3557.000000	97.779431
3556.000000	97.775632
3555.000000	97.774046
3554.000000	97.773631
3553.000000	97.771555
3552.000000	97.765703
3551.000000	97.756876
3550.000000	97.747516
3549.000000	97.739174
3548.000000	97.732260
3547.000000	97.725718
3546.000000	97.716988
3545.000000	97.705325
3544.000000	97.693868
3543.000000	97.685510
3542.000000	97.680080
3541.000000	97.674940
3540.000000	97.666871
3539.000000	97.654773
3538.000000	97.641098
3537.000000	97.630857
3536.000000	97.627028
3535.000000	97.628350
3534.000000	97.631077
3533.000000	97.631943
3532.000000	97.629881
3531.000000	97.626199
3530.000000	97.624155
3529.000000	97.626673
3528.000000	97.633101
3527.000000	97.639028
3526.000000	97.640130
3525.000000	97.634558
3524.000000	97.622381
3523.000000	97.605533
3522.000000	97.588586
3521.000000	97.576601
3520.000000	97.570901
3519.000000	97.569011
3518.000000	97.568029
3517.000000	97.566941
3516.000000	97.565572
3515.000000	97.562697
3514.000000	97.557120
3513.000000	97.549498
3512.000000	97.542324
3511.000000	97.538260
3510.000000	97.538112
3509.000000	97.539697
3508.000000	97.538946
3507.000000	97.533475
3506.000000	97.525282
3505.000000	97.519826
3504.000000	97.519955
3503.000000	97.521725
3502.000000	97.518945
3501.000000	97.509704
3500.000000	97.495889
3499.000000	97.479585
3498.000000	97.462736
3497.000000	97.447493
3496.000000	97.435415
3495.000000	97.426763
3494.000000	97.421264
3493.000000	97.418298
3492.000000	97.415901
3491.000000	97.411583
3490.000000	97.404868
3489.000000	97.397468
3488.000000	97.390435
3487.000000	97.382970
3486.000000	97.374826
3485.000000	97.367868
3484.000000	97.363531
3483.000000	97.359964
3482.000000	97.353407
3481.000000	97.342352
3480.000000	97.328866
3479.000000	97.315943
3478.000000	97.304724
3477.000000	97.294381
3476.000000	97.283638
3475.000000	97.272602
3474.000000	97.263320
3473.000000	97.257491
3472.000000	97.253364
3471.000000	97.246647
3470.000000	97.235554
3469.000000	97.223084
3468.000000	97.213264
3467.000000	97.206485
3466.000000	97.199769
3465.000000	97.190689
3464.000000	97.179339
3463.000000	97.167375
3462.000000	97.156801
3461.000000	97.148910
3460.000000	97.142799
3459.000000	97.135090
3458.000000	97.122591
3457.000000	97.105903
3456.000000	97.089135
3455.000000	97.076521
3454.000000	97.069696
3453.000000	97.067488
3452.000000	97.066962
3451.000000	97.064305
3450.000000	97.056834
3449.000000	97.044869
3448.000000	97.031340
3447.000000	97.019337
3446.000000	97.010455
3445.000000	97.003911
3444.000000	96.996187
3443.000000	96.982979
3442.000000	96.963290
3441.000000	96.941514
3440.000000	96.923752
3439.000000	96.912617
3438.000000	96.906584
3437.000000	96.903411
3436.000000	96.901527
3435.000000	96.898661
3434.000000	96.891492
3433.000000	96.877802
3432.000000	96.858607
3431.000000	96.837359
3430.000000	96.818134
3429.000000	96.803657
3428.000000	96.793740
3427.000000	96.785605
3426.000000	96.776444
3425.000000	96.765412
3424.000000	96.752453
3423.000000	96.736496
3422.000000	96.716405
3421.000000	96.693066
3420.000000	96.669054
3419.000000	96.646729
3418.000000	96.627850
3417.000000	96.613816
3416.000000	96.604340
3415.000000	96.596253
3414.000000	96.585627
3413.000000	96.571167
3412.000000	96.554039
3411.000000	96.535011
3410.000000	96.513518
3409.000000	96.489176
3408.000000	96.462600
3407.000000	96.434939
3406.000000	96.407567
3405.000000	96.381616
3404.000000	96.356336
3403.000000	96.328975
3402.000000	96.297825
3401.000000	96.264552
3400.000000	96.232394
3399.000000	96.202958
3398.000000	96.176265
3397.000000	96.152567
3396.000000	96.131912
3395.000000	96.112773
3394.000000	96.093751
3393.000000	96.076664
3392.000000	96.065683
3391.000000	96.062515
3390.000000	96.063751
3389.000000	96.064068
3388.000000	96.061164
3387.000000	96.057075
3386.000000	96.054972
3385.000000	96.055027
3384.000000	96.053786
3383.000000	96.048072
3382.000000	96.039054
3381.000000	96.031132
3380.000000	96.026714
3379.000000	96.023311
3378.000000	96.016728
3377.000000	96.005845
3376.000000	95.993242
3375.000000	95.981798
3374.000000	95.971818
3373.000000	95.961327
3372.000000	95.948432
3371.000000	95.933496
3370.000000	95.919260
3369.000000	95.908377
3368.000000	95.900417
3367.000000	95.892080
3366.000000	95.880911
3365.000000	95.868065
3364.000000	95.856636
3363.000000	95.848068
3362.000000	95.840935
3361.000000	95.832465
3360.000000	95.820387
3359.000000	95.804055
3358.000000	95.785102
3357.000000	95.766901
3356.000000	95.752351
3355.000000	95.741628
3354.000000	95.732353
3353.000000	95.721948
3352.000000	95.709850
3351.000000	95.697797
3350.000000	95.687974
3349.000000	95.680496
3348.000000	95.672698
3347.000000	95.661660
3346.000000	95.647202
3345.000000	95.631665
3344.000000	95.616951
3343.000000	95.602893
3342.000000	95.588721
3341.000000	95.574597
3340.000000	95.561277
3339.000000	95.549591
3338.000000	95.540613
3337.000000	95.534868
3336.000000	95.530722
3335.000000	95.524866
3334.000000	95.515229
3333.000000	95.502415
3332.000000	95.487837
3331.000000	95.472047
3330.000000	95.455622
3329.000000	95.439994
3328.000000	95.426114
3327.000000	95.413552
3326.000000	95.401831
3325.000000	95.391298
3324.000000	95.381410
3323.000000	95.369476
3322.000000	95.353132
3321.000000	95.333265
3320.000000	95.313079
3319.000000	95.294951
3318.000000	95.279182
3317.000000	95.264907
3316.000000	95.250823
3315.000000	95.235698
3314.000000	95.219911
3313.000000	95.206263
3312.000000	95.197579
3311.000000	95.193462
3310.000000	95.190462
3309.000000	95.185389
3308.000000	95.177666
3307.000000	95.168455
3306.000000	95.158506
3305.000000	95.147322
3304.000000	95.134028
3303.000000	95.118940
3302.000000	95.104104
3301.000000	95.091652
3300.000000	95.081326
3299.000000	95.070455
3298.000000	95.056891
3297.000000	95.041164
3296.000000	95.025723
3295.000000	95.012945
3294.000000	95.004200
3293.000000	94.999596
3292.000000	94.997482
3291.000000	94.995233
3290.000000	94.991515
3289.000000	94.987116
3288.000000	94.982908
3287.000000	94.977984
3286.000000	94.970877
3285.000000	94.961987
3284.000000	94.954000
3283.000000	94.950104
3282.000000	94.951766
3281.000000	94.957473
3280.000000	94.963470
3279.000000	94.966795
3278.000000	94.967793
3277.000000	94.968845
3276.000000	94.970973
3275.000000	94.973474
3274.000000	94.976666
3273.000000	94.982183
3272.000000	94.989711
3271.000000	94.996008
3270.000000	94.998901
3269.000000	95.000177
3268.000000	95.002907
3267.000000	95.007798
3266.000000	95.013995
3265.000000	95.021762
3264.000000	95.032032
3263.000000	95.044353
3262.000000	95.057549
3261.000000	95.071724
3260.000000	95.087475
3259.000000	95.103417
3258.000000	95.116367
3257.000000	95.124477
3256.000000	95.129108
3255.000000	95.133607
3254.000000	95.140717
3253.000000	95.150953
3252.000000	95.162827
3251.000000	95.174686
3250.000000	95.186609
3249.000000	95.199746
3248.000000	95.213819
3247.000000	95.226637
3246.000000	95.236445
3245.000000	95.243326
3244.000000	95.247631
3243.000000	95.248732
3242.000000	95.246897
3241.000000	95.245078
3240.000000	95.246986
3239.000000	95.253580
3238.000000	95.262234
3237.000000	95.268825
3236.000000	95.270298
3235.000000	95.266790
3234.000000	95.262357
3233.000000	95.262286
3232.000000	95.267984
3231.000000	95.275121
3230.000000	95.278443
3229.000000	95.277567
3228.000000	95.276528
3227.000000	95.278301
3226.000000	95.281622
3225.000000	95.283308
3224.000000	95.282228
3223.000000	95.280523
3222.000000	95.281476
3221.000000	95.286187
3220.000000	95.291881
3219.000000	95.293819
3218.000000	95.289470
3217.000000	95.280591
3216.000000	95.271518
3215.000000	95.266273
3214.000000	95.267086
3213.000000	95.273808
3212.000000	95.283349
3211.000000	95.290631
3210.000000	95.291903
3209.000000	95.287363
3208.000000	95.280070
3207.000000	95.272819
3206.000000	95.266834
3205.000000	95.262762
3204.000000	95.261456
3203.000000	95.263528
3202.000000	95.268637
3201.000000	95.275027
3200.000000	95.279546
3199.000000	95.279260
3198.000000	95.274155
3197.000000	95.267995
3196.000000	95.265533
3195.000000	95.268647
3194.000000	95.275458
3193.000000	95.282475
3192.000000	95.287176
3191.000000	95.289349
3190.000000	95.290841
3189.000000	95.293845
3188.000000	95.299120
3187.000000	95.306154
3186.000000	95.314809
3185.000000	95.325587
3184.000000	95.337919
3183.000000	95.349716
3182.000000	95.359636
3181.000000	95.368796
3180.000000	95.378983
3179.000000	95.389746
3178.000000	95.398556
3177.000000	95.403817
3176.000000	95.406740
3175.000000	95.410482
3174.000000	95.417873
3173.000000	95.429558
3172.000000	95.443423
3171.000000	95.456194
3170.000000	95.466179
3169.000000	95.474082
3168.000000	95.481251
3167.000000	95.488248
3166.000000	95.495779
3165.000000	95.505428
3164.000000	95.517844
3163.000000	95.530964
3162.000000	95.541562
3161.000000	95.548516
3160.000000	95.553440
3159.000000	95.558480
3158.000000	95.564611
3157.000000	95.571800
3156.000000	95.579481
3155.000000	95.586847
3154.000000	95.593740
3153.000000	95.601159
3152.000000	95.609997
3151.000000	95.619587
3150.000000	95.628522
3149.000000	95.636708
3148.000000	95.645471
3147.000000	95.655697
3146.000000	95.666929
