PE IR       SUBTECH     SPECTRUM    ASCII       PEDS        4.00        
   -1
11775-Hull23-C002_1.ASC
23/09/13
12:00:34.00
23/09/13
12:05:54.00
uco
Sample 002 By uco Date Wednesday, September 13 2023
450.000000
#HDR
-1
-1
#GR
cm-1
%T
1.0
0.0
4000.000000
-1.000000
3551
8
98.778289
84.390447
#DATA
4000.000000	98.661001
3999.000000	98.663482
3998.000000	98.671257
3997.000000	98.681674
3996.000000	98.690974
3995.000000	98.653313
3994.000000	98.656510
3993.000000	98.661004
3992.000000	98.666677
3991.000000	98.672750
3990.000000	98.677966
3989.000000	98.680235
3988.000000	98.677681
3987.000000	98.670113
3986.000000	98.659683
3985.000000	98.649556
3984.000000	98.641710
3983.000000	98.636068
3982.000000	98.631456
3981.000000	98.627361
3980.000000	98.624874
3979.000000	98.625820
3978.000000	98.630563
3977.000000	98.636796
3976.000000	98.640851
3975.000000	98.640615
3974.000000	98.637312
3973.000000	98.634247
3972.000000	98.633892
3971.000000	98.635931
3970.000000	98.638141
3969.000000	98.638282
3968.000000	98.635191
3967.000000	98.629493
3966.000000	98.623419
3965.000000	98.619897
3964.000000	98.620760
3963.000000	98.625342
3962.000000	98.631008
3961.000000	98.635275
3960.000000	98.637644
3959.000000	98.638391
3958.000000	98.637045
3957.000000	98.632663
3956.000000	98.624875
3955.000000	98.614822
3954.000000	98.604754
3953.000000	98.597777
3952.000000	98.597483
3951.000000	98.606338
3950.000000	98.623433
3949.000000	98.642430
3948.000000	98.654520
3947.000000	98.655086
3946.000000	98.645840
3945.000000	98.632487
3944.000000	98.621113
3943.000000	98.614489
3942.000000	98.611481
3941.000000	98.609150
3940.000000	98.605626
3939.000000	98.601174
3938.000000	98.598221
3937.000000	98.599779
3936.000000	98.606264
3935.000000	98.615327
3934.000000	98.624049
3933.000000	98.630251
3932.000000	98.632714
3931.000000	98.630760
3930.000000	98.624812
3929.000000	98.615458
3928.000000	98.603345
3927.000000	98.592076
3926.000000	98.587365
3925.000000	98.592242
3924.000000	98.603425
3923.000000	98.614734
3922.000000	98.622558
3921.000000	98.627370
3920.000000	98.631623
3919.000000	98.636779
3918.000000	98.640990
3917.000000	98.640820
3916.000000	98.635133
3915.000000	98.625470
3914.000000	98.614328
3913.000000	98.603870
3912.000000	98.596251
3911.000000	98.591423
3910.000000	98.587304
3909.000000	98.581913
3908.000000	98.575642
3907.000000	98.573614
3906.000000	98.583519
3905.000000	98.609455
3904.000000	98.643858
3903.000000	98.669136
3902.000000	98.673234
3901.000000	98.659050
3900.000000	98.638434
3899.000000	98.623180
3898.000000	98.616767
3897.000000	98.614370
3896.000000	98.610828
3895.000000	98.604955
3894.000000	98.600738
3893.000000	98.603344
3892.000000	98.612564
3891.000000	98.620929
3890.000000	98.623685
3889.000000	98.621752
3888.000000	98.617367
3887.000000	98.613599
3886.000000	98.612254
3885.000000	98.611552
3884.000000	98.608894
3883.000000	98.603134
3882.000000	98.595363
3881.000000	98.588042
3880.000000	98.581309
3879.000000	98.574613
3878.000000	98.567963
3877.000000	98.560751
3876.000000	98.554360
3875.000000	98.554325
3874.000000	98.565370
3873.000000	98.584378
3872.000000	98.602211
3871.000000	98.610323
3870.000000	98.605625
3869.000000	98.594025
3868.000000	98.585548
3867.000000	98.582798
3866.000000	98.582311
3865.000000	98.583726
3864.000000	98.589112
3863.000000	98.598092
3862.000000	98.607731
3861.000000	98.613112
3860.000000	98.609189
3859.000000	98.595363
3858.000000	98.575443
3857.000000	98.556410
3856.000000	98.546147
3855.000000	98.549419
3854.000000	98.568882
3853.000000	98.584935
3852.000000	98.583955
3851.000000	98.580717
3850.000000	98.583038
3849.000000	98.584654
3848.000000	98.581572
3847.000000	98.573488
3846.000000	98.563783
3845.000000	98.557228
3844.000000	98.556505
3843.000000	98.560857
3842.000000	98.568161
3841.000000	98.574886
3840.000000	98.578357
3839.000000	98.576582
3838.000000	98.567682
3837.000000	98.555670
3836.000000	98.547948
3835.000000	98.547615
3834.000000	98.552384
3833.000000	98.557825
3832.000000	98.559753
3831.000000	98.557214
3830.000000	98.552043
3829.000000	98.547733
3828.000000	98.547142
3827.000000	98.550802
3826.000000	98.557808
3825.000000	98.565675
3824.000000	98.571165
3823.000000	98.570849
3822.000000	98.567371
3821.000000	98.565602
3820.000000	98.563790
3819.000000	98.560688
3818.000000	98.557013
3817.000000	98.554596
3816.000000	98.553162
3815.000000	98.552357
3814.000000	98.554081
3813.000000	98.558498
3812.000000	98.564495
3811.000000	98.570937
3810.000000	98.577297
3809.000000	98.582739
3808.000000	98.585959
3807.000000	98.585248
3806.000000	98.581216
3805.000000	98.575553
3804.000000	98.568827
3803.000000	98.560004
3802.000000	98.551022
3801.000000	98.544949
3800.000000	98.547667
3799.000000	98.559021
3798.000000	98.571626
3797.000000	98.578761
3796.000000	98.578923
3795.000000	98.575376
3794.000000	98.571610
3793.000000	98.568885
3792.000000	98.566532
3791.000000	98.563377
3790.000000	98.559025
3789.000000	98.554025
3788.000000	98.548888
3787.000000	98.544518
3786.000000	98.542163
3785.000000	98.542135
3784.000000	98.543269
3783.000000	98.543923
3782.000000	98.543583
3781.000000	98.544298
3780.000000	98.549513
3779.000000	98.557563
3778.000000	98.562524
3777.000000	98.561094
3776.000000	98.555140
3775.000000	98.548801
3774.000000	98.546332
3773.000000	98.550390
3772.000000	98.560376
3771.000000	98.572366
3770.000000	98.580685
3769.000000	98.582121
3768.000000	98.578165
3767.000000	98.572511
3766.000000	98.566937
3765.000000	98.561869
3764.000000	98.558773
3763.000000	98.559102
3762.000000	98.562528
3761.000000	98.567776
3760.000000	98.573618
3759.000000	98.575678
3758.000000	98.571398
3757.000000	98.565588
3756.000000	98.564702
3755.000000	98.570643
3754.000000	98.583658
3753.000000	98.606671
3752.000000	98.640769
3751.000000	98.673331
3750.000000	98.685684
3749.000000	98.680006
3748.000000	98.669189
3747.000000	98.657423
3746.000000	98.641690
3745.000000	98.619455
3744.000000	98.595531
3743.000000	98.586789
3742.000000	98.600057
3741.000000	98.624538
3740.000000	98.646275
3739.000000	98.656659
3738.000000	98.651897
3737.000000	98.638631
3736.000000	98.631066
3735.000000	98.639143
3734.000000	98.661369
3733.000000	98.684482
3732.000000	98.694649
3731.000000	98.690111
3730.000000	98.678640
3729.000000	98.666665
3728.000000	98.655596
3727.000000	98.645444
3726.000000	98.636840
3725.000000	98.631216
3724.000000	98.629288
3723.000000	98.630881
3722.000000	98.635478
3721.000000	98.639900
3720.000000	98.640984
3719.000000	98.636975
3718.000000	98.628376
3717.000000	98.618296
3716.000000	98.610403
3715.000000	98.606276
3714.000000	98.603339
3713.000000	98.597045
3712.000000	98.587531
3711.000000	98.580159
3710.000000	98.580848
3709.000000	98.590756
3708.000000	98.604324
3707.000000	98.615585
3706.000000	98.621950
3705.000000	98.622619
3704.000000	98.619082
3703.000000	98.616135
3702.000000	98.617868
3701.000000	98.622327
3700.000000	98.623683
3699.000000	98.618681
3698.000000	98.608210
3697.000000	98.595989
3696.000000	98.585317
3695.000000	98.574839
3694.000000	98.559984
3693.000000	98.539812
3692.000000	98.524340
3691.000000	98.530185
3690.000000	98.560782
3689.000000	98.591638
3688.000000	98.598921
3687.000000	98.589712
3686.000000	98.579867
3685.000000	98.574639
3684.000000	98.573250
3683.000000	98.573367
3682.000000	98.571779
3681.000000	98.566397
3680.000000	98.557547
3679.000000	98.547786
3678.000000	98.540239
3677.000000	98.535773
3676.000000	98.533991
3675.000000	98.530079
3674.000000	98.527088
3673.000000	98.527809
3672.000000	98.528081
3671.000000	98.521852
3670.000000	98.508170
3669.000000	98.494257
3668.000000	98.491926
3667.000000	98.502050
3666.000000	98.515242
3665.000000	98.521487
3664.000000	98.516520
3663.000000	98.502615
3662.000000	98.486990
3661.000000	98.477317
3660.000000	98.476335
3659.000000	98.481932
3658.000000	98.489578
3657.000000	98.494298
3656.000000	98.491467
3655.000000	98.480495
3654.000000	98.464582
3653.000000	98.445846
3652.000000	98.429841
3651.000000	98.431361
3650.000000	98.458272
3649.000000	98.481390
3648.000000	98.469525
3647.000000	98.437721
3646.000000	98.412638
3645.000000	98.399652
3644.000000	98.392530
3643.000000	98.385258
3642.000000	98.375292
3641.000000	98.362709
3640.000000	98.347649
3639.000000	98.330800
3638.000000	98.314762
3637.000000	98.302551
3636.000000	98.295257
3635.000000	98.292493
3634.000000	98.295067
3633.000000	98.304179
3632.000000	98.317958
3631.000000	98.329910
3630.000000	98.332598
3629.000000	98.320040
3628.000000	98.294914
3627.000000	98.274973
3626.000000	98.266929
3625.000000	98.264279
3624.000000	98.260728
3623.000000	98.255092
3622.000000	98.247641
3621.000000	98.237079
3620.000000	98.220227
3619.000000	98.194973
3618.000000	98.165072
3617.000000	98.139948
3616.000000	98.124516
3615.000000	98.115950
3614.000000	98.108331
3613.000000	98.097946
3612.000000	98.087217
3611.000000	98.079414
3610.000000	98.070924
3609.000000	98.054042
3608.000000	98.028391
3607.000000	98.004084
3606.000000	97.990396
3605.000000	97.985802
3604.000000	97.980736
3603.000000	97.967755
3602.000000	97.945409
3601.000000	97.917379
3600.000000	97.890678
3599.000000	97.871440
3598.000000	97.859088
3597.000000	97.847104
3596.000000	97.828797
3595.000000	97.802544
3594.000000	97.773614
3593.000000	97.748970
3592.000000	97.732069
3591.000000	97.720653
3590.000000	97.709871
3589.000000	97.695890
3588.000000	97.675484
3587.000000	97.645333
3586.000000	97.612281
3585.000000	97.586197
3584.000000	97.566972
3583.000000	97.549553
3582.000000	97.531218
3581.000000	97.511473
3580.000000	97.490061
3579.000000	97.466238
3578.000000	97.440493
3577.000000	97.415656
3576.000000	97.396258
3575.000000	97.384946
3574.000000	97.380753
3573.000000	97.380406
3572.000000	97.380238
3571.000000	97.377677
3570.000000	97.372412
3569.000000	97.367971
3568.000000	97.366187
3567.000000	97.359404
3566.000000	97.342136
3565.000000	97.325601
3564.000000	97.319175
3563.000000	97.318758
3562.000000	97.315141
3561.000000	97.303169
3560.000000	97.284678
3559.000000	97.265952
3558.000000	97.251406
3557.000000	97.241212
3556.000000	97.233815
3555.000000	97.228173
3554.000000	97.222670
3553.000000	97.214550
3552.000000	97.202323
3551.000000	97.188660
3550.000000	97.177938
3549.000000	97.171858
3548.000000	97.169022
3547.000000	97.165516
3546.000000	97.155608
3545.000000	97.136531
3544.000000	97.112596
3543.000000	97.090632
3542.000000	97.074120
3541.000000	97.061815
3540.000000	97.050386
3539.000000	97.037665
3538.000000	97.023166
3537.000000	97.007425
3536.000000	96.990877
3535.000000	96.974624
3534.000000	96.960233
3533.000000	96.948475
3532.000000	96.939116
3531.000000	96.931672
3530.000000	96.926084
3529.000000	96.922552
3528.000000	96.920774
3527.000000	96.919397
3526.000000	96.915775
3525.000000	96.906111
3524.000000	96.887853
3523.000000	96.863229
3522.000000	96.839109
3521.000000	96.821537
3520.000000	96.810751
3519.000000	96.802739
3518.000000	96.793420
3517.000000	96.780966
3516.000000	96.765604
3515.000000	96.748785
3514.000000	96.733544
3513.000000	96.723866
3512.000000	96.722096
3511.000000	96.726217
3510.000000	96.729747
3509.000000	96.725887
3508.000000	96.712748
3507.000000	96.694454
3506.000000	96.677008
3505.000000	96.664564
3504.000000	96.656808
3503.000000	96.649337
3502.000000	96.638343
3501.000000	96.624092
3500.000000	96.608826
3499.000000	96.593389
3498.000000	96.577363
3497.000000	96.560865
3496.000000	96.546107
3495.000000	96.536406
3494.000000	96.533189
3493.000000	96.533827
3492.000000	96.532926
3491.000000	96.526203
3490.000000	96.512971
3489.000000	96.495061
3488.000000	96.474671
3487.000000	96.454080
3486.000000	96.436194
3485.000000	96.423563
3484.000000	96.416270
3483.000000	96.411247
3482.000000	96.404337
3481.000000	96.393651
3480.000000	96.380605
3479.000000	96.367652
3478.000000	96.355535
3477.000000	96.343298
3476.000000	96.330237
3475.000000	96.317142
3474.000000	96.305485
3473.000000	96.295773
3472.000000	96.286916
3471.000000	96.277113
3470.000000	96.265266
3469.000000	96.251382
3468.000000	96.236278
3467.000000	96.221302
3466.000000	96.207582
3465.000000	96.194915
3464.000000	96.181267
3463.000000	96.164175
3462.000000	96.143327
3461.000000	96.121462
3460.000000	96.102379
3459.000000	96.087963
3458.000000	96.077395
3457.000000	96.069214
3456.000000	96.062439
3455.000000	96.056088
3454.000000	96.048577
3453.000000	96.038729
3452.000000	96.027186
3451.000000	96.015664
3450.000000	96.005410
3449.000000	95.996786
3448.000000	95.989682
3447.000000	95.983455
3446.000000	95.977105
3445.000000	95.969366
3444.000000	95.958513
3443.000000	95.942824
3442.000000	95.922209
3441.000000	95.899649
3440.000000	95.879621
3439.000000	95.864568
3438.000000	95.853223
3437.000000	95.842768
3436.000000	95.831477
3435.000000	95.819179
3434.000000	95.805954
3433.000000	95.791373
3432.000000	95.775194
3431.000000	95.757701
3430.000000	95.739989
3429.000000	95.723718
3428.000000	95.710066
3427.000000	95.698551
3426.000000	95.687226
3425.000000	95.674316
3424.000000	95.659217
3423.000000	95.642205
3422.000000	95.623945
3421.000000	95.605244
3420.000000	95.586215
3419.000000	95.565693
3418.000000	95.542759
3417.000000	95.519074
3416.000000	95.498610
3415.000000	95.484098
3414.000000	95.474218
3413.000000	95.464776
3412.000000	95.452022
3411.000000	95.434651
3410.000000	95.413821
3409.000000	95.392023
3408.000000	95.371336
3407.000000	95.352025
3406.000000	95.332771
3405.000000	95.312368
3404.000000	95.290536
3403.000000	95.267383
3402.000000	95.243118
3401.000000	95.218617
3400.000000	95.195458
3399.000000	95.174578
3398.000000	95.155505
3397.000000	95.137361
3396.000000	95.120044
3395.000000	95.103768
3394.000000	95.088114
3393.000000	95.072583
3392.000000	95.057924
3391.000000	95.045783
3390.000000	95.036476
3389.000000	95.028103
3388.000000	95.018492
3387.000000	95.007614
3386.000000	94.997363
3385.000000	94.989003
3384.000000	94.981406
3383.000000	94.972292
3382.000000	94.960964
3381.000000	94.949206
3380.000000	94.939221
3379.000000	94.930463
3378.000000	94.919229
3377.000000	94.902108
3376.000000	94.880158
3375.000000	94.858819
3374.000000	94.842762
3373.000000	94.831127
3372.000000	94.818752
3371.000000	94.801922
3370.000000	94.781633
3369.000000	94.760930
3368.000000	94.740476
3367.000000	94.718342
3366.000000	94.693804
3365.000000	94.669570
3364.000000	94.649374
3363.000000	94.634179
3362.000000	94.621244
3361.000000	94.606283
3360.000000	94.586106
3359.000000	94.560248
3358.000000	94.531543
3357.000000	94.505020
3356.000000	94.484602
3355.000000	94.469775
3354.000000	94.456013
3353.000000	94.439079
3352.000000	94.418450
3351.000000	94.396166
3350.000000	94.373398
3349.000000	94.349617
3348.000000	94.324799
3347.000000	94.301085
3346.000000	94.281083
3345.000000	94.264945
3344.000000	94.249760
3343.000000	94.231763
3342.000000	94.209182
3341.000000	94.183263
3340.000000	94.157147
3339.000000	94.133609
3338.000000	94.113239
3337.000000	94.094365
3336.000000	94.074714
3335.000000	94.053172
3334.000000	94.030015
3333.000000	94.005850
3332.000000	93.981096
3331.000000	93.956542
3330.000000	93.933713
3329.000000	93.914128
3328.000000	93.898151
3327.000000	93.884783
3326.000000	93.872201
3325.000000	93.858252
3324.000000	93.840935
3323.000000	93.819278
3322.000000	93.794173
3321.000000	93.767879
3320.000000	93.742565
3319.000000	93.719600
3318.000000	93.699849
3317.000000	93.683463
3316.000000	93.668898
3315.000000	93.653191
3314.000000	93.634801
3313.000000	93.616175
3312.000000	93.602007
3311.000000	93.594260
3310.000000	93.589544
3309.000000	93.582076
3308.000000	93.569095
3307.000000	93.552658
3306.000000	93.536350
3305.000000	93.521416
3304.000000	93.506444
3303.000000	93.489979
3302.000000	93.472387
3301.000000	93.455109
3300.000000	93.438785
3299.000000	93.422901
3298.000000	93.407129
3297.000000	93.392296
3296.000000	93.379967
3295.000000	93.371067
3294.000000	93.364808
3293.000000	93.358880
3292.000000	93.350948
3291.000000	93.340499
3290.000000	93.329234
3289.000000	93.319291
3288.000000	93.311488
3287.000000	93.305783
3286.000000	93.302877
3285.000000	93.303956
3284.000000	93.308674
3283.000000	93.314457
3282.000000	93.318498
3281.000000	93.320008
3280.000000	93.320244
3279.000000	93.321301
3278.000000	93.325254
3277.000000	93.333405
3276.000000	93.345468
3275.000000	93.359738
3274.000000	93.374330
3273.000000	93.387688
3272.000000	93.397937
3271.000000	93.403350
3270.000000	93.404532
3269.000000	93.405095
3268.000000	93.408905
3267.000000	93.417068
3266.000000	93.428322
3265.000000	93.441425
3264.000000	93.455850
3263.000000	93.470665
3262.000000	93.484604
3261.000000	93.497596
3260.000000	93.511048
3259.000000	93.526155
3258.000000	93.542555
3257.000000	93.559095
3256.000000	93.575195
3255.000000	93.591061
3254.000000	93.606766
3253.000000	93.621798
3252.000000	93.635926
3251.000000	93.650491
3250.000000	93.668326
3249.000000	93.691068
3248.000000	93.716189
3247.000000	93.737817
3246.000000	93.751642
3245.000000	93.758875
3244.000000	93.764512
3243.000000	93.771919
3242.000000	93.780367
3241.000000	93.787546
3240.000000	93.793145
3239.000000	93.799378
3238.000000	93.808637
3237.000000	93.821286
3236.000000	93.835406
3235.000000	93.848663
3234.000000	93.860332
3233.000000	93.871321
3232.000000	93.882134
3231.000000	93.891263
3230.000000	93.896560
3229.000000	93.897902
3228.000000	93.897716
3227.000000	93.898904
3226.000000	93.902836
3225.000000	93.909304
3224.000000	93.917450
3223.000000	93.926188
3222.000000	93.934458
3221.000000	93.941704
3220.000000	93.948091
3219.000000	93.953956
3218.000000	93.959025
3217.000000	93.962475
3216.000000	93.963879
3215.000000	93.964195
3214.000000	93.965812
3213.000000	93.971146
3212.000000	93.980684
3211.000000	93.992314
3210.000000	94.003038
3209.000000	94.011423
3208.000000	94.017981
3207.000000	94.023409
3206.000000	94.027407
3205.000000	94.029881
3204.000000	94.032739
3203.000000	94.039364
3202.000000	94.051759
3201.000000	94.068319
3200.000000	94.084586
3199.000000	94.096588
3198.000000	94.103592
3197.000000	94.107843
3196.000000	94.112024
3195.000000	94.117375
3194.000000	94.124063
3193.000000	94.132130
3192.000000	94.141297
3191.000000	94.150668
3190.000000	94.159869
3189.000000	94.170148
3188.000000	94.183225
3187.000000	94.198904
3186.000000	94.214988
3185.000000	94.229922
3184.000000	94.244550
3183.000000	94.260701
3182.000000	94.278862
3181.000000	94.297845
3180.000000	94.316014
3179.000000	94.332009
3178.000000	94.345203
3177.000000	94.356555
3176.000000	94.368588
3175.000000	94.383421
3174.000000	94.400587
3173.000000	94.417464
3172.000000	94.431807
3171.000000	94.443648
3170.000000	94.454950
3169.000000	94.467966
3168.000000	94.483773
3167.000000	94.501523
3166.000000	94.519003
3165.000000	94.534507
3164.000000	94.548370
3163.000000	94.562374
3162.000000	94.577719
3161.000000	94.594255
3160.000000	94.611635
3159.000000	94.630174
3158.000000	94.649974
3157.000000	94.669845
3156.000000	94.687992
3155.000000	94.703794
3154.000000	94.718227
3153.000000	94.732362
3152.000000	94.746042
3151.000000	94.758649
3150.000000	94.770827
3149.000000	94.784483
3148.000000	94.800646
3147.000000	94.817888
3146.000000	94.833431
