PE IR       SUBTECH     SPECTRUM    ASCII       PEDS        4.00        
   -1
msmeh_8_side1_002_1.ASC
23/09/08
14:27:50.00
23/09/08
14:52:56.00
uco
Sample 002 By uco Date Friday, September 08 2023
450.000000
#HDR
-1
-1
#GR
cm-1
%T
1.0
0.0
4000.000000
-1.000000
3551
8
98.784446
83.155706
#DATA
4000.000000	98.699578
3999.000000	98.697523
3998.000000	98.696882
3997.000000	98.698034
3996.000000	98.700224
3995.000000	98.701485
3994.000000	98.699665
3993.000000	98.694160
3992.000000	98.686455
3991.000000	98.678914
3990.000000	98.673381
3989.000000	98.670778
3988.000000	98.671133
3987.000000	98.673150
3986.000000	98.673960
3985.000000	98.670623
3984.000000	98.662635
3983.000000	98.652937
3982.000000	98.645793
3981.000000	98.643507
3980.000000	98.645556
3979.000000	98.650360
3978.000000	98.656937
3977.000000	98.664658
3976.000000	98.672396
3975.000000	98.678838
3974.000000	98.683561
3973.000000	98.686920
3972.000000	98.688740
3971.000000	98.687730
3970.000000	98.682766
3969.000000	98.674667
3968.000000	98.666092
3967.000000	98.659741
3966.000000	98.656615
3965.000000	98.655951
3964.000000	98.656390
3963.000000	98.656993
3962.000000	98.657467
3961.000000	98.657773
3960.000000	98.657897
3959.000000	98.657703
3958.000000	98.656867
3957.000000	98.655266
3956.000000	98.653272
3955.000000	98.651658
3954.000000	98.650832
3953.000000	98.650220
3952.000000	98.648875
3951.000000	98.646682
3950.000000	98.645111
3949.000000	98.646238
3948.000000	98.650758
3947.000000	98.657211
3946.000000	98.662902
3945.000000	98.665528
3944.000000	98.664343
3943.000000	98.660601
3942.000000	98.657183
3941.000000	98.656371
3940.000000	98.658144
3939.000000	98.660838
3938.000000	98.662668
3937.000000	98.662981
3936.000000	98.662210
3935.000000	98.661131
3934.000000	98.660162
3933.000000	98.658979
3932.000000	98.657091
3931.000000	98.654370
3930.000000	98.651535
3929.000000	98.649582
3928.000000	98.648481
3927.000000	98.647387
3926.000000	98.645428
3925.000000	98.642557
3924.000000	98.639651
3923.000000	98.637957
3922.000000	98.638681
3921.000000	98.642682
3920.000000	98.649286
3919.000000	98.655745
3918.000000	98.658652
3917.000000	98.656939
3916.000000	98.652859
3915.000000	98.649106
3914.000000	98.646307
3913.000000	98.643461
3912.000000	98.640011
3911.000000	98.636671
3910.000000	98.634696
3909.000000	98.634870
3908.000000	98.637165
3907.000000	98.641944
3906.000000	98.650541
3905.000000	98.663940
3904.000000	98.679563
3903.000000	98.690214
3902.000000	98.689429
3901.000000	98.678195
3900.000000	98.663822
3899.000000	98.653423
3898.000000	98.648380
3897.000000	98.645477
3896.000000	98.642452
3895.000000	98.639751
3894.000000	98.638478
3893.000000	98.639001
3892.000000	98.641233
3891.000000	98.645339
3890.000000	98.650764
3889.000000	98.656095
3888.000000	98.660554
3887.000000	98.663714
3886.000000	98.664524
3885.000000	98.662595
3884.000000	98.658329
3883.000000	98.652615
3882.000000	98.646920
3881.000000	98.643074
3880.000000	98.641994
3879.000000	98.641617
3878.000000	98.638229
3877.000000	98.631377
3876.000000	98.624338
3875.000000	98.621594
3874.000000	98.625751
3873.000000	98.634179
3872.000000	98.640177
3871.000000	98.638919
3870.000000	98.632721
3869.000000	98.629011
3868.000000	98.631108
3867.000000	98.636594
3866.000000	98.642258
3865.000000	98.645691
3864.000000	98.645721
3863.000000	98.643492
3862.000000	98.641283
3861.000000	98.640172
3860.000000	98.638894
3859.000000	98.636260
3858.000000	98.632216
3857.000000	98.627971
3856.000000	98.624360
3855.000000	98.620373
3854.000000	98.616768
3853.000000	98.617697
3852.000000	98.622128
3851.000000	98.625003
3850.000000	98.626101
3849.000000	98.627432
3848.000000	98.629769
3847.000000	98.631959
3846.000000	98.632149
3845.000000	98.629037
3844.000000	98.622828
3843.000000	98.615443
3842.000000	98.609314
3841.000000	98.605667
3840.000000	98.604956
3839.000000	98.608284
3838.000000	98.616443
3837.000000	98.628746
3836.000000	98.642879
3835.000000	98.655698
3834.000000	98.664121
3833.000000	98.665555
3832.000000	98.658790
3831.000000	98.645479
3830.000000	98.628818
3829.000000	98.612188
3828.000000	98.599167
3827.000000	98.593875
3826.000000	98.598667
3825.000000	98.610976
3824.000000	98.624439
3823.000000	98.632239
3822.000000	98.631021
3821.000000	98.625005
3820.000000	98.621429
3819.000000	98.621143
3818.000000	98.621126
3817.000000	98.620351
3816.000000	98.618310
3815.000000	98.614822
3814.000000	98.609775
3813.000000	98.604186
3812.000000	98.601221
3811.000000	98.603328
3810.000000	98.610128
3809.000000	98.618869
3808.000000	98.626852
3807.000000	98.633312
3806.000000	98.638934
3805.000000	98.643150
3804.000000	98.645005
3803.000000	98.644110
3802.000000	98.640623
3801.000000	98.636215
3800.000000	98.632563
3799.000000	98.627481
3798.000000	98.619458
3797.000000	98.610166
3796.000000	98.602686
3795.000000	98.598188
3794.000000	98.595192
3793.000000	98.592458
3792.000000	98.590634
3791.000000	98.590742
3790.000000	98.592796
3789.000000	98.595810
3788.000000	98.598259
3787.000000	98.599041
3786.000000	98.598139
3785.000000	98.596513
3784.000000	98.595244
3783.000000	98.594774
3782.000000	98.595073
3781.000000	98.596884
3780.000000	98.601665
3779.000000	98.609629
3778.000000	98.618185
3777.000000	98.623537
3776.000000	98.624033
3775.000000	98.620940
3774.000000	98.616968
3773.000000	98.614664
3772.000000	98.615827
3771.000000	98.621110
3770.000000	98.629166
3769.000000	98.636885
3768.000000	98.640996
3767.000000	98.640409
3766.000000	98.635951
3765.000000	98.629166
3764.000000	98.621900
3763.000000	98.616070
3762.000000	98.612871
3761.000000	98.611898
3760.000000	98.610906
3759.000000	98.607765
3758.000000	98.602784
3757.000000	98.597912
3756.000000	98.594526
3755.000000	98.594154
3754.000000	98.601380
3753.000000	98.623548
3752.000000	98.663138
3751.000000	98.707347
3750.000000	98.734598
3749.000000	98.737723
3748.000000	98.726083
3747.000000	98.710083
3746.000000	98.694337
3745.000000	98.680250
3744.000000	98.670651
3743.000000	98.665273
3742.000000	98.660724
3741.000000	98.657793
3740.000000	98.658348
3739.000000	98.661280
3738.000000	98.662077
3737.000000	98.656573
3736.000000	98.645423
3735.000000	98.635345
3734.000000	98.633255
3733.000000	98.638005
3732.000000	98.643163
3731.000000	98.644835
3730.000000	98.644126
3729.000000	98.644278
3728.000000	98.645975
3727.000000	98.645423
3726.000000	98.637862
3725.000000	98.623938
3724.000000	98.610780
3723.000000	98.605570
3722.000000	98.609766
3721.000000	98.618634
3720.000000	98.626267
3719.000000	98.630188
3718.000000	98.631439
3717.000000	98.632241
3716.000000	98.633927
3715.000000	98.636380
3714.000000	98.638807
3713.000000	98.639987
3712.000000	98.638890
3711.000000	98.636419
3710.000000	98.634620
3709.000000	98.634107
3708.000000	98.632934
3707.000000	98.629812
3706.000000	98.625891
3705.000000	98.622864
3704.000000	98.621194
3703.000000	98.619969
3702.000000	98.618423
3701.000000	98.617440
3700.000000	98.617820
3699.000000	98.618354
3698.000000	98.617130
3697.000000	98.613343
3696.000000	98.608265
3695.000000	98.604065
3694.000000	98.602306
3693.000000	98.603280
3692.000000	98.606710
3691.000000	98.612023
3690.000000	98.617124
3689.000000	98.618802
3688.000000	98.615990
3687.000000	98.610459
3686.000000	98.604039
3685.000000	98.598810
3684.000000	98.596712
3683.000000	98.597611
3682.000000	98.598119
3681.000000	98.594346
3680.000000	98.585802
3679.000000	98.575588
3678.000000	98.567313
3677.000000	98.562134
3676.000000	98.559761
3675.000000	98.560587
3674.000000	98.562934
3673.000000	98.562197
3672.000000	98.559266
3671.000000	98.557308
3670.000000	98.555171
3669.000000	98.549380
3668.000000	98.538299
3667.000000	98.523544
3666.000000	98.509909
3665.000000	98.501556
3664.000000	98.499399
3663.000000	98.500615
3662.000000	98.500463
3661.000000	98.495833
3660.000000	98.487651
3659.000000	98.480093
3658.000000	98.476904
3657.000000	98.478092
3656.000000	98.480134
3655.000000	98.479094
3654.000000	98.474129
3653.000000	98.467160
3652.000000	98.460831
3651.000000	98.457298
3650.000000	98.455781
3649.000000	98.449769
3648.000000	98.435439
3647.000000	98.419178
3646.000000	98.406500
3645.000000	98.395993
3644.000000	98.384278
3643.000000	98.370213
3642.000000	98.355279
3641.000000	98.342181
3640.000000	98.332182
3639.000000	98.324467
3638.000000	98.317927
3637.000000	98.312069
3636.000000	98.306867
3635.000000	98.302737
3634.000000	98.300921
3633.000000	98.302671
3632.000000	98.307691
3631.000000	98.312460
3630.000000	98.310523
3629.000000	98.298214
3628.000000	98.280751
3627.000000	98.263646
3626.000000	98.246541
3625.000000	98.229779
3624.000000	98.214751
3623.000000	98.202450
3622.000000	98.193169
3621.000000	98.186286
3620.000000	98.180158
3619.000000	98.172963
3618.000000	98.163238
3617.000000	98.150445
3616.000000	98.135988
3615.000000	98.122496
3614.000000	98.111958
3613.000000	98.105148
3612.000000	98.102020
3611.000000	98.100801
3610.000000	98.097508
3609.000000	98.086683
3608.000000	98.065356
3607.000000	98.036938
3606.000000	98.007806
3605.000000	97.982194
3604.000000	97.961434
3603.000000	97.946293
3602.000000	97.937641
3601.000000	97.934549
3600.000000	97.933137
3599.000000	97.928293
3598.000000	97.916817
3597.000000	97.898610
3596.000000	97.876274
3595.000000	97.853974
3594.000000	97.836711
3593.000000	97.827597
3592.000000	97.826075
3591.000000	97.827772
3590.000000	97.825648
3589.000000	97.812757
3588.000000	97.788181
3587.000000	97.760070
3586.000000	97.737710
3585.000000	97.721809
3584.000000	97.707742
3583.000000	97.692239
3582.000000	97.674588
3581.000000	97.655447
3580.000000	97.636538
3579.000000	97.619154
3578.000000	97.602770
3577.000000	97.585314
3576.000000	97.565855
3575.000000	97.546201
3574.000000	97.529325
3573.000000	97.516533
3572.000000	97.506351
3571.000000	97.496183
3570.000000	97.483894
3569.000000	97.468836
3568.000000	97.451802
3567.000000	97.433924
3566.000000	97.415606
3565.000000	97.397195
3564.000000	97.379093
3563.000000	97.361912
3562.000000	97.345992
3561.000000	97.330832
3560.000000	97.315474
3559.000000	97.299683
3558.000000	97.284020
3557.000000	97.269006
3556.000000	97.254022
3555.000000	97.237223
3554.000000	97.216937
3553.000000	97.194072
3552.000000	97.172493
3551.000000	97.155982
3550.000000	97.145011
3549.000000	97.137099
3548.000000	97.128791
3547.000000	97.116549
3546.000000	97.097987
3545.000000	97.074488
3544.000000	97.051386
3543.000000	97.033035
3542.000000	97.018605
3541.000000	97.003714
3540.000000	96.985357
3539.000000	96.964614
3538.000000	96.944525
3537.000000	96.926713
3536.000000	96.910881
3535.000000	96.896758
3534.000000	96.884847
3533.000000	96.874808
3532.000000	96.864691
3531.000000	96.852265
3530.000000	96.837106
3529.000000	96.820951
3528.000000	96.805830
3527.000000	96.792197
3526.000000	96.779262
3525.000000	96.766451
3524.000000	96.753663
3523.000000	96.740231
3522.000000	96.724863
3521.000000	96.707448
3520.000000	96.690304
3519.000000	96.676428
3518.000000	96.666124
3517.000000	96.655922
3516.000000	96.642182
3515.000000	96.625057
3514.000000	96.608369
3513.000000	96.595347
3512.000000	96.585475
3511.000000	96.575537
3510.000000	96.563294
3509.000000	96.549503
3508.000000	96.536473
3507.000000	96.525807
3506.000000	96.518022
3505.000000	96.513218
3504.000000	96.510175
3503.000000	96.505161
3502.000000	96.493675
3501.000000	96.474152
3500.000000	96.449165
3499.000000	96.422889
3498.000000	96.398262
3497.000000	96.376249
3496.000000	96.357280
3495.000000	96.342529
3494.000000	96.333440
3493.000000	96.329998
3492.000000	96.329550
3491.000000	96.327656
3490.000000	96.320847
3489.000000	96.309263
3488.000000	96.296484
3487.000000	96.286103
3486.000000	96.278234
3485.000000	96.269777
3484.000000	96.257971
3483.000000	96.243270
3482.000000	96.229015
3481.000000	96.218251
3480.000000	96.210815
3479.000000	96.203601
3478.000000	96.193348
3477.000000	96.178811
3476.000000	96.160508
3475.000000	96.139578
3474.000000	96.117764
3473.000000	96.098029
3472.000000	96.083409
3471.000000	96.074226
3470.000000	96.067244
3469.000000	96.058729
3468.000000	96.048073
3467.000000	96.037702
3466.000000	96.029495
3465.000000	96.022536
3464.000000	96.014557
3463.000000	96.004632
3462.000000	95.993933
3461.000000	95.984082
3460.000000	95.975301
3459.000000	95.966302
3458.000000	95.955898
3457.000000	95.944485
3456.000000	95.933346
3455.000000	95.922480
3454.000000	95.910320
3453.000000	95.895987
3452.000000	95.880910
3451.000000	95.866931
3450.000000	95.853652
3449.000000	95.839103
3448.000000	95.822781
3447.000000	95.806827
3446.000000	95.793956
3445.000000	95.785000
3444.000000	95.778642
3443.000000	95.772325
3442.000000	95.763475
3441.000000	95.751484
3440.000000	95.738652
3439.000000	95.727964
3438.000000	95.719795
3437.000000	95.711713
3436.000000	95.701506
3435.000000	95.689097
3434.000000	95.675503
3433.000000	95.661158
3432.000000	95.646164
3431.000000	95.631030
3430.000000	95.616582
3429.000000	95.603472
3428.000000	95.591845
3427.000000	95.580906
3426.000000	95.568866
3425.000000	95.554441
3424.000000	95.538697
3423.000000	95.524437
3422.000000	95.513112
3421.000000	95.502942
3420.000000	95.490789
3419.000000	95.475547
3418.000000	95.459080
3417.000000	95.444261
3416.000000	95.432893
3415.000000	95.425144
3414.000000	95.420060
3413.000000	95.415940
3412.000000	95.410136
3411.000000	95.399334
3410.000000	95.381443
3409.000000	95.358033
3408.000000	95.334269
3407.000000	95.315446
3406.000000	95.303433
3405.000000	95.296497
3404.000000	95.291615
3403.000000	95.285957
3402.000000	95.276959
3401.000000	95.262869
3400.000000	95.244316
3399.000000	95.224627
3398.000000	95.207818
3397.000000	95.196039
3396.000000	95.188662
3395.000000	95.183148
3394.000000	95.176629
3393.000000	95.167494
3392.000000	95.156277
3391.000000	95.144911
3390.000000	95.134740
3389.000000	95.125481
3388.000000	95.116040
3387.000000	95.105614
3386.000000	95.093604
3385.000000	95.078969
3384.000000	95.060490
3383.000000	95.037995
3382.000000	95.013143
3381.000000	94.988784
3380.000000	94.967474
3379.000000	94.950126
3378.000000	94.935731
3377.000000	94.922087
3376.000000	94.906727
3375.000000	94.887588
3374.000000	94.863764
3373.000000	94.836521
3372.000000	94.809205
3371.000000	94.785048
3370.000000	94.764398
3369.000000	94.744439
3368.000000	94.721859
3367.000000	94.695518
3366.000000	94.666499
3365.000000	94.636518
3364.000000	94.606980
3363.000000	94.578947
3362.000000	94.552726
3361.000000	94.527086
3360.000000	94.499470
3359.000000	94.467555
3358.000000	94.430866
3357.000000	94.391125
3356.000000	94.351366
3355.000000	94.314647
3354.000000	94.282841
3353.000000	94.255778
3352.000000	94.231071
3351.000000	94.205026
3350.000000	94.174445
3349.000000	94.138136
3348.000000	94.097080
3347.000000	94.053661
3346.000000	94.010874
3345.000000	93.971499
3344.000000	93.936856
3343.000000	93.905919
3342.000000	93.876422
3341.000000	93.847337
3340.000000	93.819592
3339.000000	93.793837
3338.000000	93.768096
3337.000000	93.738640
3336.000000	93.703323
3335.000000	93.663539
3334.000000	93.622902
3333.000000	93.584479
3332.000000	93.549389
3331.000000	93.517412
3330.000000	93.488424
3329.000000	93.463110
3328.000000	93.442098
3327.000000	93.424391
3326.000000	93.407143
3325.000000	93.387322
3324.000000	93.363543
3323.000000	93.336264
3322.000000	93.306912
3321.000000	93.277250
3320.000000	93.248903
3319.000000	93.222746
3318.000000	93.198929
3317.000000	93.177845
3316.000000	93.160552
3315.000000	93.147397
3314.000000	93.136575
3313.000000	93.125293
3312.000000	93.112474
3311.000000	93.099642
3310.000000	93.088887
3309.000000	93.080407
3308.000000	93.072347
3307.000000	93.062576
3306.000000	93.050266
3305.000000	93.035993
3304.000000	93.020624
3303.000000	93.004355
3302.000000	92.987211
3301.000000	92.970586
3300.000000	92.957474
3299.000000	92.950071
3298.000000	92.947356
3297.000000	92.945891
3296.000000	92.943389
3295.000000	92.940755
3294.000000	92.940042
3293.000000	92.941194
3292.000000	92.941621
3291.000000	92.938771
3290.000000	92.932363
3289.000000	92.924007
3288.000000	92.915479
3287.000000	92.908005
3286.000000	92.902489
3285.000000	92.899176
3284.000000	92.896974
3283.000000	92.894396
3282.000000	92.891955
3281.000000	92.892799
3280.000000	92.899717
3279.000000	92.911879
3278.000000	92.925641
3277.000000	92.938301
3276.000000	92.950008
3275.000000	92.962001
3274.000000	92.974469
3273.000000	92.986625
3272.000000	92.997549
3271.000000	93.006164
3270.000000	93.011461
3269.000000	93.013921
3268.000000	93.015991
3267.000000	93.020208
3266.000000	93.027212
3265.000000	93.036158
3264.000000	93.046368
3263.000000	93.057580
3262.000000	93.069269
3261.000000	93.081207
3260.000000	93.094629
3259.000000	93.111545
3258.000000	93.132340
3257.000000	93.154692
3256.000000	93.175084
3255.000000	93.191320
3254.000000	93.204036
3253.000000	93.216383
3252.000000	93.231933
3251.000000	93.251696
3250.000000	93.272789
3249.000000	93.290547
3248.000000	93.302365
3247.000000	93.309490
3246.000000	93.315648
3245.000000	93.324462
3244.000000	93.337749
3243.000000	93.354852
3242.000000	93.372881
3241.000000	93.388312
3240.000000	93.399432
3239.000000	93.407667
3238.000000	93.416321
3237.000000	93.427896
3236.000000	93.442214
3235.000000	93.456764
3234.000000	93.468754
3233.000000	93.477147
3232.000000	93.483227
3231.000000	93.489294
3230.000000	93.496861
3229.000000	93.505940
3228.000000	93.515499
3227.000000	93.524390
3226.000000	93.532185
3225.000000	93.539718
3224.000000	93.548969
3223.000000	93.561978
3222.000000	93.579409
3221.000000	93.599648
3220.000000	93.618889
3219.000000	93.632695
3218.000000	93.638978
3217.000000	93.640226
3216.000000	93.642135
3215.000000	93.648811
3214.000000	93.659145
3213.000000	93.668940
3212.000000	93.676362
3211.000000	93.684294
3210.000000	93.696923
3209.000000	93.715153
3208.000000	93.735862
3207.000000	93.754911
3206.000000	93.770110
3205.000000	93.781723
3204.000000	93.791172
3203.000000	93.799651
3202.000000	93.807747
3201.000000	93.816123
3200.000000	93.825975
3199.000000	93.838399
3198.000000	93.853408
3197.000000	93.870224
3196.000000	93.888460
3195.000000	93.908266
3194.000000	93.929027
3193.000000	93.948621
3192.000000	93.964618
3191.000000	93.976275
3190.000000	93.985333
3189.000000	93.995091
3188.000000	94.008309
3187.000000	94.025267
3186.000000	94.043621
3185.000000	94.060982
3184.000000	94.077937
3183.000000	94.097625
3182.000000	94.121857
3181.000000	94.148488
3180.000000	94.173539
3179.000000	94.195197
3178.000000	94.214800
3177.000000	94.234115
3176.000000	94.253005
3175.000000	94.270255
3174.000000	94.285717
3173.000000	94.300818
3172.000000	94.317233
3171.000000	94.335517
3170.000000	94.354972
3169.000000	94.374423
3168.000000	94.393209
3167.000000	94.411811
3166.000000	94.431728
3165.000000	94.454572
3164.000000	94.480811
3163.000000	94.509019
3162.000000	94.536163
3161.000000	94.559029
3160.000000	94.576065
3159.000000	94.588639
3158.000000	94.600586
3157.000000	94.615881
3156.000000	94.635832
3155.000000	94.658313
3154.000000	94.680129
3153.000000	94.700065
3152.000000	94.719166
3151.000000	94.738122
3150.000000	94.755689
3149.000000	94.770420
3148.000000	94.783018
3147.000000	94.795682
3146.000000	94.809349
