PE IR       SUBTECH     SPECTRUM    ASCII       PEDS        4.00        
   -1
11753-Hull01-C002_1.ASC
23/09/13
11:27:41.00
23/09/13
11:33:37.00
uco
Sample 002 By uco Date Wednesday, September 13 2023
450.000000
#HDR
-1
-1
#GR
cm-1
%T
1.0
0.0
4000.000000
-1.000000
3551
8
97.783579
80.927512
#DATA
4000.000000	97.662030
3999.000000	97.665417
3998.000000	97.673164
3997.000000	97.682264
3996.000000	97.689058
3995.000000	97.691667
3994.000000	97.651196
3993.000000	97.650089
3992.000000	97.651770
3991.000000	97.657183
3990.000000	97.665035
3989.000000	97.672583
3988.000000	97.676813
3987.000000	97.676082
3986.000000	97.670610
3985.000000	97.661824
3984.000000	97.651284
3983.000000	97.640328
3982.000000	97.630349
3981.000000	97.622991
3980.000000	97.619863
3979.000000	97.621566
3978.000000	97.626722
3977.000000	97.632243
3976.000000	97.635012
3975.000000	97.633820
3974.000000	97.629832
3973.000000	97.625242
3972.000000	97.621722
3971.000000	97.619922
3970.000000	97.620106
3969.000000	97.622160
3968.000000	97.624693
3967.000000	97.625461
3966.000000	97.623251
3965.000000	97.619405
3964.000000	97.616938
3963.000000	97.617810
3962.000000	97.621036
3961.000000	97.623496
3960.000000	97.622820
3959.000000	97.618700
3958.000000	97.612617
3957.000000	97.606850
3956.000000	97.602886
3955.000000	97.600857
3954.000000	97.599955
3953.000000	97.600017
3952.000000	97.602543
3951.000000	97.609508
3950.000000	97.621107
3949.000000	97.633461
3948.000000	97.640299
3947.000000	97.638023
3946.000000	97.627780
3945.000000	97.614266
3944.000000	97.603002
3943.000000	97.596672
3942.000000	97.594145
3941.000000	97.592593
3940.000000	97.590471
3939.000000	97.588144
3938.000000	97.587325
3937.000000	97.589808
3936.000000	97.595496
3935.000000	97.602680
3934.000000	97.609401
3933.000000	97.613772
3932.000000	97.614354
3931.000000	97.610920
3930.000000	97.605229
3929.000000	97.598832
3928.000000	97.591684
3927.000000	97.585283
3926.000000	97.583521
3925.000000	97.588878
3924.000000	97.598531
3923.000000	97.607070
3922.000000	97.611868
3921.000000	97.614214
3920.000000	97.616148
3919.000000	97.617428
3918.000000	97.615279
3917.000000	97.608186
3916.000000	97.598877
3915.000000	97.591380
3914.000000	97.587452
3913.000000	97.586107
3912.000000	97.585746
3911.000000	97.584193
3910.000000	97.579650
3909.000000	97.571876
3908.000000	97.562662
3907.000000	97.556878
3906.000000	97.561163
3905.000000	97.579457
3904.000000	97.606123
3903.000000	97.627035
3902.000000	97.632733
3901.000000	97.625921
3900.000000	97.615259
3899.000000	97.608043
3898.000000	97.605832
3897.000000	97.605405
3896.000000	97.603521
3895.000000	97.598905
3894.000000	97.593890
3893.000000	97.592976
3892.000000	97.597790
3891.000000	97.603406
3890.000000	97.605293
3889.000000	97.603192
3888.000000	97.598701
3887.000000	97.595123
3886.000000	97.595241
3885.000000	97.597373
3884.000000	97.597334
3883.000000	97.592969
3882.000000	97.586155
3881.000000	97.580883
3880.000000	97.577676
3879.000000	97.574159
3878.000000	97.568380
3877.000000	97.559194
3876.000000	97.548031
3875.000000	97.540962
3874.000000	97.544238
3873.000000	97.557107
3872.000000	97.573143
3871.000000	97.586002
3870.000000	97.591692
3869.000000	97.590236
3868.000000	97.585481
3867.000000	97.579308
3866.000000	97.571864
3865.000000	97.566699
3864.000000	97.568451
3863.000000	97.577400
3862.000000	97.590173
3861.000000	97.601675
3860.000000	97.606483
3859.000000	97.602696
3858.000000	97.592539
3857.000000	97.580960
3856.000000	97.572951
3855.000000	97.571315
3854.000000	97.581794
3853.000000	97.592589
3852.000000	97.591239
3851.000000	97.588204
3850.000000	97.590517
3849.000000	97.593243
3848.000000	97.592572
3847.000000	97.587878
3846.000000	97.581817
3845.000000	97.578232
3844.000000	97.579255
3843.000000	97.583842
3842.000000	97.589094
3841.000000	97.590890
3840.000000	97.586728
3839.000000	97.576855
3838.000000	97.563520
3837.000000	97.552389
3836.000000	97.548226
3835.000000	97.550839
3834.000000	97.557346
3833.000000	97.564912
3832.000000	97.570432
3831.000000	97.571699
3830.000000	97.568617
3829.000000	97.564132
3828.000000	97.562606
3827.000000	97.567263
3826.000000	97.578455
3825.000000	97.591916
3824.000000	97.600117
3823.000000	97.595845
3822.000000	97.582564
3821.000000	97.572319
3820.000000	97.569718
3819.000000	97.571712
3818.000000	97.573418
3817.000000	97.572239
3816.000000	97.567377
3815.000000	97.561446
3814.000000	97.559601
3813.000000	97.563597
3812.000000	97.571487
3811.000000	97.580072
3810.000000	97.587251
3809.000000	97.591734
3808.000000	97.592704
3807.000000	97.589077
3806.000000	97.581811
3805.000000	97.573691
3804.000000	97.566035
3803.000000	97.557216
3802.000000	97.547810
3801.000000	97.540376
3800.000000	97.541105
3799.000000	97.551624
3798.000000	97.566226
3797.000000	97.577376
3796.000000	97.580821
3795.000000	97.577627
3794.000000	97.572003
3793.000000	97.567815
3792.000000	97.566110
3791.000000	97.565559
3790.000000	97.564651
3789.000000	97.563052
3788.000000	97.560937
3787.000000	97.558894
3786.000000	97.558044
3785.000000	97.559338
3784.000000	97.562504
3783.000000	97.565873
3782.000000	97.567796
3781.000000	97.568947
3780.000000	97.572568
3779.000000	97.579103
3778.000000	97.585172
3777.000000	97.587695
3776.000000	97.586247
3775.000000	97.582291
3774.000000	97.578872
3773.000000	97.579101
3772.000000	97.583858
3771.000000	97.591350
3770.000000	97.598146
3769.000000	97.601725
3768.000000	97.601626
3767.000000	97.598498
3766.000000	97.592711
3765.000000	97.585642
3764.000000	97.580418
3763.000000	97.578803
3762.000000	97.579617
3761.000000	97.581166
3760.000000	97.583387
3759.000000	97.585053
3758.000000	97.585442
3757.000000	97.586933
3756.000000	97.591040
3755.000000	97.595752
3754.000000	97.600443
3753.000000	97.610005
3752.000000	97.629426
3751.000000	97.650707
3750.000000	97.658300
3749.000000	97.655189
3748.000000	97.653487
3747.000000	97.653944
3746.000000	97.647642
3745.000000	97.627490
3744.000000	97.599450
3743.000000	97.585044
3742.000000	97.595387
3741.000000	97.621639
3740.000000	97.648174
3739.000000	97.663006
3738.000000	97.660874
3737.000000	97.649672
3736.000000	97.645424
3735.000000	97.656385
3734.000000	97.676954
3733.000000	97.693436
3732.000000	97.694926
3731.000000	97.682347
3730.000000	97.665285
3729.000000	97.652052
3728.000000	97.645527
3727.000000	97.645412
3726.000000	97.649293
3725.000000	97.653836
3724.000000	97.656286
3723.000000	97.655493
3722.000000	97.652033
3721.000000	97.645826
3720.000000	97.637436
3719.000000	97.628183
3718.000000	97.620079
3717.000000	97.615386
3716.000000	97.615049
3715.000000	97.618043
3714.000000	97.620865
3713.000000	97.620048
3712.000000	97.615528
3711.000000	97.609141
3710.000000	97.603770
3709.000000	97.603572
3708.000000	97.609187
3707.000000	97.617689
3706.000000	97.626147
3705.000000	97.631906
3704.000000	97.634827
3703.000000	97.637886
3702.000000	97.643650
3701.000000	97.649685
3700.000000	97.651398
3699.000000	97.647238
3698.000000	97.638887
3697.000000	97.629264
3696.000000	97.619985
3695.000000	97.609333
3694.000000	97.593517
3693.000000	97.571594
3692.000000	97.550212
3691.000000	97.542424
3690.000000	97.554323
3689.000000	97.571786
3688.000000	97.577316
3687.000000	97.573253
3686.000000	97.568997
3685.000000	97.566843
3684.000000	97.565016
3683.000000	97.561201
3682.000000	97.554818
3681.000000	97.547842
3680.000000	97.542797
3679.000000	97.539176
3678.000000	97.533418
3677.000000	97.521679
3676.000000	97.506289
3675.000000	97.492212
3674.000000	97.487843
3673.000000	97.493845
3672.000000	97.500409
3671.000000	97.495878
3670.000000	97.477581
3669.000000	97.455855
3668.000000	97.445809
3667.000000	97.449733
3666.000000	97.458893
3665.000000	97.464187
3664.000000	97.461454
3663.000000	97.451515
3662.000000	97.439143
3661.000000	97.429753
3660.000000	97.424535
3659.000000	97.420352
3658.000000	97.413359
3657.000000	97.402323
3656.000000	97.387947
3655.000000	97.372386
3654.000000	97.358045
3653.000000	97.344193
3652.000000	97.330334
3651.000000	97.322263
3650.000000	97.324539
3649.000000	97.321113
3648.000000	97.297696
3647.000000	97.268996
3646.000000	97.251801
3645.000000	97.245614
3644.000000	97.242285
3643.000000	97.235210
3642.000000	97.222836
3641.000000	97.207936
3640.000000	97.192765
3639.000000	97.177101
3638.000000	97.160672
3637.000000	97.144666
3636.000000	97.130591
3635.000000	97.119492
3634.000000	97.113284
3633.000000	97.113164
3632.000000	97.115588
3631.000000	97.111574
3630.000000	97.094178
3629.000000	97.064657
3628.000000	97.032051
3627.000000	97.010121
3626.000000	96.999995
3625.000000	96.993310
3624.000000	96.983571
3623.000000	96.969889
3622.000000	96.953653
3621.000000	96.935471
3620.000000	96.913546
3619.000000	96.885357
3618.000000	96.853655
3617.000000	96.827580
3616.000000	96.811720
3615.000000	96.802002
3614.000000	96.791786
3613.000000	96.778000
3612.000000	96.762939
3611.000000	96.747914
3610.000000	96.727902
3609.000000	96.697021
3608.000000	96.658765
3607.000000	96.625482
3606.000000	96.606357
3605.000000	96.599027
3604.000000	96.593093
3603.000000	96.579639
3602.000000	96.556161
3601.000000	96.526101
3600.000000	96.495524
3599.000000	96.469321
3598.000000	96.448337
3597.000000	96.430535
3596.000000	96.412028
3595.000000	96.388569
3594.000000	96.359593
3593.000000	96.330024
3592.000000	96.305970
3591.000000	96.288035
3590.000000	96.271259
3589.000000	96.250084
3588.000000	96.220357
3587.000000	96.179581
3586.000000	96.135843
3585.000000	96.100543
3584.000000	96.074969
3583.000000	96.053302
3582.000000	96.030210
3581.000000	96.002959
3580.000000	95.971343
3579.000000	95.936973
3578.000000	95.902652
3577.000000	95.871173
3576.000000	95.843568
3575.000000	95.818013
3574.000000	95.791381
3573.000000	95.762392
3572.000000	95.731399
3571.000000	95.698777
3570.000000	95.664439
3569.000000	95.630281
3568.000000	95.597314
3567.000000	95.560581
3566.000000	95.518295
3565.000000	95.481216
3564.000000	95.455271
3563.000000	95.433870
3562.000000	95.408132
3561.000000	95.375061
3560.000000	95.337302
3559.000000	95.298957
3558.000000	95.261826
3557.000000	95.225976
3556.000000	95.191619
3555.000000	95.159405
3554.000000	95.129324
3553.000000	95.100794
3552.000000	95.073496
3551.000000	95.047975
3550.000000	95.024450
3549.000000	95.001720
3548.000000	94.977888
3547.000000	94.950388
3546.000000	94.916152
3545.000000	94.875208
3544.000000	94.832729
3543.000000	94.793947
3542.000000	94.760033
3541.000000	94.729101
3540.000000	94.699628
3539.000000	94.672509
3538.000000	94.649403
3537.000000	94.630031
3536.000000	94.610949
3535.000000	94.589058
3534.000000	94.564798
3533.000000	94.541111
3532.000000	94.520242
3531.000000	94.502283
3530.000000	94.486355
3529.000000	94.472054
3528.000000	94.459249
3527.000000	94.447391
3526.000000	94.435406
3525.000000	94.421254
3524.000000	94.402293
3523.000000	94.377858
3522.000000	94.351429
3521.000000	94.328144
3520.000000	94.309869
3519.000000	94.294680
3518.000000	94.280179
3517.000000	94.265969
3516.000000	94.252665
3515.000000	94.239823
3514.000000	94.226551
3513.000000	94.213194
3512.000000	94.201483
3511.000000	94.193003
3510.000000	94.187338
3509.000000	94.181435
3508.000000	94.171176
3507.000000	94.154532
3506.000000	94.133487
3505.000000	94.113381
3504.000000	94.098568
3503.000000	94.088829
3502.000000	94.081361
3501.000000	94.074214
3500.000000	94.065709
3499.000000	94.053134
3498.000000	94.034837
3497.000000	94.012463
3496.000000	93.990345
3495.000000	93.972453
3494.000000	93.960290
3493.000000	93.952772
3492.000000	93.947188
3491.000000	93.940852
3490.000000	93.932477
3489.000000	93.921776
3488.000000	93.908374
3487.000000	93.892452
3486.000000	93.876107
3485.000000	93.862048
3484.000000	93.850275
3483.000000	93.837606
3482.000000	93.821613
3481.000000	93.804052
3480.000000	93.788662
3479.000000	93.776574
3478.000000	93.765753
3477.000000	93.754493
3476.000000	93.743640
3475.000000	93.735364
3474.000000	93.730482
3473.000000	93.726778
3472.000000	93.719518
3471.000000	93.704797
3470.000000	93.683751
3469.000000	93.662516
3468.000000	93.646864
3467.000000	93.637192
3466.000000	93.629368
3465.000000	93.619525
3464.000000	93.606393
3463.000000	93.590124
3462.000000	93.571418
3461.000000	93.552066
3460.000000	93.534347
3459.000000	93.518831
3458.000000	93.503691
3457.000000	93.487127
3456.000000	93.469228
3455.000000	93.451516
3454.000000	93.435313
3453.000000	93.420974
3452.000000	93.408129
3451.000000	93.395865
3450.000000	93.383501
3449.000000	93.371309
3448.000000	93.359926
3447.000000	93.348947
3446.000000	93.337117
3445.000000	93.323254
3444.000000	93.306266
3443.000000	93.285428
3442.000000	93.261744
3441.000000	93.238207
3440.000000	93.216873
3439.000000	93.196428
3438.000000	93.174279
3437.000000	93.150927
3436.000000	93.129917
3435.000000	93.113284
3434.000000	93.098510
3433.000000	93.080837
3432.000000	93.058005
3431.000000	93.031761
3430.000000	93.005895
3429.000000	92.982871
3428.000000	92.961785
3427.000000	92.939351
3426.000000	92.913153
3425.000000	92.883846
3424.000000	92.853783
3423.000000	92.824310
3422.000000	92.795234
3421.000000	92.766176
3420.000000	92.737227
3419.000000	92.708658
3418.000000	92.681109
3417.000000	92.655629
3416.000000	92.632543
3415.000000	92.610396
3414.000000	92.587016
3413.000000	92.561311
3412.000000	92.533149
3411.000000	92.502428
3410.000000	92.469717
3409.000000	92.437114
3408.000000	92.406798
3407.000000	92.379092
3406.000000	92.353061
3405.000000	92.328484
3404.000000	92.305560
3403.000000	92.283325
3402.000000	92.260311
3401.000000	92.236676
3400.000000	92.214441
3399.000000	92.195498
3398.000000	92.180453
3397.000000	92.169018
3396.000000	92.160048
3395.000000	92.151298
3394.000000	92.140810
3393.000000	92.129057
3392.000000	92.118721
3391.000000	92.111846
3390.000000	92.107756
3389.000000	92.104292
3388.000000	92.100407
3387.000000	92.097204
3386.000000	92.096640
3385.000000	92.099305
3384.000000	92.103177
3383.000000	92.104707
3382.000000	92.101275
3381.000000	92.092461
3380.000000	92.079338
3379.000000	92.063218
3378.000000	92.045538
3377.000000	92.028088
3376.000000	92.012628
3375.000000	92.000153
3374.000000	91.990405
3373.000000	91.981614
3372.000000	91.970901
3371.000000	91.955874
3370.000000	91.936375
3369.000000	91.914210
3368.000000	91.891082
3367.000000	91.867720
3366.000000	91.845088
3365.000000	91.824967
3364.000000	91.808111
3363.000000	91.792647
3362.000000	91.775217
3361.000000	91.753141
3360.000000	91.725081
3359.000000	91.690906
3358.000000	91.652465
3357.000000	91.614015
3356.000000	91.580175
3355.000000	91.552775
3354.000000	91.530035
3353.000000	91.508500
3352.000000	91.485071
3351.000000	91.457574
3350.000000	91.424859
3349.000000	91.387168
3348.000000	91.346364
3347.000000	91.305642
3346.000000	91.268233
3345.000000	91.235398
3344.000000	91.205238
3343.000000	91.174099
3342.000000	91.139828
3341.000000	91.103252
3340.000000	91.066663
3339.000000	91.031862
3338.000000	90.999732
3337.000000	90.970283
3336.000000	90.942432
3335.000000	90.914803
3334.000000	90.887377
3333.000000	90.861189
3332.000000	90.835757
3331.000000	90.808559
3330.000000	90.778296
3329.000000	90.747277
3328.000000	90.718953
3327.000000	90.694146
3326.000000	90.671300
3325.000000	90.649503
3324.000000	90.629083
3323.000000	90.609302
3322.000000	90.587779
3321.000000	90.562715
3320.000000	90.534436
3319.000000	90.504738
3318.000000	90.475868
3317.000000	90.450154
3316.000000	90.429403
3315.000000	90.413999
3314.000000	90.403118
3313.000000	90.395808
3312.000000	90.390934
3311.000000	90.386437
3310.000000	90.379960
3309.000000	90.370665
3308.000000	90.359853
3307.000000	90.349388
3306.000000	90.339889
3305.000000	90.330452
3304.000000	90.319468
3303.000000	90.305918
3302.000000	90.290609
3301.000000	90.276344
3300.000000	90.266128
3299.000000	90.260807
3298.000000	90.258475
3297.000000	90.255864
3296.000000	90.250565
3295.000000	90.242602
3294.000000	90.234354
3293.000000	90.228591
3292.000000	90.226001
3291.000000	90.224921
3290.000000	90.223667
3289.000000	90.222385
3288.000000	90.222229
3287.000000	90.223540
3286.000000	90.225652
3285.000000	90.227968
3284.000000	90.230540
3283.000000	90.233811
3282.000000	90.238029
3281.000000	90.242644
3280.000000	90.246481
3279.000000	90.249453
3278.000000	90.253904
3277.000000	90.262849
3276.000000	90.276444
3275.000000	90.291656
3274.000000	90.306005
3273.000000	90.320112
3272.000000	90.335787
3271.000000	90.353192
3270.000000	90.371040
3269.000000	90.388131
3268.000000	90.403487
3267.000000	90.416424
3266.000000	90.427999
3265.000000	90.441115
3264.000000	90.457530
3263.000000	90.475726
3262.000000	90.493397
3261.000000	90.511148
3260.000000	90.531648
3259.000000	90.555224
3258.000000	90.578099
3257.000000	90.595702
3256.000000	90.606987
3255.000000	90.615627
3254.000000	90.627269
3253.000000	90.645301
3252.000000	90.668648
3251.000000	90.693563
3250.000000	90.717529
3249.000000	90.740467
3248.000000	90.762219
3247.000000	90.780741
3246.000000	90.793918
3245.000000	90.802213
3244.000000	90.808390
3243.000000	90.815328
3242.000000	90.825161
3241.000000	90.839311
3240.000000	90.857830
3239.000000	90.879264
3238.000000	90.902145
3237.000000	90.925907
3236.000000	90.949321
3235.000000	90.969455
3234.000000	90.983912
3233.000000	90.993311
3232.000000	91.000060
3231.000000	91.005425
3230.000000	91.009859
3229.000000	91.015609
3228.000000	91.026369
3227.000000	91.043610
3226.000000	91.064744
3225.000000	91.085656
3224.000000	91.104159
3223.000000	91.120553
3222.000000	91.135801
3221.000000	91.149950
3220.000000	91.162120
3219.000000	91.171725
3218.000000	91.179609
3217.000000	91.187753
3216.000000	91.197957
3215.000000	91.211110
3214.000000	91.227646
3213.000000	91.247602
3212.000000	91.269591
3211.000000	91.290462
3210.000000	91.307131
3209.000000	91.318839
3208.000000	91.327331
3207.000000	91.335495
3206.000000	91.346186
3205.000000	91.361391
3204.000000	91.381268
3203.000000	91.404133
3202.000000	91.427992
3201.000000	91.451462
3200.000000	91.472848
3199.000000	91.489977
3198.000000	91.502632
3197.000000	91.514449
3196.000000	91.530336
3195.000000	91.551692
3194.000000	91.575467
3193.000000	91.597828
3192.000000	91.617601
3191.000000	91.636222
3190.000000	91.655747
3189.000000	91.677483
3188.000000	91.701646
3187.000000	91.727435
3186.000000	91.753527
3185.000000	91.778878
3184.000000	91.803220
3183.000000	91.827119
3182.000000	91.851592
3181.000000	91.877245
3180.000000	91.903531
3179.000000	91.929204
3178.000000	91.953837
3177.000000	91.978299
3176.000000	92.003288
3175.000000	92.028235
3174.000000	92.052202
3173.000000	92.075099
3172.000000	92.097278
3171.000000	92.118747
3170.000000	92.139667
3169.000000	92.160771
3168.000000	92.182402
3167.000000	92.203941
3166.000000	92.225440
3165.000000	92.248916
3164.000000	92.276237
3163.000000	92.306091
3162.000000	92.334641
3161.000000	92.359442
3160.000000	92.381323
3159.000000	92.402557
3158.000000	92.424682
3157.000000	92.448376
3156.000000	92.473811
3155.000000	92.500295
3154.000000	92.526524
3153.000000	92.551763
3152.000000	92.576267
3151.000000	92.600451
3150.000000	92.624389
3149.000000	92.648010
3148.000000	92.670842
3147.000000	92.691760
3146.000000	92.710354
