PE IR       SUBTECH     SPECTRUM    ASCII       PEDS        4.00        
   -1
msmeh_8_side1_001_1.ASC
23/09/08
14:27:07.00
23/09/08
14:52:56.00
uco
Sample 001 By uco Date Friday, September 08 2023
450.000000
#HDR
-1
-1
#GR
cm-1
%T
1.0
0.0
4000.000000
-1.000000
3551
8
98.674439
90.938239
#DATA
4000.000000	98.619749
3999.000000	98.621136
3998.000000	98.622837
3997.000000	98.623876
3996.000000	98.623800
3995.000000	98.622660
3994.000000	98.620441
3993.000000	98.616821
3992.000000	98.611584
3991.000000	98.605298
3990.000000	98.599476
3989.000000	98.595625
3988.000000	98.593859
3987.000000	98.592532
3986.000000	98.589669
3985.000000	98.585151
3984.000000	98.581367
3983.000000	98.581331
3982.000000	98.585846
3981.000000	98.592585
3980.000000	98.598026
3979.000000	98.600175
3978.000000	98.599228
3977.000000	98.596318
3976.000000	98.592624
3975.000000	98.589705
3974.000000	98.589603
3973.000000	98.593295
3972.000000	98.598971
3971.000000	98.602623
3970.000000	98.601134
3969.000000	98.594948
3968.000000	98.587579
3967.000000	98.582800
3966.000000	98.582039
3965.000000	98.584036
3964.000000	98.586297
3963.000000	98.586818
3962.000000	98.585125
3961.000000	98.582099
3960.000000	98.579192
3959.000000	98.577617
3958.000000	98.577791
3957.000000	98.579270
3956.000000	98.580776
3955.000000	98.580777
3954.000000	98.578432
3953.000000	98.574154
3952.000000	98.569362
3951.000000	98.565586
3950.000000	98.564005
3949.000000	98.565468
3948.000000	98.570245
3947.000000	98.577389
3946.000000	98.584457
3945.000000	98.588449
3944.000000	98.587367
3943.000000	98.581330
3942.000000	98.572822
3941.000000	98.564933
3940.000000	98.559600
3939.000000	98.557332
3938.000000	98.557301
3937.000000	98.558296
3936.000000	98.560008
3935.000000	98.563557
3934.000000	98.570062
3933.000000	98.578002
3932.000000	98.583290
3931.000000	98.582745
3930.000000	98.577708
3929.000000	98.572413
3928.000000	98.568894
3927.000000	98.565850
3926.000000	98.561460
3925.000000	98.556624
3924.000000	98.554366
3923.000000	98.556323
3922.000000	98.561563
3921.000000	98.568640
3920.000000	98.576525
3919.000000	98.583777
3918.000000	98.588154
3917.000000	98.588342
3916.000000	98.585513
3915.000000	98.581784
3914.000000	98.578018
3913.000000	98.573764
3912.000000	98.568865
3911.000000	98.564347
3910.000000	98.561626
3909.000000	98.561379
3908.000000	98.563198
3907.000000	98.567056
3906.000000	98.574211
3905.000000	98.586034
3904.000000	98.600574
3903.000000	98.611036
3902.000000	98.610799
3901.000000	98.600230
3900.000000	98.585818
3899.000000	98.574135
3898.000000	98.567103
3897.000000	98.563037
3896.000000	98.561068
3895.000000	98.561985
3894.000000	98.565890
3893.000000	98.571684
3892.000000	98.578320
3891.000000	98.585638
3890.000000	98.592398
3889.000000	98.596334
3888.000000	98.596653
3887.000000	98.594021
3886.000000	98.589175
3885.000000	98.583074
3884.000000	98.575856
3883.000000	98.567505
3882.000000	98.559471
3881.000000	98.554835
3880.000000	98.556089
3879.000000	98.560943
3878.000000	98.563084
3877.000000	98.559223
3876.000000	98.551335
3875.000000	98.544975
3874.000000	98.545702
3873.000000	98.552695
3872.000000	98.558190
3871.000000	98.556203
3870.000000	98.550516
3869.000000	98.550002
3868.000000	98.555433
3867.000000	98.560444
3866.000000	98.561380
3865.000000	98.559826
3864.000000	98.559902
3863.000000	98.564389
3862.000000	98.571840
3861.000000	98.578184
3860.000000	98.579421
3859.000000	98.574791
3858.000000	98.566390
3857.000000	98.557501
3856.000000	98.550063
3855.000000	98.543764
3854.000000	98.540272
3853.000000	98.543217
3852.000000	98.547687
3851.000000	98.547026
3850.000000	98.544140
3849.000000	98.544360
3848.000000	98.548316
3847.000000	98.551860
3846.000000	98.550280
3845.000000	98.542573
3844.000000	98.533014
3843.000000	98.528313
3842.000000	98.531781
3841.000000	98.540471
3840.000000	98.548473
3839.000000	98.552224
3838.000000	98.552029
3837.000000	98.550409
3836.000000	98.548946
3835.000000	98.547403
3834.000000	98.545396
3833.000000	98.543175
3832.000000	98.540847
3831.000000	98.537906
3830.000000	98.532871
3829.000000	98.525008
3828.000000	98.516241
3827.000000	98.511576
3826.000000	98.515369
3825.000000	98.526125
3824.000000	98.536827
3823.000000	98.539892
3822.000000	98.533690
3821.000000	98.526755
3820.000000	98.527471
3819.000000	98.531823
3818.000000	98.532470
3817.000000	98.529699
3816.000000	98.528627
3815.000000	98.532520
3814.000000	98.538141
3813.000000	98.541360
3812.000000	98.543109
3811.000000	98.545954
3810.000000	98.550158
3809.000000	98.554129
3808.000000	98.558046
3807.000000	98.564791
3806.000000	98.574965
3805.000000	98.583099
3804.000000	98.583275
3803.000000	98.574335
3802.000000	98.560958
3801.000000	98.551818
3800.000000	98.550517
3799.000000	98.551054
3798.000000	98.549092
3797.000000	98.546194
3796.000000	98.545158
3795.000000	98.545045
3794.000000	98.542535
3793.000000	98.537129
3792.000000	98.532326
3791.000000	98.531520
3790.000000	98.534818
3789.000000	98.539316
3788.000000	98.541360
3787.000000	98.539200
3786.000000	98.534283
3785.000000	98.530344
3784.000000	98.530216
3783.000000	98.533104
3782.000000	98.535483
3781.000000	98.535242
3780.000000	98.534323
3779.000000	98.536855
3778.000000	98.543519
3777.000000	98.549853
3776.000000	98.551675
3775.000000	98.549264
3774.000000	98.545863
3773.000000	98.543992
3772.000000	98.544148
3771.000000	98.546247
3770.000000	98.550425
3769.000000	98.555866
3768.000000	98.559521
3767.000000	98.559146
3766.000000	98.555857
3765.000000	98.552731
3764.000000	98.551488
3763.000000	98.551489
3762.000000	98.551619
3761.000000	98.551791
3760.000000	98.552188
3759.000000	98.553080
3758.000000	98.555206
3757.000000	98.559173
3756.000000	98.564227
3755.000000	98.568915
3754.000000	98.573712
3753.000000	98.582001
3752.000000	98.596486
3751.000000	98.613982
3750.000000	98.627329
3749.000000	98.633338
3748.000000	98.633439
3747.000000	98.629440
3746.000000	98.622769
3745.000000	98.617122
3744.000000	98.618314
3743.000000	98.622351
3742.000000	98.619923
3741.000000	98.612095
3740.000000	98.605398
3739.000000	98.603113
3738.000000	98.602094
3737.000000	98.596240
3736.000000	98.583470
3735.000000	98.570435
3734.000000	98.566947
3733.000000	98.574282
3732.000000	98.585811
3731.000000	98.595329
3730.000000	98.601001
3729.000000	98.604044
3728.000000	98.605032
3727.000000	98.602127
3726.000000	98.593209
3725.000000	98.579694
3724.000000	98.567236
3723.000000	98.561523
3722.000000	98.564150
3721.000000	98.571569
3720.000000	98.578347
3719.000000	98.581385
3718.000000	98.581179
3717.000000	98.580317
3716.000000	98.580661
3715.000000	98.581628
3714.000000	98.580327
3713.000000	98.572734
3712.000000	98.557092
3711.000000	98.539049
3710.000000	98.527818
3709.000000	98.526257
3708.000000	98.528842
3707.000000	98.528949
3706.000000	98.524053
3705.000000	98.514621
3704.000000	98.502987
3703.000000	98.492599
3702.000000	98.486802
3701.000000	98.485935
3700.000000	98.485973
3699.000000	98.482449
3698.000000	98.475203
3697.000000	98.467792
3696.000000	98.463769
3695.000000	98.463883
3694.000000	98.466506
3693.000000	98.469731
3692.000000	98.472208
3691.000000	98.473707
3690.000000	98.475210
3689.000000	98.478718
3688.000000	98.484594
3687.000000	98.489361
3686.000000	98.489309
3685.000000	98.485276
3684.000000	98.481555
3683.000000	98.481056
3682.000000	98.482245
3681.000000	98.481337
3680.000000	98.476975
3679.000000	98.470847
3678.000000	98.465363
3677.000000	98.462284
3676.000000	98.464523
3675.000000	98.474801
3674.000000	98.487664
3673.000000	98.492595
3672.000000	98.488470
3671.000000	98.481427
3670.000000	98.477233
3669.000000	98.478078
3668.000000	98.479777
3667.000000	98.477030
3666.000000	98.470411
3665.000000	98.463409
3664.000000	98.458090
3663.000000	98.453651
3662.000000	98.447654
3661.000000	98.438669
3660.000000	98.427648
3659.000000	98.416854
3658.000000	98.407814
3657.000000	98.400675
3656.000000	98.395640
3655.000000	98.392433
3654.000000	98.390018
3653.000000	98.387625
3652.000000	98.385375
3651.000000	98.384444
3650.000000	98.385645
3649.000000	98.385347
3648.000000	98.379316
3647.000000	98.370676
3646.000000	98.363773
3645.000000	98.358943
3644.000000	98.354743
3643.000000	98.350144
3642.000000	98.344744
3641.000000	98.339011
3640.000000	98.333577
3639.000000	98.328796
3638.000000	98.325298
3637.000000	98.323413
3636.000000	98.322659
3635.000000	98.322477
3634.000000	98.323490
3633.000000	98.326795
3632.000000	98.331910
3631.000000	98.334989
3630.000000	98.330047
3629.000000	98.315703
3628.000000	98.298740
3627.000000	98.282928
3626.000000	98.266894
3625.000000	98.252896
3624.000000	98.244180
3623.000000	98.241186
3622.000000	98.241789
3621.000000	98.243178
3620.000000	98.243423
3619.000000	98.242528
3618.000000	98.241416
3617.000000	98.240614
3616.000000	98.241122
3615.000000	98.243800
3614.000000	98.247450
3613.000000	98.249783
3612.000000	98.250126
3611.000000	98.248347
3610.000000	98.242676
3609.000000	98.230318
3608.000000	98.212080
3607.000000	98.194041
3606.000000	98.180900
3605.000000	98.171318
3604.000000	98.160593
3603.000000	98.145610
3602.000000	98.127525
3601.000000	98.110527
3600.000000	98.098635
3599.000000	98.093144
3598.000000	98.092901
3597.000000	98.095709
3596.000000	98.099417
3595.000000	98.102380
3594.000000	98.104388
3593.000000	98.105933
3592.000000	98.107134
3591.000000	98.106634
3590.000000	98.100991
3589.000000	98.086427
3588.000000	98.064193
3587.000000	98.042419
3586.000000	98.027839
3585.000000	98.018427
3584.000000	98.008836
3583.000000	97.996761
3582.000000	97.983378
3581.000000	97.971418
3580.000000	97.963705
3579.000000	97.960591
3578.000000	97.958600
3577.000000	97.952411
3576.000000	97.939315
3575.000000	97.921854
3574.000000	97.905454
3573.000000	97.894204
3572.000000	97.888498
3571.000000	97.886234
3570.000000	97.883564
3569.000000	97.875432
3568.000000	97.857329
3567.000000	97.830181
3566.000000	97.802180
3565.000000	97.781930
3564.000000	97.771012
3563.000000	97.765578
3562.000000	97.760211
3561.000000	97.750797
3560.000000	97.736710
3559.000000	97.721167
3558.000000	97.707899
3557.000000	97.697617
3556.000000	97.687337
3555.000000	97.673043
3554.000000	97.653260
3553.000000	97.631377
3552.000000	97.613968
3551.000000	97.605713
3550.000000	97.605654
3549.000000	97.608490
3548.000000	97.608304
3547.000000	97.601521
3546.000000	97.588272
3545.000000	97.571601
3544.000000	97.554973
3543.000000	97.540545
3542.000000	97.529448
3541.000000	97.522266
3540.000000	97.518511
3539.000000	97.516400
3538.000000	97.513736
3537.000000	97.509573
3536.000000	97.504952
3535.000000	97.501580
3534.000000	97.500184
3533.000000	97.500116
3532.000000	97.500474
3531.000000	97.500869
3530.000000	97.501334
3529.000000	97.501670
3528.000000	97.501233
3527.000000	97.499460
3526.000000	97.496432
3525.000000	97.492392
3524.000000	97.487105
3523.000000	97.480323
3522.000000	97.472921
3521.000000	97.466914
3520.000000	97.463994
3519.000000	97.464266
3518.000000	97.466324
3517.000000	97.468172
3516.000000	97.468564
3515.000000	97.467385
3514.000000	97.465317
3513.000000	97.462808
3512.000000	97.459694
3511.000000	97.456009
3510.000000	97.453264
3509.000000	97.453801
3508.000000	97.458211
3507.000000	97.464073
3506.000000	97.467976
3505.000000	97.468291
3504.000000	97.465412
3503.000000	97.459954
3502.000000	97.451729
3501.000000	97.440628
3500.000000	97.427737
3499.000000	97.415134
3498.000000	97.404970
3497.000000	97.398531
3496.000000	97.395663
3495.000000	97.394598
3494.000000	97.392817
3493.000000	97.388766
3492.000000	97.383015
3491.000000	97.377684
3490.000000	97.374683
3489.000000	97.374123
3488.000000	97.374343
3487.000000	97.373427
3486.000000	97.370733
3485.000000	97.366827
3484.000000	97.362368
3483.000000	97.357536
3482.000000	97.352853
3481.000000	97.349806
3480.000000	97.349605
3479.000000	97.351504
3478.000000	97.353185
3477.000000	97.352841
3476.000000	97.349915
3475.000000	97.343951
3474.000000	97.333947
3473.000000	97.319940
3472.000000	97.304693
3471.000000	97.292543
3470.000000	97.286151
3469.000000	97.284819
3468.000000	97.285734
3467.000000	97.286172
3466.000000	97.284380
3465.000000	97.279497
3464.000000	97.271920
3463.000000	97.263666
3462.000000	97.257406
3461.000000	97.254150
3460.000000	97.252062
3459.000000	97.248045
3458.000000	97.240814
3457.000000	97.232403
3456.000000	97.226541
3455.000000	97.225208
3454.000000	97.226940
3453.000000	97.228118
3452.000000	97.225684
3451.000000	97.218491
3450.000000	97.207148
3449.000000	97.193515
3448.000000	97.180251
3447.000000	97.169909
3446.000000	97.163922
3445.000000	97.162201
3444.000000	97.163205
3443.000000	97.163954
3442.000000	97.160840
3441.000000	97.151979
3440.000000	97.138678
3439.000000	97.124009
3438.000000	97.110442
3437.000000	97.099284
3436.000000	97.091228
3435.000000	97.085630
3434.000000	97.079810
3433.000000	97.070741
3432.000000	97.058269
3431.000000	97.045363
3430.000000	97.034980
3429.000000	97.027652
3428.000000	97.022212
3427.000000	97.017534
3426.000000	97.012654
3425.000000	97.006336
3424.000000	96.997550
3423.000000	96.986219
3422.000000	96.973121
3421.000000	96.959503
3420.000000	96.946900
3419.000000	96.936281
3418.000000	96.926686
3417.000000	96.915603
3416.000000	96.901883
3415.000000	96.888031
3414.000000	96.878396
3413.000000	96.874482
3412.000000	96.872699
3411.000000	96.867379
3410.000000	96.855738
3409.000000	96.839688
3408.000000	96.823419
3407.000000	96.810252
3406.000000	96.801629
3405.000000	96.797590
3404.000000	96.796775
3403.000000	96.796056
3402.000000	96.791595
3401.000000	96.781197
3400.000000	96.765811
3399.000000	96.748612
3398.000000	96.732919
3397.000000	96.720965
3396.000000	96.713911
3395.000000	96.712090
3394.000000	96.714811
3393.000000	96.720226
3392.000000	96.725867
3391.000000	96.729582
3390.000000	96.730058
3389.000000	96.726918
3388.000000	96.720830
3387.000000	96.713337
3386.000000	96.705928
3385.000000	96.698858
3384.000000	96.691217
3383.000000	96.682449
3382.000000	96.673579
3381.000000	96.666462
3380.000000	96.662055
3379.000000	96.659663
3378.000000	96.657710
3377.000000	96.654643
3376.000000	96.649148
3375.000000	96.640399
3374.000000	96.628825
3373.000000	96.616471
3372.000000	96.605926
3371.000000	96.598597
3370.000000	96.593884
3369.000000	96.589762
3368.000000	96.583739
3367.000000	96.573614
3366.000000	96.558390
3365.000000	96.539442
3364.000000	96.520489
3363.000000	96.505382
3362.000000	96.495157
3361.000000	96.487134
3360.000000	96.477085
3359.000000	96.462410
3358.000000	96.443570
3357.000000	96.423278
3356.000000	96.404920
3355.000000	96.391265
3354.000000	96.383350
3353.000000	96.379709
3352.000000	96.376792
3351.000000	96.370953
3350.000000	96.360471
3349.000000	96.345751
3348.000000	96.327913
3347.000000	96.307883
3346.000000	96.286868
3345.000000	96.266718
3344.000000	96.249011
3343.000000	96.233875
3342.000000	96.220472
3341.000000	96.208452
3340.000000	96.198068
3339.000000	96.188661
3338.000000	96.177784
3337.000000	96.162578
3336.000000	96.142008
3335.000000	96.117604
3334.000000	96.092286
3333.000000	96.068771
3332.000000	96.048816
3331.000000	96.033199
3330.000000	96.021997
3329.000000	96.014886
3328.000000	96.011046
3327.000000	96.008604
3326.000000	96.004577
3325.000000	95.996102
3324.000000	95.982431
3323.000000	95.965879
3322.000000	95.950487
3321.000000	95.939185
3320.000000	95.931681
3319.000000	95.924823
3318.000000	95.915203
3317.000000	95.901758
3316.000000	95.886294
3315.000000	95.871843
3314.000000	95.860596
3313.000000	95.852969
3312.000000	95.847858
3311.000000	95.843592
3310.000000	95.838901
3309.000000	95.833322
3308.000000	95.826962
3307.000000	95.820202
3306.000000	95.813716
3305.000000	95.808262
3304.000000	95.803614
3303.000000	95.797671
3302.000000	95.787588
3301.000000	95.772631
3300.000000	95.755860
3299.000000	95.742313
3298.000000	95.735189
3297.000000	95.733571
3296.000000	95.733834
3295.000000	95.733213
3294.000000	95.731866
3293.000000	95.731512
3292.000000	95.732422
3291.000000	95.732402
3290.000000	95.729082
3289.000000	95.722709
3288.000000	95.715991
3287.000000	95.711298
3286.000000	95.708576
3285.000000	95.706024
3284.000000	95.702175
3283.000000	95.697100
3282.000000	95.691952
3281.000000	95.687783
3280.000000	95.685020
3279.000000	95.684056
3278.000000	95.685958
3277.000000	95.691678
3276.000000	95.700159
3275.000000	95.708148
3274.000000	95.713010
3273.000000	95.715322
3272.000000	95.717576
3271.000000	95.720413
3270.000000	95.721528
3269.000000	95.718921
3268.000000	95.714097
3267.000000	95.711254
3266.000000	95.713557
3265.000000	95.720329
3264.000000	95.727546
3263.000000	95.731072
3262.000000	95.730170
3261.000000	95.728462
3260.000000	95.730924
3259.000000	95.739469
3258.000000	95.751668
3257.000000	95.763545
3256.000000	95.772653
3255.000000	95.778546
3254.000000	95.782007
3253.000000	95.785030
3252.000000	95.790323
3251.000000	95.798876
3250.000000	95.808176
3249.000000	95.814270
3248.000000	95.815824
3247.000000	95.815135
3246.000000	95.815190
3245.000000	95.816694
3244.000000	95.818463
3243.000000	95.819654
3242.000000	95.820789
3241.000000	95.823244
3240.000000	95.828381
3239.000000	95.836754
3238.000000	95.847209
3237.000000	95.856813
3236.000000	95.862402
3235.000000	95.862985
3234.000000	95.860832
3233.000000	95.860021
3232.000000	95.863435
3231.000000	95.870551
3230.000000	95.878177
3229.000000	95.883436
3228.000000	95.885961
3227.000000	95.887178
3226.000000	95.888011
3225.000000	95.888255
3224.000000	95.888166
3223.000000	95.889682
3222.000000	95.894990
3221.000000	95.903817
3220.000000	95.912533
3219.000000	95.916678
3218.000000	95.915040
3217.000000	95.911370
3216.000000	95.911706
3215.000000	95.919176
3214.000000	95.931005
3213.000000	95.941170
3212.000000	95.945878
3211.000000	95.946238
3210.000000	95.945903
3209.000000	95.947542
3208.000000	95.951912
3207.000000	95.958969
3206.000000	95.968379
3205.000000	95.978997
3204.000000	95.988766
3203.000000	95.995618
3202.000000	95.998407
3201.000000	95.997353
3200.000000	95.994065
3199.000000	95.991035
3198.000000	95.990493
3197.000000	95.993501
3196.000000	95.999850
3195.000000	96.008211
3194.000000	96.016156
3193.000000	96.021103
3192.000000	96.022506
3191.000000	96.022950
3190.000000	96.025900
3189.000000	96.032103
3188.000000	96.038877
3187.000000	96.043224
3186.000000	96.044886
3185.000000	96.046457
3184.000000	96.051296
3183.000000	96.061671
3182.000000	96.077692
3181.000000	96.096835
3180.000000	96.114752
3179.000000	96.127524
3178.000000	96.133920
3177.000000	96.135644
3176.000000	96.135840
3175.000000	96.137700
3174.000000	96.143688
3173.000000	96.154682
3172.000000	96.168963
3171.000000	96.182576
3170.000000	96.191719
3169.000000	96.195445
3168.000000	96.196435
3167.000000	96.198938
3166.000000	96.205576
3165.000000	96.215693
3164.000000	96.226631
3163.000000	96.236452
3162.000000	96.245232
3161.000000	96.253904
3160.000000	96.262533
3159.000000	96.270201
3158.000000	96.276252
3157.000000	96.281056
3156.000000	96.285633
3155.000000	96.291128
3154.000000	96.298635
3153.000000	96.308639
3152.000000	96.319995
3151.000000	96.330009
3150.000000	96.336511
3149.000000	96.340087
3148.000000	96.343662
3147.000000	96.349661
3146.000000	96.357686
