PE IR       SUBTECH     SPECTRUM    ASCII       PEDS        4.00        
   -1
11771-Hull19-F001_1.ASC
23/09/13
11:11:19.00
23/09/13
11:33:37.00
uco
Sample 001 By uco Date Wednesday, September 13 2023
450.000000
#HDR
-1
-1
#GR
cm-1
%T
1.0
0.0
4000.000000
-1.000000
3551
8
99.129362
87.328554
#DATA
4000.000000	99.042469
3999.000000	99.039873
3998.000000	99.042890
3997.000000	99.048958
3996.000000	99.055186
3995.000000	99.060288
3994.000000	99.029592
3993.000000	99.034687
3992.000000	99.041524
3991.000000	99.049350
3990.000000	99.056303
3989.000000	99.060046
3988.000000	99.058527
3987.000000	99.051375
3986.000000	99.040448
3985.000000	99.028998
3984.000000	99.020040
3983.000000	99.015117
3982.000000	99.013946
3981.000000	99.014959
3980.000000	99.016567
3979.000000	99.018399
3978.000000	99.021185
3977.000000	99.025270
3976.000000	99.029125
3975.000000	99.029624
3974.000000	99.024639
3973.000000	99.015581
3972.000000	99.007191
3971.000000	99.004074
3970.000000	99.006991
3969.000000	99.012149
3968.000000	99.014161
3967.000000	99.010584
3966.000000	99.003776
3965.000000	98.998659
3964.000000	98.998556
3963.000000	99.003042
3962.000000	99.009233
3961.000000	99.014470
3960.000000	99.017869
3959.000000	99.019067
3958.000000	99.017168
3957.000000	99.011579
3956.000000	99.003078
3955.000000	98.994126
3954.000000	98.987689
3953.000000	98.986088
3952.000000	98.990375
3951.000000	98.999914
3950.000000	99.012488
3949.000000	99.023980
3948.000000	99.029720
3947.000000	99.027524
3946.000000	99.018536
3945.000000	99.006355
3944.000000	98.995315
3943.000000	98.987933
3942.000000	98.983896
3941.000000	98.980863
3940.000000	98.976892
3939.000000	98.972330
3938.000000	98.970095
3937.000000	98.973612
3936.000000	98.983077
3935.000000	98.994948
3934.000000	99.004642
3933.000000	99.008898
3932.000000	99.006987
3931.000000	99.000367
3930.000000	98.992056
3929.000000	98.984530
3928.000000	98.978366
3927.000000	98.974276
3926.000000	98.973518
3925.000000	98.976424
3924.000000	98.981558
3923.000000	98.987357
3922.000000	98.993555
3921.000000	99.000824
3920.000000	99.009136
3919.000000	99.016412
3918.000000	99.018369
3917.000000	99.012011
3916.000000	98.999563
3915.000000	98.986695
3914.000000	98.978142
3913.000000	98.975266
3912.000000	98.977039
3911.000000	98.980241
3910.000000	98.981142
3909.000000	98.977847
3908.000000	98.971315
3907.000000	98.965799
3906.000000	98.966791
3905.000000	98.977320
3904.000000	98.994007
3903.000000	99.008180
3902.000000	99.013614
3901.000000	99.010421
3900.000000	99.001777
3899.000000	98.992176
3898.000000	98.985277
3897.000000	98.981863
3896.000000	98.981212
3895.000000	98.982467
3894.000000	98.986010
3893.000000	98.991949
3892.000000	98.997480
3891.000000	98.998098
3890.000000	98.994302
3889.000000	98.990159
3888.000000	98.987977
3887.000000	98.987829
3886.000000	98.988013
3885.000000	98.986349
3884.000000	98.981961
3883.000000	98.974981
3882.000000	98.966951
3881.000000	98.961099
3880.000000	98.959235
3879.000000	98.960225
3878.000000	98.960809
3877.000000	98.957885
3876.000000	98.951231
3875.000000	98.945077
3874.000000	98.945543
3873.000000	98.954286
3872.000000	98.966376
3871.000000	98.974204
3870.000000	98.973797
3869.000000	98.969589
3868.000000	98.969033
3867.000000	98.973034
3866.000000	98.977458
3865.000000	98.980589
3864.000000	98.983929
3863.000000	98.988040
3862.000000	98.991605
3861.000000	98.992338
3860.000000	98.987494
3859.000000	98.976225
3858.000000	98.960284
3857.000000	98.944529
3856.000000	98.935700
3855.000000	98.938380
3854.000000	98.954911
3853.000000	98.971277
3852.000000	98.974540
3851.000000	98.972662
3850.000000	98.972980
3849.000000	98.972913
3848.000000	98.970041
3847.000000	98.964523
3846.000000	98.959331
3845.000000	98.958067
3844.000000	98.961705
3843.000000	98.968013
3842.000000	98.974780
3841.000000	98.980325
3840.000000	98.983306
3839.000000	98.982112
3838.000000	98.975780
3837.000000	98.967831
3836.000000	98.963277
3835.000000	98.963539
3834.000000	98.966912
3833.000000	98.970620
3832.000000	98.971651
3831.000000	98.969297
3830.000000	98.965713
3829.000000	98.964768
3828.000000	98.968677
3827.000000	98.975978
3826.000000	98.983789
3825.000000	98.989829
3824.000000	98.992246
3823.000000	98.987632
3822.000000	98.976337
3821.000000	98.964813
3820.000000	98.958480
3819.000000	98.958634
3818.000000	98.963379
3817.000000	98.969570
3816.000000	98.972436
3815.000000	98.970854
3814.000000	98.969144
3813.000000	98.970569
3812.000000	98.974634
3811.000000	98.978459
3810.000000	98.979722
3809.000000	98.977353
3808.000000	98.971680
3807.000000	98.964569
3806.000000	98.959504
3805.000000	98.958048
3804.000000	98.958688
3803.000000	98.957742
3802.000000	98.954174
3801.000000	98.951050
3800.000000	98.954195
3799.000000	98.963121
3798.000000	98.972055
3797.000000	98.976137
3796.000000	98.974875
3795.000000	98.971628
3794.000000	98.969578
3793.000000	98.969525
3792.000000	98.969857
3791.000000	98.968210
3790.000000	98.963769
3789.000000	98.957905
3788.000000	98.952273
3787.000000	98.947959
3786.000000	98.945617
3785.000000	98.945297
3784.000000	98.946096
3783.000000	98.946511
3782.000000	98.945603
3781.000000	98.944274
3780.000000	98.944962
3779.000000	98.948140
3778.000000	98.952122
3777.000000	98.955312
3776.000000	98.956949
3775.000000	98.956652
3774.000000	98.955731
3773.000000	98.956919
3772.000000	98.961287
3771.000000	98.966542
3770.000000	98.969498
3769.000000	98.970174
3768.000000	98.970595
3767.000000	98.971214
3766.000000	98.970154
3765.000000	98.966701
3764.000000	98.963545
3763.000000	98.963255
3762.000000	98.965024
3761.000000	98.966285
3760.000000	98.966317
3759.000000	98.965342
3758.000000	98.964567
3757.000000	98.966601
3756.000000	98.972812
3755.000000	98.981973
3754.000000	98.993407
3753.000000	99.009206
3752.000000	99.030380
3751.000000	99.049238
3750.000000	99.054895
3749.000000	99.050420
3748.000000	99.044893
3747.000000	99.039501
3746.000000	99.027661
3745.000000	99.003097
3744.000000	98.972923
3743.000000	98.958553
3742.000000	98.969371
3741.000000	98.996558
3740.000000	99.025856
3739.000000	99.046298
3738.000000	99.052119
3737.000000	99.047103
3736.000000	99.041837
3735.000000	99.044072
3734.000000	99.053387
3733.000000	99.061459
3732.000000	99.059694
3731.000000	99.048213
3730.000000	99.034446
3729.000000	99.024904
3728.000000	99.020863
3727.000000	99.020544
3726.000000	99.021768
3725.000000	99.023083
3724.000000	99.022922
3723.000000	99.020521
3722.000000	99.018025
3721.000000	99.017484
3720.000000	99.018894
3719.000000	99.019447
3718.000000	99.016380
3717.000000	99.010285
3716.000000	99.004377
3715.000000	99.000938
3714.000000	98.997637
3713.000000	98.989052
3712.000000	98.973990
3711.000000	98.959814
3710.000000	98.957101
3709.000000	98.969519
3708.000000	98.989725
3707.000000	99.007170
3706.000000	99.016534
3705.000000	99.018049
3704.000000	99.015738
3703.000000	99.014674
3702.000000	99.017452
3701.000000	99.021624
3700.000000	99.022657
3699.000000	99.018518
3698.000000	99.010184
3697.000000	99.000146
3696.000000	98.990483
3695.000000	98.981047
3694.000000	98.970373
3693.000000	98.959511
3692.000000	98.954713
3691.000000	98.963721
3690.000000	98.984291
3689.000000	98.998730
3688.000000	98.994266
3687.000000	98.979605
3686.000000	98.967950
3685.000000	98.963078
3684.000000	98.962295
3683.000000	98.960757
3682.000000	98.955141
3681.000000	98.945902
3680.000000	98.936356
3679.000000	98.929974
3678.000000	98.928414
3677.000000	98.929635
3676.000000	98.930032
3675.000000	98.926384
3674.000000	98.923170
3673.000000	98.923290
3672.000000	98.922416
3671.000000	98.913256
3670.000000	98.895709
3669.000000	98.880722
3668.000000	98.879064
3667.000000	98.888335
3666.000000	98.899553
3665.000000	98.905831
3664.000000	98.904625
3663.000000	98.896251
3662.000000	98.883445
3661.000000	98.870411
3660.000000	98.859594
3659.000000	98.850527
3658.000000	98.841348
3657.000000	98.831508
3656.000000	98.822405
3655.000000	98.816483
3654.000000	98.815373
3653.000000	98.818296
3652.000000	98.824742
3651.000000	98.837110
3650.000000	98.853195
3649.000000	98.853784
3648.000000	98.826934
3647.000000	98.790755
3646.000000	98.765328
3645.000000	98.753338
3644.000000	98.748595
3643.000000	98.744454
3642.000000	98.736998
3641.000000	98.725429
3640.000000	98.709848
3639.000000	98.690886
3638.000000	98.671602
3637.000000	98.656638
3636.000000	98.648717
3635.000000	98.647338
3634.000000	98.651643
3633.000000	98.661592
3632.000000	98.675165
3631.000000	98.685822
3630.000000	98.685532
3629.000000	98.670827
3628.000000	98.648908
3627.000000	98.634455
3626.000000	98.630730
3625.000000	98.631682
3624.000000	98.631151
3623.000000	98.626672
3622.000000	98.618144
3621.000000	98.605557
3620.000000	98.587111
3619.000000	98.561292
3618.000000	98.532440
3617.000000	98.510210
3616.000000	98.498758
3615.000000	98.492864
3614.000000	98.484698
3613.000000	98.472289
3612.000000	98.461487
3611.000000	98.456494
3610.000000	98.452403
3609.000000	98.440605
3608.000000	98.420400
3607.000000	98.400874
3606.000000	98.390397
3605.000000	98.388262
3604.000000	98.386743
3603.000000	98.378695
3602.000000	98.361750
3601.000000	98.338850
3600.000000	98.316311
3599.000000	98.299241
3598.000000	98.287093
3597.000000	98.275590
3596.000000	98.261122
3595.000000	98.243322
3594.000000	98.225270
3593.000000	98.210102
3592.000000	98.198038
3591.000000	98.186531
3590.000000	98.173551
3589.000000	98.159711
3588.000000	98.145176
3587.000000	98.126047
3586.000000	98.103568
3585.000000	98.083746
3584.000000	98.068164
3583.000000	98.054612
3582.000000	98.041564
3581.000000	98.028674
3580.000000	98.015648
3579.000000	98.001377
3578.000000	97.985014
3577.000000	97.967520
3576.000000	97.951516
3575.000000	97.938828
3574.000000	97.928563
3573.000000	97.917733
3572.000000	97.902671
3571.000000	97.881632
3570.000000	97.857020
3569.000000	97.836259
3568.000000	97.825237
3567.000000	97.819220
3566.000000	97.810204
3565.000000	97.800996
3564.000000	97.795267
3563.000000	97.789661
3562.000000	97.779578
3561.000000	97.764459
3560.000000	97.746952
3559.000000	97.729653
3558.000000	97.712759
3557.000000	97.695251
3556.000000	97.676884
3555.000000	97.658677
3554.000000	97.641767
3553.000000	97.626692
3552.000000	97.613214
3551.000000	97.600827
3550.000000	97.588927
3549.000000	97.577009
3548.000000	97.565417
3547.000000	97.554492
3546.000000	97.542855
3545.000000	97.528612
3544.000000	97.511743
3543.000000	97.492952
3542.000000	97.472400
3541.000000	97.449872
3540.000000	97.425582
3539.000000	97.400973
3538.000000	97.378107
3537.000000	97.358413
3536.000000	97.341311
3535.000000	97.325623
3534.000000	97.311413
3533.000000	97.299570
3532.000000	97.290305
3531.000000	97.282687
3530.000000	97.275653
3529.000000	97.268647
3528.000000	97.261137
3527.000000	97.252588
3526.000000	97.242967
3525.000000	97.231820
3524.000000	97.217533
3523.000000	97.199419
3522.000000	97.180220
3521.000000	97.164080
3520.000000	97.151764
3519.000000	97.140147
3518.000000	97.125958
3517.000000	97.108731
3516.000000	97.089868
3515.000000	97.070176
3514.000000	97.050006
3513.000000	97.030511
3512.000000	97.013625
3511.000000	97.000891
3510.000000	96.992180
3509.000000	96.985141
3508.000000	96.976320
3507.000000	96.964104
3506.000000	96.950685
3505.000000	96.940849
3504.000000	96.936948
3503.000000	96.935759
3502.000000	96.932061
3501.000000	96.923485
3500.000000	96.910196
3499.000000	96.892921
3498.000000	96.873810
3497.000000	96.856806
3496.000000	96.845167
3495.000000	96.838606
3494.000000	96.833757
3493.000000	96.826790
3492.000000	96.815137
3491.000000	96.798539
3490.000000	96.779703
3489.000000	96.762652
3488.000000	96.749282
3487.000000	96.738283
3486.000000	96.727917
3485.000000	96.718419
3484.000000	96.710492
3483.000000	96.702811
3482.000000	96.692881
3481.000000	96.680186
3480.000000	96.666705
3479.000000	96.654237
3478.000000	96.642750
3477.000000	96.631753
3476.000000	96.621937
3475.000000	96.614647
3474.000000	96.609828
3473.000000	96.604810
3472.000000	96.595584
3471.000000	96.580284
3470.000000	96.561893
3469.000000	96.546409
3468.000000	96.537620
3467.000000	96.533914
3466.000000	96.529992
3465.000000	96.520847
3464.000000	96.504120
3463.000000	96.480877
3462.000000	96.455798
3461.000000	96.435192
3460.000000	96.422610
3459.000000	96.416151
3458.000000	96.410791
3457.000000	96.403248
3456.000000	96.393622
3455.000000	96.383560
3454.000000	96.374175
3453.000000	96.365515
3452.000000	96.356895
3451.000000	96.347219
3450.000000	96.336182
3449.000000	96.325208
3448.000000	96.316355
3447.000000	96.310089
3446.000000	96.305127
3445.000000	96.299890
3444.000000	96.293014
3443.000000	96.283095
3442.000000	96.269393
3441.000000	96.253070
3440.000000	96.236594
3439.000000	96.221858
3438.000000	96.209309
3437.000000	96.198536
3436.000000	96.188534
3435.000000	96.177876
3434.000000	96.165688
3433.000000	96.152640
3432.000000	96.140728
3431.000000	96.131502
3430.000000	96.124944
3429.000000	96.119321
3428.000000	96.111762
3427.000000	96.099807
3426.000000	96.083269
3425.000000	96.064502
3424.000000	96.046368
3423.000000	96.030507
3422.000000	96.017602
3421.000000	96.007826
3420.000000	96.000043
3419.000000	95.991887
3418.000000	95.981960
3417.000000	95.970975
3416.000000	95.959902
3415.000000	95.948014
3414.000000	95.934089
3413.000000	95.918645
3412.000000	95.903323
3411.000000	95.888761
3410.000000	95.874579
3409.000000	95.860852
3408.000000	95.848028
3407.000000	95.835808
3406.000000	95.823384
3405.000000	95.810613
3404.000000	95.797690
3403.000000	95.784252
3402.000000	95.770162
3401.000000	95.756693
3400.000000	95.745831
3399.000000	95.738419
3398.000000	95.733714
3397.000000	95.730011
3396.000000	95.724726
3395.000000	95.714750
3394.000000	95.698542
3393.000000	95.678040
3392.000000	95.657323
3391.000000	95.639211
3390.000000	95.623924
3389.000000	95.610950
3388.000000	95.600776
3387.000000	95.594095
3386.000000	95.589872
3385.000000	95.585077
3384.000000	95.576742
3383.000000	95.564564
3382.000000	95.551280
3381.000000	95.539820
3380.000000	95.530097
3379.000000	95.519041
3378.000000	95.504131
3377.000000	95.486314
3376.000000	95.469363
3375.000000	95.456746
3374.000000	95.448800
3373.000000	95.441987
3372.000000	95.430795
3371.000000	95.411635
3370.000000	95.385766
3369.000000	95.358178
3368.000000	95.333487
3367.000000	95.313419
3366.000000	95.297792
3365.000000	95.286036
3364.000000	95.276817
3363.000000	95.267437
3362.000000	95.254901
3361.000000	95.237460
3360.000000	95.215046
3359.000000	95.189333
3358.000000	95.163811
3357.000000	95.142353
3356.000000	95.126192
3355.000000	95.112459
3354.000000	95.096562
3353.000000	95.075910
3352.000000	95.051223
3351.000000	95.025187
3350.000000	95.000408
3349.000000	94.977767
3348.000000	94.955991
3347.000000	94.933492
3346.000000	94.910886
3345.000000	94.890783
3344.000000	94.874461
3343.000000	94.859626
3342.000000	94.842445
3341.000000	94.821130
3340.000000	94.796948
3339.000000	94.772654
3338.000000	94.750610
3337.000000	94.731521
3336.000000	94.714077
3335.000000	94.696267
3334.000000	94.677522
3333.000000	94.658826
3332.000000	94.640464
3331.000000	94.621000
3330.000000	94.599234
3329.000000	94.576044
3328.000000	94.553348
3327.000000	94.532269
3326.000000	94.513093
3325.000000	94.495892
3324.000000	94.479923
3323.000000	94.463214
3322.000000	94.444325
3321.000000	94.424099
3320.000000	94.404655
3319.000000	94.387201
3318.000000	94.371491
3317.000000	94.356515
3316.000000	94.340765
3315.000000	94.322817
3314.000000	94.303417
3313.000000	94.286449
3312.000000	94.275806
3311.000000	94.271016
3310.000000	94.267110
3309.000000	94.259104
3308.000000	94.246063
3307.000000	94.230894
3306.000000	94.217137
3305.000000	94.206083
3304.000000	94.195927
3303.000000	94.183308
3302.000000	94.166352
3301.000000	94.146861
3300.000000	94.129261
3299.000000	94.117057
3298.000000	94.110025
3297.000000	94.104394
3296.000000	94.096124
3295.000000	94.084540
3294.000000	94.072711
3293.000000	94.063756
3292.000000	94.057061
3291.000000	94.049230
3290.000000	94.038789
3289.000000	94.028462
3288.000000	94.022126
3287.000000	94.020634
3286.000000	94.021499
3285.000000	94.021801
3284.000000	94.020604
3283.000000	94.019240
3282.000000	94.019787
3281.000000	94.022819
3280.000000	94.026343
3279.000000	94.027731
3278.000000	94.026795
3277.000000	94.026103
3276.000000	94.028186
3275.000000	94.033590
3274.000000	94.041716
3273.000000	94.051563
3272.000000	94.060938
3271.000000	94.066891
3270.000000	94.068500
3269.000000	94.068099
3268.000000	94.068752
3267.000000	94.071591
3266.000000	94.076489
3265.000000	94.083836
3264.000000	94.094090
3263.000000	94.106590
3262.000000	94.120371
3261.000000	94.135435
3260.000000	94.151760
3259.000000	94.167588
3258.000000	94.180141
3257.000000	94.188114
3256.000000	94.192778
3255.000000	94.197149
3254.000000	94.204535
3253.000000	94.217146
3252.000000	94.235102
3251.000000	94.256790
3250.000000	94.280440
3249.000000	94.304539
3248.000000	94.326691
3247.000000	94.343805
3246.000000	94.354516
3245.000000	94.360592
3244.000000	94.365057
3243.000000	94.369665
3242.000000	94.374982
3241.000000	94.381559
3240.000000	94.389711
3239.000000	94.399004
3238.000000	94.408958
3237.000000	94.419473
3236.000000	94.429745
3235.000000	94.438206
3234.000000	94.444743
3233.000000	94.451639
3232.000000	94.460827
3231.000000	94.471126
3230.000000	94.480260
3229.000000	94.488754
3228.000000	94.499630
3227.000000	94.514233
3226.000000	94.530078
3225.000000	94.543212
3224.000000	94.551691
3223.000000	94.556761
3222.000000	94.561710
3221.000000	94.569576
3220.000000	94.580811
3219.000000	94.592768
3218.000000	94.602115
3217.000000	94.607879
3216.000000	94.612030
3215.000000	94.617706
3214.000000	94.627266
3213.000000	94.641204
3212.000000	94.657673
3211.000000	94.673155
3210.000000	94.684654
3209.000000	94.691556
3208.000000	94.695145
3207.000000	94.697043
3206.000000	94.699104
3205.000000	94.704274
3204.000000	94.715759
3203.000000	94.734371
3202.000000	94.757276
3201.000000	94.779699
3200.000000	94.797758
3199.000000	94.810285
3198.000000	94.818855
3197.000000	94.826523
3196.000000	94.835930
3195.000000	94.848030
3194.000000	94.862151
3193.000000	94.876694
3192.000000	94.889701
3191.000000	94.899893
3190.000000	94.908210
3189.000000	94.918007
3188.000000	94.932703
3187.000000	94.952944
3186.000000	94.976339
3185.000000	94.999703
3184.000000	95.021035
3183.000000	95.039713
3182.000000	95.056028
3181.000000	95.071073
3180.000000	95.086461
3179.000000	95.103308
3178.000000	95.121328
3177.000000	95.139127
3176.000000	95.155312
3175.000000	95.169350
3174.000000	95.181558
3173.000000	95.192771
3172.000000	95.204239
3171.000000	95.217554
3170.000000	95.233903
3169.000000	95.252750
3168.000000	95.271690
3167.000000	95.288540
3166.000000	95.303689
3165.000000	95.319650
3164.000000	95.337947
3163.000000	95.357206
3162.000000	95.374783
3161.000000	95.389812
3160.000000	95.403993
3159.000000	95.419747
3158.000000	95.438166
3157.000000	95.458508
3156.000000	95.478912
3155.000000	95.497561
3154.000000	95.513702
3153.000000	95.527827
3152.000000	95.540911
3151.000000	95.553743
3150.000000	95.567111
3149.000000	95.582028
3148.000000	95.599025
3147.000000	95.617236
3146.000000	95.634749
