PE UV       SUBTECH     SPECTRUM    ASCII       PEDS        4.00        
   -1
3S-N10-F030.Sample.Raw.asc
22/03/30
17:11:46.00
22/03/30
17:11:46.00
Administrator

250.000000
1
Lambda 750
750N8071901
PerkinElmer UV WinLab 6.0.4.0738 / 1.61.00 Lambda 900

0
0
3350/servo 860.8/2
0
0
UV/VIS
1
1
1
CommonBeamDepol,150mm sphere / downward view
0
0
0
0
Program
Program
3350/servo 860.8/2
3350/0.2 860.8/0.2
3350/0.2 860.8/0.2
0
1
 
 
 
0
 
860.8
319.2
860.8
Front
100
on
 
 
0
0
0
 
0
 
 
 
0
 
 
0
0
0
0
0
 
 
 
 
0
0


0
0
#HDR
-1
-1
#GR
nm
%R
1.0
0.0
2500.000000
-10.000000
226
8
63.746599
9.065668
#DATA
2500.000000	9.065668
2490.000000	12.668548
2480.000000	12.982160
2470.000000	12.460330
2460.000000	10.769870
2450.000000	12.871425
2440.000000	14.280952
2430.000000	12.532290
2420.000000	14.633399
2410.000000	13.461892
2400.000000	13.577967
2390.000000	15.472964
2380.000000	14.156602
2370.000000	15.316005
2360.000000	15.272737
2350.000000	16.001944
2340.000000	15.175834
2330.000000	14.678901
2320.000000	14.882459
2310.000000	14.324892
2300.000000	13.494681
2290.000000	14.494597
2280.000000	14.155383
2270.000000	13.358357
2260.000000	14.099333
2250.000000	16.126406
2240.000000	17.316217
2230.000000	18.392838
2220.000000	18.135312
2210.000000	17.906556
2200.000000	17.372224
2190.000000	17.376616
2180.000000	16.572677
2170.000000	16.552307
2160.000000	17.161897
2150.000000	17.622203
2140.000000	18.495511
2130.000000	19.194912
2120.000000	20.315186
2110.000000	20.322878
2100.000000	20.719560
2090.000000	20.548465
2080.000000	20.265486
2070.000000	19.679955
2060.000000	18.430618
2050.000000	17.769897
2040.000000	16.891714
2030.000000	17.351536
2020.000000	17.797389
2010.000000	17.919449
2000.000000	17.474375
1990.000000	16.991205
1980.000000	15.736590
1970.000000	14.923876
1960.000000	14.134998
1950.000000	13.784122
1940.000000	13.471525
1930.000000	14.152112
1920.000000	15.460490
1910.000000	17.795643
1900.000000	22.521924
1890.000000	28.002320
1880.000000	33.111965
1870.000000	36.954056
1860.000000	39.364639
1850.000000	39.856789
1840.000000	39.926339
1830.000000	39.588261
1820.000000	39.053422
1810.000000	38.544848
1800.000000	38.081941
1790.000000	37.550608
1780.000000	37.051579
1770.000000	36.383652
1760.000000	35.639392
1750.000000	35.051402
1740.000000	34.428006
1730.000000	33.965756
1720.000000	34.724126
1710.000000	35.942199
1700.000000	36.644055
1690.000000	37.424682
1680.000000	39.269400
1670.000000	41.651287
1660.000000	43.317089
1650.000000	43.977067
1640.000000	43.714589
1630.000000	43.206706
1620.000000	42.499519
1610.000000	41.519786
1600.000000	40.526463
1590.000000	39.632088
1580.000000	38.882563
1570.000000	38.223867
1560.000000	37.644794
1550.000000	37.222623
1540.000000	36.333931
1530.000000	35.205698
1520.000000	34.394992
1510.000000	33.873731
1500.000000	33.581793
1490.000000	33.577792
1480.000000	33.904598
1470.000000	34.385838
1460.000000	34.923862
1450.000000	35.719241
1440.000000	36.946443
1430.000000	38.637177
1420.000000	41.093821
1410.000000	44.207920
1400.000000	47.482470
1390.000000	50.536176
1380.000000	52.647715
1370.000000	53.835350
1360.000000	54.849022
1350.000000	55.837166
1340.000000	56.627464
1330.000000	57.178808
1320.000000	57.872508
1310.000000	58.873393
1300.000000	59.643535
1290.000000	59.951761
1280.000000	59.893935
1270.000000	59.762869
1260.000000	59.548834
1250.000000	59.349284
1240.000000	59.058262
1230.000000	58.715144
1220.000000	58.314314
1210.000000	57.686063
1200.000000	57.139008
1190.000000	56.956764
1180.000000	57.358998
1170.000000	58.359266
1160.000000	59.636953
1150.000000	60.752512
1140.000000	61.641701
1130.000000	62.279060
1120.000000	62.533406
1110.000000	62.618569
1100.000000	62.627438
1090.000000	62.663980
1080.000000	62.568337
1070.000000	62.463209
1060.000000	62.347075
1050.000000	62.234530
1040.000000	62.115801
1030.000000	62.007207
1020.000000	61.997468
1010.000000	62.221635
1000.000000	62.475093
990.000000	62.598384
980.000000	62.654450
970.000000	62.801545
960.000000	62.965712
950.000000	63.086000
940.000000	63.129481
930.000000	63.098336
920.000000	63.007200
910.000000	63.050489
900.000000	63.194608
890.000000	63.485303
880.000000	63.670061
870.000000	63.746599
860.000000	63.502984
850.000000	63.259965
840.000000	63.425178
830.000000	63.436969
820.000000	63.309322
810.000000	63.275254
800.000000	63.269267
790.000000	63.059930
780.000000	63.096620
770.000000	63.011423
760.000000	62.830048
750.000000	62.848355
740.000000	62.703092
730.000000	62.569989
720.000000	62.512270
710.000000	62.381862
700.000000	62.121052
690.000000	61.933714
680.000000	61.653457
670.000000	61.242292
660.000000	60.888040
650.000000	60.530677
640.000000	60.053655
630.000000	59.499269
620.000000	59.018119
610.000000	58.415850
600.000000	57.933311
590.000000	57.499797
580.000000	56.893467
570.000000	56.304890
560.000000	55.794829
550.000000	55.231681
540.000000	54.542700
530.000000	53.856921
520.000000	53.145168
510.000000	52.304013
500.000000	51.253300
490.000000	49.900139
480.000000	48.355309
470.000000	46.521258
460.000000	44.373056
450.000000	41.861935
440.000000	38.905801
430.000000	35.545325
420.000000	32.090867
410.000000	29.544159
400.000000	28.239709
390.000000	27.214712
380.000000	25.833460
370.000000	24.174994
360.000000	22.557721
350.000000	20.899589
340.000000	19.359944
330.000000	17.971958
320.000000	16.720968
310.000000	15.181534
300.000000	12.814334
290.000000	10.792438
280.000000	9.881754
270.000000	9.656834
260.000000	9.803296
250.000000	9.918875
