PE UV       SUBTECH     SPECTRUM    ASCII       PEDS        4.00        
   -1
3S-H10-F027.Sample.Raw.asc
22/03/29
15:35:19.00
22/03/29
15:35:19.00
Administrator

250.000000
1
Lambda 750
750N8071901
PerkinElmer UV WinLab 6.0.4.0738 / 1.61.00 Lambda 900

0
0
3350/servo 860.8/2
0
0
UV/VIS
1
1
1
CommonBeamDepol,150mm sphere / downward view
0
0
0
0
Program
Program
3350/servo 860.8/2
3350/0.2 860.8/0.2
3350/0.2 860.8/0.2
0
1
 
 
 
0
 
860.8
319.2
860.8
Front
100
on
 
 
0
0
0
 
0
 
 
 
0
 
 
0
0
0
0
0
 
 
 
 
0
0


0
0
#HDR
-1
-1
#GR
nm
%R
1.0
0.0
2500.000000
-10.000000
226
8
44.099524
4.626281
#DATA
2500.000000	4.626281
2490.000000	5.261749
2480.000000	5.345135
2470.000000	5.390235
2460.000000	4.970586
2450.000000	6.456232
2440.000000	6.529895
2430.000000	6.791648
2420.000000	7.044004
2410.000000	6.665439
2400.000000	8.266561
2390.000000	7.930809
2380.000000	5.450255
2370.000000	5.968572
2360.000000	8.048147
2350.000000	8.281979
2340.000000	7.457096
2330.000000	7.162308
2320.000000	7.598664
2310.000000	6.654592
2300.000000	6.426174
2290.000000	6.678382
2280.000000	6.931274
2270.000000	7.232397
2260.000000	7.961131
2250.000000	8.417723
2240.000000	9.742286
2230.000000	10.099608
2220.000000	10.588476
2210.000000	10.386705
2200.000000	9.659160
2190.000000	9.218584
2180.000000	10.119446
2170.000000	8.772027
2160.000000	9.713965
2150.000000	10.532131
2140.000000	10.450172
2130.000000	10.959510
2120.000000	11.545412
2110.000000	12.193062
2100.000000	11.832040
2090.000000	11.815998
2080.000000	11.927155
2070.000000	11.529020
2060.000000	11.016675
2050.000000	9.855939
2040.000000	9.721593
2030.000000	9.919006
2020.000000	10.443384
2010.000000	10.356226
2000.000000	10.214674
1990.000000	9.613257
1980.000000	8.841918
1970.000000	8.621668
1960.000000	7.894460
1950.000000	7.699871
1940.000000	7.683802
1930.000000	8.031044
1920.000000	8.743753
1910.000000	10.382726
1900.000000	13.106905
1890.000000	16.755652
1880.000000	20.069714
1870.000000	22.749830
1860.000000	24.088268
1850.000000	24.731599
1840.000000	24.613060
1830.000000	24.302219
1820.000000	23.846505
1810.000000	23.418551
1800.000000	23.028029
1790.000000	22.707944
1780.000000	22.367205
1770.000000	21.613309
1760.000000	20.997889
1750.000000	20.595732
1740.000000	20.086766
1730.000000	19.510017
1720.000000	19.838473
1710.000000	20.877936
1700.000000	21.902998
1690.000000	22.948670
1680.000000	24.536391
1670.000000	26.434446
1660.000000	27.655628
1650.000000	28.231513
1640.000000	28.110340
1630.000000	27.783110
1620.000000	27.234879
1610.000000	26.588085
1600.000000	25.990003
1590.000000	25.469842
1580.000000	24.933933
1570.000000	24.373300
1560.000000	23.979653
1550.000000	23.560040
1540.000000	22.908686
1530.000000	22.100041
1520.000000	21.584749
1510.000000	21.281386
1500.000000	21.075469
1490.000000	21.010897
1480.000000	21.239418
1470.000000	21.476866
1460.000000	21.807971
1450.000000	22.355845
1440.000000	23.192995
1430.000000	24.281225
1420.000000	25.760070
1410.000000	27.749343
1400.000000	30.243925
1390.000000	32.739712
1380.000000	34.544359
1370.000000	35.638259
1360.000000	36.535337
1350.000000	37.196465
1340.000000	37.601145
1330.000000	37.821605
1320.000000	38.199330
1310.000000	38.766440
1300.000000	39.247602
1290.000000	39.476188
1280.000000	39.421875
1270.000000	39.321960
1260.000000	39.213889
1250.000000	39.105313
1240.000000	38.738619
1230.000000	38.110780
1220.000000	37.419733
1210.000000	36.849484
1200.000000	36.608596
1190.000000	36.809123
1180.000000	37.387592
1170.000000	38.334028
1160.000000	39.425855
1150.000000	40.349573
1140.000000	41.044859
1130.000000	41.558789
1120.000000	41.902420
1110.000000	42.061023
1100.000000	42.112905
1090.000000	42.078950
1080.000000	41.995319
1070.000000	41.984002
1060.000000	42.004429
1050.000000	41.963579
1040.000000	41.940254
1030.000000	42.006617
1020.000000	42.167062
1010.000000	42.543133
1000.000000	42.891832
990.000000	43.032380
980.000000	43.082858
970.000000	43.218736
960.000000	43.362724
950.000000	43.427712
940.000000	43.425809
930.000000	43.423048
920.000000	43.386853
910.000000	43.359271
900.000000	43.599058
890.000000	43.887740
880.000000	43.884767
870.000000	43.999108
860.000000	44.099524
850.000000	43.378479
840.000000	42.166895
830.000000	42.125283
820.000000	42.175294
810.000000	42.179754
800.000000	42.179193
790.000000	42.102717
780.000000	41.942374
770.000000	41.935477
760.000000	41.843943
750.000000	41.825899
740.000000	41.731384
730.000000	41.615973
720.000000	41.531010
710.000000	41.376185
700.000000	41.210463
690.000000	41.041227
680.000000	40.822535
670.000000	40.467114
660.000000	40.223513
650.000000	40.009855
640.000000	39.632299
630.000000	39.253035
620.000000	38.882473
610.000000	38.545733
600.000000	38.191668
590.000000	37.848886
580.000000	37.496684
570.000000	37.081925
560.000000	36.637720
550.000000	36.165570
540.000000	35.569027
530.000000	34.892870
520.000000	34.131248
510.000000	33.243468
500.000000	32.276422
490.000000	31.216901
480.000000	30.133601
470.000000	28.888203
460.000000	27.350830
450.000000	25.523363
440.000000	23.514182
430.000000	21.265588
420.000000	18.994069
410.000000	17.218525
400.000000	16.133140
390.000000	15.169881
380.000000	14.060883
370.000000	13.042951
360.000000	12.132181
350.000000	11.276649
340.000000	10.455196
330.000000	9.566503
320.000000	8.921232
310.000000	8.389451
300.000000	7.760750
290.000000	7.237416
280.000000	6.920304
270.000000	6.805705
260.000000	6.843075
250.000000	6.956396
