PE UV       SUBTECH     SPECTRUM    ASCII       PEDS        4.00        
   -1
3S-H10-F025.Sample.Raw.asc
22/03/29
15:29:27.00
22/03/29
15:29:27.00
Administrator

250.000000
1
Lambda 750
750N8071901
PerkinElmer UV WinLab 6.0.4.0738 / 1.61.00 Lambda 900

0
0
3350/servo 860.8/2
0
0
UV/VIS
1
1
1
CommonBeamDepol,150mm sphere / downward view
0
0
0
0
Program
Program
3350/servo 860.8/2
3350/0.2 860.8/0.2
3350/0.2 860.8/0.2
0
1
 
 
 
0
 
860.8
319.2
860.8
Front
100
on
 
 
0
0
0
 
0
 
 
 
0
 
 
0
0
0
0
0
 
 
 
 
0
0


0
0
#HDR
-1
-1
#GR
nm
%R
1.0
0.0
2500.000000
-10.000000
226
8
43.971619
3.490085
#DATA
2500.000000	7.613721
2490.000000	3.774565
2480.000000	5.230019
2470.000000	3.490085
2460.000000	6.450646
2450.000000	5.634810
2440.000000	7.060166
2430.000000	8.462261
2420.000000	7.416874
2410.000000	6.371513
2400.000000	8.927747
2390.000000	7.715436
2380.000000	6.848097
2370.000000	6.973961
2360.000000	7.686633
2350.000000	7.177274
2340.000000	7.931464
2330.000000	7.762032
2320.000000	7.040701
2310.000000	6.765133
2300.000000	6.193388
2290.000000	5.635771
2280.000000	7.141563
2270.000000	7.599427
2260.000000	8.548650
2250.000000	8.944417
2240.000000	9.600481
2230.000000	9.638741
2220.000000	10.729401
2210.000000	9.948050
2200.000000	10.047851
2190.000000	9.129784
2180.000000	9.612628
2170.000000	8.901728
2160.000000	10.000414
2150.000000	10.283484
2140.000000	10.564195
2130.000000	11.140721
2120.000000	12.131318
2110.000000	12.075576
2100.000000	11.973716
2090.000000	11.749154
2080.000000	12.098343
2070.000000	11.476616
2060.000000	11.071686
2050.000000	9.993327
2040.000000	9.827390
2030.000000	9.907527
2020.000000	10.329796
2010.000000	10.401502
2000.000000	10.089199
1990.000000	9.717418
1980.000000	9.011906
1970.000000	8.541879
1960.000000	8.044377
1950.000000	7.663821
1940.000000	7.606190
1930.000000	7.881576
1920.000000	9.006641
1910.000000	10.314006
1900.000000	13.117740
1890.000000	16.845252
1880.000000	20.137164
1870.000000	22.808282
1860.000000	24.172431
1850.000000	24.784127
1840.000000	24.551324
1830.000000	24.376177
1820.000000	23.815183
1810.000000	23.455238
1800.000000	23.086296
1790.000000	22.762402
1780.000000	22.349327
1770.000000	21.617023
1760.000000	21.046434
1750.000000	20.647080
1740.000000	20.119477
1730.000000	19.591194
1720.000000	19.800212
1710.000000	20.869141
1700.000000	21.925681
1690.000000	22.931759
1680.000000	24.521104
1670.000000	26.367089
1660.000000	27.646597
1650.000000	28.231977
1640.000000	28.091825
1630.000000	27.734775
1620.000000	27.233029
1610.000000	26.591788
1600.000000	25.976099
1590.000000	25.380768
1580.000000	24.926037
1570.000000	24.425559
1560.000000	24.010735
1550.000000	23.554249
1540.000000	22.939451
1530.000000	22.101890
1520.000000	21.606016
1510.000000	21.313084
1500.000000	21.076395
1490.000000	21.028055
1480.000000	21.258421
1470.000000	21.496772
1460.000000	21.866442
1450.000000	22.408314
1440.000000	23.200159
1430.000000	24.259240
1420.000000	25.772804
1410.000000	27.728055
1400.000000	30.196825
1390.000000	32.666920
1380.000000	34.449611
1370.000000	35.574470
1360.000000	36.432940
1350.000000	37.073189
1340.000000	37.456865
1330.000000	37.705928
1320.000000	38.023440
1310.000000	38.547200
1300.000000	38.977544
1290.000000	39.205204
1280.000000	39.197434
1270.000000	39.081520
1260.000000	38.997392
1250.000000	38.886550
1240.000000	38.512889
1230.000000	37.922866
1220.000000	37.203255
1210.000000	36.667410
1200.000000	36.409362
1190.000000	36.599776
1180.000000	37.170600
1170.000000	38.127562
1160.000000	39.200830
1150.000000	40.084449
1140.000000	40.764645
1130.000000	41.301108
1120.000000	41.630205
1110.000000	41.780231
1100.000000	41.830642
1090.000000	41.783509
1080.000000	41.725138
1070.000000	41.716764
1060.000000	41.741542
1050.000000	41.722961
1040.000000	41.732830
1030.000000	41.843432
1020.000000	41.992371
1010.000000	42.388993
1000.000000	42.777918
990.000000	42.876926
980.000000	42.909578
970.000000	43.056875
960.000000	43.159777
950.000000	43.289000
940.000000	43.279621
930.000000	43.250626
920.000000	43.246565
910.000000	43.290224
900.000000	43.563979
890.000000	43.968097
880.000000	43.962942
870.000000	43.840024
860.000000	43.971619
850.000000	43.165915
840.000000	41.944053
830.000000	41.950578
820.000000	42.039218
810.000000	41.990660
800.000000	42.040338
790.000000	41.938887
780.000000	41.802749
770.000000	41.834077
760.000000	41.711236
750.000000	41.683710
740.000000	41.584498
730.000000	41.464581
720.000000	41.339709
710.000000	41.191092
700.000000	41.065084
690.000000	40.803111
680.000000	40.577390
670.000000	40.321289
660.000000	40.092704
650.000000	39.819850
640.000000	39.456157
630.000000	39.117086
620.000000	38.743294
610.000000	38.358068
600.000000	38.004185
590.000000	37.648383
580.000000	37.316407
570.000000	36.905247
560.000000	36.520312
550.000000	36.056461
540.000000	35.403066
530.000000	34.735466
520.000000	33.948452
510.000000	33.063592
500.000000	32.120135
490.000000	31.097655
480.000000	29.982086
470.000000	28.752557
460.000000	27.256136
450.000000	25.470202
440.000000	23.471849
430.000000	21.215390
420.000000	18.958894
410.000000	17.238738
400.000000	16.148421
390.000000	15.198812
380.000000	14.117038
370.000000	13.046712
360.000000	12.161472
350.000000	11.236635
340.000000	10.360428
330.000000	9.635808
320.000000	9.104778
310.000000	8.462542
300.000000	7.771034
290.000000	7.186859
280.000000	6.912304
270.000000	6.850004
260.000000	6.820290
250.000000	6.897126
