PE UV       SUBTECH     SPECTRUM    ASCII       PEDS        4.00        
   -1
3S-N10-F024.Sample.Raw.asc
22/03/30
16:54:29.00
22/03/30
16:54:29.00
Administrator

250.000000
1
Lambda 750
750N8071901
PerkinElmer UV WinLab 6.0.4.0738 / 1.61.00 Lambda 900

0
0
3350/servo 860.8/2
0
0
UV/VIS
1
1
1
CommonBeamDepol,150mm sphere / downward view
0
0
0
0
Program
Program
3350/servo 860.8/2
3350/0.2 860.8/0.2
3350/0.2 860.8/0.2
0
1
 
 
 
0
 
860.8
319.2
860.8
Front
100
on
 
 
0
0
0
 
0
 
 
 
0
 
 
0
0
0
0
0
 
 
 
 
0
0


0
0
#HDR
-1
-1
#GR
nm
%R
1.0
0.0
2500.000000
-10.000000
226
8
64.220750
9.145883
#DATA
2500.000000	9.145883
2490.000000	10.891523
2480.000000	9.756819
2470.000000	11.615318
2460.000000	11.188191
2450.000000	12.580116
2440.000000	14.726869
2430.000000	12.223835
2420.000000	15.260372
2410.000000	14.272008
2400.000000	13.148755
2390.000000	15.289045
2380.000000	13.982740
2370.000000	15.631176
2360.000000	16.033192
2350.000000	15.705496
2340.000000	14.479974
2330.000000	14.752739
2320.000000	14.987915
2310.000000	14.926280
2300.000000	14.529921
2290.000000	14.745664
2280.000000	14.857311
2270.000000	12.974631
2260.000000	13.932136
2250.000000	16.072614
2240.000000	17.044390
2230.000000	17.813492
2220.000000	18.493841
2210.000000	18.395466
2200.000000	17.284263
2190.000000	17.123477
2180.000000	16.193837
2170.000000	16.185940
2160.000000	17.196224
2150.000000	17.843353
2140.000000	18.457401
2130.000000	20.071098
2120.000000	20.572801
2110.000000	20.746008
2100.000000	20.758439
2090.000000	20.542503
2080.000000	20.612125
2070.000000	19.660884
2060.000000	18.314001
2050.000000	17.591020
2040.000000	16.825561
2030.000000	16.990488
2020.000000	17.898369
2010.000000	17.908432
2000.000000	17.409710
1990.000000	16.942561
1980.000000	15.784920
1970.000000	14.788222
1960.000000	13.918647
1950.000000	13.516616
1940.000000	13.136357
1930.000000	14.009765
1920.000000	15.441130
1910.000000	18.010560
1900.000000	22.615902
1890.000000	28.308560
1880.000000	33.466122
1870.000000	37.654865
1860.000000	39.802926
1850.000000	40.395148
1840.000000	40.508011
1830.000000	40.069244
1820.000000	39.454738
1810.000000	39.033420
1800.000000	38.502832
1790.000000	38.040351
1780.000000	37.520409
1770.000000	36.806148
1760.000000	36.121074
1750.000000	35.588088
1740.000000	34.939463
1730.000000	34.416970
1720.000000	35.077023
1710.000000	36.298282
1700.000000	37.124053
1690.000000	37.863487
1680.000000	39.762250
1670.000000	42.121819
1660.000000	43.797437
1650.000000	44.462328
1640.000000	44.231861
1630.000000	43.677050
1620.000000	42.952447
1610.000000	41.991069
1600.000000	40.974275
1590.000000	40.053844
1580.000000	39.372414
1570.000000	38.669731
1560.000000	38.136485
1550.000000	37.651908
1540.000000	36.717635
1530.000000	35.605975
1520.000000	34.774030
1510.000000	34.242862
1500.000000	33.929477
1490.000000	33.896871
1480.000000	34.222075
1470.000000	34.729068
1460.000000	35.308931
1450.000000	36.135723
1440.000000	37.357276
1430.000000	39.142282
1420.000000	41.573698
1410.000000	44.715902
1400.000000	48.043761
1390.000000	51.058457
1380.000000	53.189659
1370.000000	54.408637
1360.000000	55.415518
1350.000000	56.394249
1340.000000	57.144396
1330.000000	57.765838
1320.000000	58.622544
1310.000000	59.593207
1300.000000	60.168920
1290.000000	60.364726
1280.000000	60.277094
1270.000000	60.185462
1260.000000	60.047685
1250.000000	59.842983
1240.000000	59.592447
1230.000000	59.228426
1220.000000	58.822042
1210.000000	58.220085
1200.000000	57.696994
1190.000000	57.502383
1180.000000	57.959421
1170.000000	58.918213
1160.000000	60.179222
1150.000000	61.286026
1140.000000	62.061171
1130.000000	62.670006
1120.000000	63.006280
1110.000000	63.122022
1100.000000	63.207416
1090.000000	63.226468
1080.000000	63.165564
1070.000000	63.042478
1060.000000	62.895625
1050.000000	62.717521
1040.000000	62.587386
1030.000000	62.548071
1020.000000	62.559909
1010.000000	62.749923
1000.000000	63.016453
990.000000	63.144932
980.000000	63.206338
970.000000	63.297545
960.000000	63.481216
950.000000	63.596376
940.000000	63.646257
930.000000	63.664934
920.000000	63.614044
910.000000	63.731619
900.000000	63.911687
890.000000	64.070256
880.000000	64.219945
870.000000	64.220750
860.000000	64.001212
850.000000	63.745601
840.000000	63.612773
830.000000	63.591875
820.000000	63.566871
810.000000	63.383335
800.000000	63.383036
790.000000	63.370650
780.000000	63.438066
770.000000	63.355344
760.000000	63.218220
750.000000	63.124936
740.000000	63.003517
730.000000	62.909642
720.000000	62.785547
710.000000	62.682128
700.000000	62.497914
690.000000	62.239033
680.000000	61.939287
670.000000	61.616453
660.000000	61.293835
650.000000	60.954383
640.000000	60.495271
630.000000	59.973011
620.000000	59.496070
610.000000	58.984574
600.000000	58.524296
590.000000	58.058628
580.000000	57.482476
570.000000	56.960006
560.000000	56.406971
550.000000	55.875942
540.000000	55.226427
530.000000	54.560503
520.000000	53.879812
510.000000	53.077648
500.000000	52.069868
490.000000	50.795341
480.000000	49.227489
470.000000	47.408969
460.000000	45.306157
450.000000	42.756478
440.000000	39.806193
430.000000	36.395817
420.000000	32.863597
410.000000	30.219672
400.000000	28.822541
390.000000	27.748595
380.000000	26.343878
370.000000	24.645608
360.000000	22.779981
350.000000	20.965462
340.000000	19.298617
330.000000	17.801734
320.000000	16.233451
310.000000	14.755896
300.000000	12.689979
290.000000	10.606243
280.000000	9.837146
270.000000	9.730050
260.000000	9.825717
250.000000	9.848291
