PE UV       SUBTECH     SPECTRUM    ASCII       PEDS        4.00        
   -1
3S-H10-C025.Sample.Cycle1.Raw.asc
22/03/25
17:06:38.00
22/03/25
17:06:38.00
Administrator

250.000000
1
Lambda 750
750N8071901
PerkinElmer UV WinLab 6.0.4.0738 / 1.61.00 Lambda 900

0
0
3350/servo 860.8/2
0
0
UV/VIS
1
1
1
CommonBeamDepol,150mm sphere / downward view
0
0
0
0
Program
Program
3350/servo 860.8/2
3350/0.2 860.8/0.2
3350/0.2 860.8/0.2
0
1
 
 
 
0
 
860.8
319.2
860.8
Front
100
on
 
 
0
0
0
 
0
 
 
 
0
 
 
0
0
0
0
0
 
 
 
 
0
0


0
0
#HDR
-1
-1
#GR
nm
%R
1.0
0.0
2500.000000
-10.000000
226
8
46.965196
7.595540
#DATA
2500.000000	15.535954
2490.000000	19.204382
2480.000000	16.827327
2470.000000	19.244637
2460.000000	18.001802
2450.000000	20.288706
2440.000000	18.128418
2430.000000	19.436067
2420.000000	20.353304
2410.000000	20.062857
2400.000000	20.450120
2390.000000	19.863843
2380.000000	21.445841
2370.000000	20.828996
2360.000000	19.594050
2350.000000	19.698597
2340.000000	19.510578
2330.000000	19.960985
2320.000000	20.477073
2310.000000	19.257065
2300.000000	18.579345
2290.000000	19.802489
2280.000000	19.106036
2270.000000	20.134513
2260.000000	20.595360
2250.000000	21.253909
2240.000000	22.555529
2230.000000	23.449214
2220.000000	23.502896
2210.000000	23.699007
2200.000000	22.778483
2190.000000	23.038040
2180.000000	22.363894
2170.000000	22.435392
2160.000000	22.719667
2150.000000	23.300112
2140.000000	23.756310
2130.000000	25.112896
2120.000000	25.245324
2110.000000	25.438986
2100.000000	25.267613
2090.000000	25.502929
2080.000000	25.323575
2070.000000	24.684127
2060.000000	23.818411
2050.000000	23.336767
2040.000000	22.957835
2030.000000	23.139525
2020.000000	23.622067
2010.000000	23.595824
2000.000000	23.345702
1990.000000	22.793611
1980.000000	21.994379
1970.000000	21.193932
1960.000000	20.719807
1950.000000	20.223867
1940.000000	19.961728
1930.000000	20.579792
1920.000000	21.507861
1910.000000	23.415619
1900.000000	26.000267
1890.000000	28.942370
1880.000000	31.624149
1870.000000	33.453770
1860.000000	34.435212
1850.000000	34.727634
1840.000000	34.725545
1830.000000	34.472526
1820.000000	34.284065
1810.000000	34.026535
1800.000000	33.733000
1790.000000	33.510948
1780.000000	33.189841
1770.000000	32.754070
1760.000000	32.371643
1750.000000	32.102557
1740.000000	31.777903
1730.000000	31.331879
1720.000000	31.636927
1710.000000	32.378188
1700.000000	32.943770
1690.000000	33.536183
1680.000000	34.614434
1670.000000	35.794318
1660.000000	36.627906
1650.000000	36.954922
1640.000000	36.892619
1630.000000	36.631708
1620.000000	36.294280
1610.000000	35.917756
1600.000000	35.481249
1590.000000	35.129238
1580.000000	34.825094
1570.000000	34.460507
1560.000000	34.141040
1550.000000	33.878530
1540.000000	33.479663
1530.000000	32.929021
1520.000000	32.486031
1510.000000	32.271187
1500.000000	32.224967
1490.000000	32.221217
1480.000000	32.338044
1470.000000	32.574702
1460.000000	32.850686
1450.000000	33.258681
1440.000000	33.776707
1430.000000	34.428743
1420.000000	35.194784
1410.000000	36.487409
1400.000000	38.194261
1390.000000	39.950245
1380.000000	41.149978
1370.000000	41.732088
1360.000000	42.108100
1350.000000	42.388430
1340.000000	42.556893
1330.000000	42.778524
1320.000000	43.190711
1310.000000	43.716469
1300.000000	44.106513
1290.000000	44.255165
1280.000000	44.139128
1270.000000	43.976038
1260.000000	43.886066
1250.000000	43.840904
1240.000000	43.662722
1230.000000	43.344434
1220.000000	42.875264
1210.000000	42.569078
1200.000000	42.450193
1190.000000	42.532322
1180.000000	42.852502
1170.000000	43.410034
1160.000000	44.060861
1150.000000	44.586456
1140.000000	44.993360
1130.000000	45.228796
1120.000000	45.382288
1110.000000	45.528825
1100.000000	45.549331
1090.000000	45.568808
1080.000000	45.552929
1070.000000	45.499335
1060.000000	45.448087
1050.000000	45.434428
1040.000000	45.413491
1030.000000	45.443058
1020.000000	45.572464
1010.000000	45.818483
1000.000000	46.111126
990.000000	46.249653
980.000000	46.253664
970.000000	46.307416
960.000000	46.408803
950.000000	46.458127
940.000000	46.452489
930.000000	46.441462
920.000000	46.352097
910.000000	46.370791
900.000000	46.617677
890.000000	46.762102
880.000000	46.655837
870.000000	46.599669
860.000000	46.965196
850.000000	46.394480
840.000000	45.393401
830.000000	45.401743
820.000000	45.436151
810.000000	45.445877
800.000000	45.461237
790.000000	45.404505
780.000000	45.262811
770.000000	45.245151
760.000000	45.208870
750.000000	45.090263
740.000000	45.021439
730.000000	44.949700
720.000000	44.877071
710.000000	44.713822
700.000000	44.591920
690.000000	44.433187
680.000000	44.235079
670.000000	44.080412
660.000000	43.946467
650.000000	43.800677
640.000000	43.527883
630.000000	43.278961
620.000000	43.046341
610.000000	42.785327
600.000000	42.544894
590.000000	42.342860
580.000000	42.080703
570.000000	41.724494
560.000000	41.469355
550.000000	41.125319
540.000000	40.654533
530.000000	40.195050
520.000000	39.663085
510.000000	39.117146
500.000000	38.516597
490.000000	37.875502
480.000000	37.182975
470.000000	36.502360
460.000000	35.736576
450.000000	34.727265
440.000000	33.569464
430.000000	32.258098
420.000000	30.806639
410.000000	29.345396
400.000000	28.084304
390.000000	26.919765
380.000000	25.684020
370.000000	24.386683
360.000000	23.031212
350.000000	21.771014
340.000000	20.256803
330.000000	18.637872
320.000000	17.562875
310.000000	15.986379
300.000000	13.436329
290.000000	10.824493
280.000000	9.088164
270.000000	8.675860
260.000000	8.410123
250.000000	7.595540
