PE UV       SUBTECH     SPECTRUM    ASCII       PEDS        4.00        
   -1
3S-H10-F023.Sample.Raw.asc
22/03/29
15:23:38.00
22/03/29
15:23:38.00
Administrator

250.000000
1
Lambda 750
750N8071901
PerkinElmer UV WinLab 6.0.4.0738 / 1.61.00 Lambda 900

0
0
3350/servo 860.8/2
0
0
UV/VIS
1
1
1
CommonBeamDepol,150mm sphere / downward view
0
0
0
0
Program
Program
3350/servo 860.8/2
3350/0.2 860.8/0.2
3350/0.2 860.8/0.2
0
1
 
 
 
0
 
860.8
319.2
860.8
Front
100
on
 
 
0
0
0
 
0
 
 
 
0
 
 
0
0
0
0
0
 
 
 
 
0
0


0
0
#HDR
-1
-1
#GR
nm
%R
1.0
0.0
2500.000000
-10.000000
226
8
44.367588
4.592459
#DATA
2500.000000	5.708232
2490.000000	4.592459
2480.000000	4.604651
2470.000000	5.757000
2460.000000	5.430193
2450.000000	5.133269
2440.000000	5.974718
2430.000000	6.918810
2420.000000	6.705093
2410.000000	7.960020
2400.000000	7.610452
2390.000000	7.416582
2380.000000	6.764484
2370.000000	6.854962
2360.000000	6.966584
2350.000000	7.403273
2340.000000	7.050038
2330.000000	8.133615
2320.000000	7.334900
2310.000000	7.406223
2300.000000	6.703050
2290.000000	6.242519
2280.000000	7.230770
2270.000000	7.424357
2260.000000	7.515174
2250.000000	8.852937
2240.000000	9.802235
2230.000000	10.376452
2220.000000	10.369720
2210.000000	9.947821
2200.000000	9.756333
2190.000000	9.487059
2180.000000	9.767623
2170.000000	8.698507
2160.000000	9.803077
2150.000000	10.564155
2140.000000	10.469443
2130.000000	11.131915
2120.000000	11.689942
2110.000000	11.887645
2100.000000	11.686914
2090.000000	11.869289
2080.000000	12.392036
2070.000000	11.610615
2060.000000	11.168873
2050.000000	10.163504
2040.000000	9.946297
2030.000000	9.984894
2020.000000	10.303991
2010.000000	10.455326
2000.000000	10.137815
1990.000000	9.681228
1980.000000	9.123213
1970.000000	8.616551
1960.000000	8.095517
1950.000000	7.710873
1940.000000	7.675153
1930.000000	8.035021
1920.000000	8.869512
1910.000000	10.334830
1900.000000	13.153472
1890.000000	16.775922
1880.000000	20.211776
1870.000000	22.936045
1860.000000	24.337069
1850.000000	24.806014
1840.000000	24.778455
1830.000000	24.514677
1820.000000	23.971331
1810.000000	23.544070
1800.000000	23.187571
1790.000000	22.827984
1780.000000	22.363026
1770.000000	21.739585
1760.000000	20.990456
1750.000000	20.670082
1740.000000	20.199051
1730.000000	19.573103
1720.000000	19.846820
1710.000000	20.919365
1700.000000	21.997662
1690.000000	23.082109
1680.000000	24.683708
1670.000000	26.552493
1660.000000	27.797808
1650.000000	28.344587
1640.000000	28.230919
1630.000000	27.880704
1620.000000	27.351451
1610.000000	26.750325
1600.000000	26.139237
1590.000000	25.525050
1580.000000	25.006386
1570.000000	24.504760
1560.000000	24.138075
1550.000000	23.705263
1540.000000	23.046318
1530.000000	22.226664
1520.000000	21.659181
1510.000000	21.387817
1500.000000	21.164427
1490.000000	21.129376
1480.000000	21.349497
1470.000000	21.591443
1460.000000	21.924450
1450.000000	22.505160
1440.000000	23.319875
1430.000000	24.368237
1420.000000	25.870744
1410.000000	27.855087
1400.000000	30.375758
1390.000000	32.861339
1380.000000	34.669233
1370.000000	35.803834
1360.000000	36.670180
1350.000000	37.324802
1340.000000	37.777359
1330.000000	38.003253
1320.000000	38.362641
1310.000000	38.929841
1300.000000	39.410049
1290.000000	39.637538
1280.000000	39.585209
1270.000000	39.495535
1260.000000	39.406610
1250.000000	39.295701
1240.000000	38.899036
1230.000000	38.287022
1220.000000	37.546563
1210.000000	37.019040
1200.000000	36.778458
1190.000000	36.969386
1180.000000	37.552278
1170.000000	38.465373
1160.000000	39.560552
1150.000000	40.511239
1140.000000	41.211215
1130.000000	41.751596
1120.000000	42.095823
1110.000000	42.261944
1100.000000	42.274393
1090.000000	42.242507
1080.000000	42.187112
1070.000000	42.153673
1060.000000	42.197994
1050.000000	42.156748
1040.000000	42.121384
1030.000000	42.198085
1020.000000	42.366868
1010.000000	42.724831
1000.000000	43.109363
990.000000	43.211509
980.000000	43.249678
970.000000	43.417453
960.000000	43.549294
950.000000	43.669631
940.000000	43.656067
930.000000	43.565531
920.000000	43.637416
910.000000	43.742817
900.000000	43.904224
890.000000	44.200833
880.000000	44.367588
870.000000	44.344631
860.000000	44.313045
850.000000	43.702907
840.000000	42.611550
830.000000	42.474486
820.000000	42.532213
810.000000	42.584660
800.000000	42.588732
790.000000	42.440344
780.000000	42.419809
770.000000	42.441638
760.000000	42.380873
750.000000	42.246129
740.000000	42.163774
730.000000	42.045056
720.000000	41.958613
710.000000	41.795103
700.000000	41.677263
690.000000	41.501141
680.000000	41.233545
670.000000	40.919839
660.000000	40.670281
650.000000	40.420638
640.000000	40.045952
630.000000	39.647093
620.000000	39.322202
610.000000	38.943472
600.000000	38.572885
590.000000	38.232859
580.000000	37.849908
570.000000	37.441529
560.000000	37.036909
550.000000	36.569015
540.000000	35.922531
530.000000	35.242537
520.000000	34.451197
510.000000	33.548560
500.000000	32.583779
490.000000	31.524216
480.000000	30.401450
470.000000	29.171374
460.000000	27.612315
450.000000	25.791101
440.000000	23.770958
430.000000	21.516578
420.000000	19.214288
410.000000	17.419806
400.000000	16.299109
390.000000	15.277581
380.000000	14.143440
370.000000	13.134466
360.000000	12.257925
350.000000	11.291784
340.000000	10.488284
330.000000	9.798054
320.000000	9.271461
310.000000	8.564192
300.000000	7.786283
290.000000	7.268235
280.000000	7.003874
270.000000	6.874411
260.000000	6.893726
250.000000	6.944194
