PE UV       SUBTECH     SPECTRUM    ASCII       PEDS        4.00        
   -1
3S-N10-F011.Sample.Raw.asc
22/03/30
16:16:06.00
22/03/30
16:16:06.00
Administrator

250.000000
1
Lambda 750
750N8071901
PerkinElmer UV WinLab 6.0.4.0738 / 1.61.00 Lambda 900

0
0
3350/servo 860.8/2
0
0
UV/VIS
1
1
1
CommonBeamDepol,150mm sphere / downward view
0
0
0
0
Program
Program
3350/servo 860.8/2
3350/0.2 860.8/0.2
3350/0.2 860.8/0.2
0
1
 
 
 
0
 
860.8
319.2
860.8
Front
100
on
 
 
0
0
0
 
0
 
 
 
0
 
 
0
0
0
0
0
 
 
 
 
0
0


0
0
#HDR
-1
-1
#GR
nm
%R
1.0
0.0
2500.000000
-10.000000
226
8
63.232339
8.951663
#DATA
2500.000000	9.555462
2490.000000	14.098560
2480.000000	10.722884
2470.000000	8.951663
2460.000000	10.068375
2450.000000	11.206667
2440.000000	12.669879
2430.000000	11.958354
2420.000000	13.979828
2410.000000	13.410897
2400.000000	13.488053
2390.000000	13.994637
2380.000000	13.270054
2370.000000	13.863704
2360.000000	15.556090
2350.000000	14.223977
2340.000000	14.715181
2330.000000	13.926903
2320.000000	13.551133
2310.000000	13.522883
2300.000000	14.352410
2290.000000	13.516482
2280.000000	13.717985
2270.000000	12.721606
2260.000000	13.916041
2250.000000	15.402833
2240.000000	16.085073
2230.000000	17.293831
2220.000000	17.538242
2210.000000	16.915076
2200.000000	16.918797
2190.000000	16.172826
2180.000000	15.607332
2170.000000	14.860920
2160.000000	15.682208
2150.000000	16.543594
2140.000000	17.843353
2130.000000	19.097027
2120.000000	19.204488
2110.000000	19.100318
2100.000000	19.394833
2090.000000	19.907294
2080.000000	19.768415
2070.000000	19.015120
2060.000000	17.696670
2050.000000	16.737955
2040.000000	15.991842
2030.000000	16.394389
2020.000000	17.261859
2010.000000	17.251463
2000.000000	16.760418
1990.000000	16.052748
1980.000000	14.947598
1970.000000	14.231314
1960.000000	13.356135
1950.000000	12.838608
1940.000000	12.658693
1930.000000	13.297787
1920.000000	14.685626
1910.000000	17.061163
1900.000000	21.733418
1890.000000	27.138712
1880.000000	32.343825
1870.000000	36.306604
1860.000000	38.485428
1850.000000	39.220481
1840.000000	39.286475
1830.000000	38.972995
1820.000000	38.446057
1810.000000	37.925430
1800.000000	37.383022
1790.000000	36.966340
1780.000000	36.365697
1770.000000	35.726274
1760.000000	34.999240
1750.000000	34.389586
1740.000000	33.729448
1730.000000	33.303493
1720.000000	34.031580
1710.000000	35.240380
1700.000000	36.027327
1690.000000	36.728123
1680.000000	38.522075
1670.000000	40.949573
1660.000000	42.642247
1650.000000	43.294768
1640.000000	43.040766
1630.000000	42.481713
1620.000000	41.774930
1610.000000	40.847829
1600.000000	39.913514
1590.000000	38.987063
1580.000000	38.242508
1570.000000	37.491599
1560.000000	36.944200
1550.000000	36.538314
1540.000000	35.625868
1530.000000	34.492546
1520.000000	33.710371
1510.000000	33.137393
1500.000000	32.838577
1490.000000	32.850908
1480.000000	33.163179
1470.000000	33.646539
1460.000000	34.241590
1450.000000	35.015903
1440.000000	36.226765
1430.000000	37.991151
1420.000000	40.405469
1410.000000	43.547903
1400.000000	46.822551
1390.000000	49.790848
1380.000000	51.970045
1370.000000	53.195786
1360.000000	54.220883
1350.000000	55.208565
1340.000000	56.015237
1330.000000	56.582208
1320.000000	57.365314
1310.000000	58.339639
1300.000000	58.995025
1290.000000	59.231775
1280.000000	59.130740
1270.000000	58.995975
1260.000000	58.889279
1250.000000	58.705463
1240.000000	58.417911
1230.000000	58.013539
1220.000000	57.623671
1210.000000	57.030380
1200.000000	56.500662
1190.000000	56.312962
1180.000000	56.713472
1170.000000	57.691284
1160.000000	58.976264
1150.000000	60.102863
1140.000000	60.892614
1130.000000	61.521010
1120.000000	61.872610
1110.000000	62.000061
1100.000000	62.035186
1090.000000	62.037397
1080.000000	62.017176
1070.000000	61.911636
1060.000000	61.750957
1050.000000	61.599508
1040.000000	61.502671
1030.000000	61.453532
1020.000000	61.477773
1010.000000	61.643763
1000.000000	61.837342
990.000000	61.992570
980.000000	62.136608
970.000000	62.251885
960.000000	62.393108
950.000000	62.501251
940.000000	62.592116
930.000000	62.563728
920.000000	62.483841
910.000000	62.660825
900.000000	62.830631
890.000000	62.869726
880.000000	63.090016
870.000000	63.232339
860.000000	63.005831
850.000000	62.836607
840.000000	62.357559
830.000000	62.262214
820.000000	62.411382
810.000000	62.378303
800.000000	62.336443
790.000000	62.257770
780.000000	62.243433
770.000000	62.079609
760.000000	61.910434
750.000000	61.923888
740.000000	61.833553
730.000000	61.572382
720.000000	61.495898
710.000000	61.438294
700.000000	61.189002
690.000000	60.933070
680.000000	60.640620
670.000000	60.335250
660.000000	60.051818
650.000000	59.672261
640.000000	59.203020
630.000000	58.625313
620.000000	58.134425
610.000000	57.632095
600.000000	57.153544
590.000000	56.664079
580.000000	56.091730
570.000000	55.548852
560.000000	55.023619
550.000000	54.441227
540.000000	53.774440
530.000000	53.100878
520.000000	52.398782
510.000000	51.587273
500.000000	50.563418
490.000000	49.208866
480.000000	47.634122
470.000000	45.839930
460.000000	43.736271
450.000000	41.223133
440.000000	38.232250
430.000000	34.868455
420.000000	31.449172
410.000000	28.851953
400.000000	27.561826
390.000000	26.488175
380.000000	25.112555
370.000000	23.453910
360.000000	21.733208
350.000000	20.230223
340.000000	18.503023
330.000000	16.841918
320.000000	15.477213
310.000000	14.094843
300.000000	12.397359
290.000000	10.569623
280.000000	9.791186
270.000000	9.577462
260.000000	9.674495
250.000000	9.859844
