PE UV       SUBTECH     SPECTRUM    ASCII       PEDS        4.00        
   -1
3S-H10-F010.Sample.Raw.asc
22/03/03
15:47:31.00
22/03/03
15:47:31.00
Administrator

250.000000
1
Lambda 750
750N8071901
PerkinElmer UV WinLab 6.0.4.0738 / 1.61.00 Lambda 900

0
0
3350/servo 860.8/2
0
0
UV/VIS
1
1
1
CommonBeamDepol,150mm sphere / downward view
0
0
0
0
Program
Program
3350/servo 860.8/2
3350/0.2 860.8/0.2
3350/0.2 860.8/0.2
0
1
 
 
 
0
 
860.8
319.2
860.8
Front
100
on
 
 
0
0
0
 
0
 
 
 
0
 
 
0
0
0
0
0
 
 
 
 
0
0


0
0
#HDR
-1
-1
#GR
nm
%R
1.0
0.0
2500.000000
-10.000000
226
8
58.529705
2.378101
#DATA
2500.000000	2.378101
2490.000000	16.756382
2480.000000	8.991122
2470.000000	18.454883
2460.000000	13.030293
2450.000000	12.036735
2440.000000	11.583786
2430.000000	15.541909
2420.000000	19.098551
2410.000000	8.511199
2400.000000	15.200636
2390.000000	11.724771
2380.000000	10.510233
2370.000000	12.682923
2360.000000	15.362484
2350.000000	12.540464
2340.000000	12.695973
2330.000000	14.564454
2320.000000	11.490017
2310.000000	14.885881
2300.000000	13.512892
2290.000000	11.381533
2280.000000	14.615806
2270.000000	12.774667
2260.000000	13.475437
2250.000000	13.838634
2240.000000	17.559968
2230.000000	15.409699
2220.000000	16.573610
2210.000000	15.817046
2200.000000	15.531367
2190.000000	15.510452
2180.000000	15.625136
2170.000000	17.930235
2160.000000	16.218734
2150.000000	16.957721
2140.000000	18.768999
2130.000000	18.881494
2120.000000	19.785252
2110.000000	19.434735
2100.000000	21.088963
2090.000000	19.681944
2080.000000	18.823538
2070.000000	19.113444
2060.000000	17.174488
2050.000000	17.428810
2040.000000	15.133080
2030.000000	16.907193
2020.000000	17.027548
2010.000000	17.733485
2000.000000	16.777024
1990.000000	15.835766
1980.000000	15.243706
1970.000000	14.516058
1960.000000	13.242240
1950.000000	12.845289
1940.000000	12.580286
1930.000000	12.850124
1920.000000	15.006731
1910.000000	17.554340
1900.000000	20.471599
1890.000000	25.607284
1880.000000	30.165786
1870.000000	33.833754
1860.000000	35.676389
1850.000000	35.740551
1840.000000	36.145564
1830.000000	35.793543
1820.000000	35.162367
1810.000000	35.119686
1800.000000	34.340179
1790.000000	33.635951
1780.000000	32.725396
1770.000000	32.222848
1760.000000	31.376614
1750.000000	30.761517
1740.000000	30.201964
1730.000000	29.564227
1720.000000	29.971079
1710.000000	31.410163
1700.000000	32.732816
1690.000000	33.945303
1680.000000	36.093578
1670.000000	38.008747
1660.000000	39.429741
1650.000000	40.355947
1640.000000	40.423716
1630.000000	39.860671
1620.000000	39.279582
1610.000000	38.353976
1600.000000	37.387847
1590.000000	36.688989
1580.000000	35.853181
1570.000000	35.260280
1560.000000	34.842392
1550.000000	34.480666
1540.000000	33.775260
1530.000000	32.721509
1520.000000	31.921053
1510.000000	31.224368
1500.000000	30.801709
1490.000000	30.695597
1480.000000	31.085420
1470.000000	31.483966
1460.000000	31.991767
1450.000000	32.675144
1440.000000	33.581916
1430.000000	34.559326
1420.000000	35.911679
1410.000000	38.229098
1400.000000	42.043877
1390.000000	46.173733
1380.000000	48.900759
1370.000000	49.897069
1360.000000	50.671486
1350.000000	51.327363
1340.000000	51.724922
1330.000000	52.471884
1320.000000	53.847409
1310.000000	55.069881
1300.000000	55.489255
1290.000000	55.553574
1280.000000	55.537796
1270.000000	55.294196
1260.000000	55.165539
1250.000000	54.707462
1240.000000	54.169284
1230.000000	53.794382
1220.000000	53.118292
1210.000000	52.408282
1200.000000	51.891364
1190.000000	51.845209
1180.000000	52.500699
1170.000000	53.667877
1160.000000	54.909639
1150.000000	56.059674
1140.000000	57.174535
1130.000000	57.726166
1120.000000	57.881223
1110.000000	57.723796
1100.000000	58.012583
1090.000000	58.168227
1080.000000	58.037988
1070.000000	57.847017
1060.000000	57.623294
1050.000000	57.547764
1040.000000	57.574224
1030.000000	57.544597
1020.000000	57.690273
1010.000000	58.158896
1000.000000	58.529705
990.000000	58.482617
980.000000	58.269523
970.000000	58.277704
960.000000	58.395197
950.000000	58.355796
940.000000	58.095807
930.000000	57.774234
920.000000	57.738619
910.000000	58.040094
900.000000	57.929354
890.000000	57.843407
880.000000	58.142238
870.000000	57.936992
860.000000	57.051667
850.000000	57.310561
840.000000	57.051185
830.000000	56.593640
820.000000	56.577155
810.000000	56.469998
800.000000	56.355326
790.000000	56.157288
780.000000	56.306548
770.000000	56.164347
760.000000	55.984247
750.000000	55.922502
740.000000	55.631383
730.000000	55.229710
720.000000	55.074904
710.000000	54.944543
700.000000	54.628509
690.000000	54.275489
680.000000	53.789554
670.000000	53.389591
660.000000	53.087053
650.000000	52.531927
640.000000	51.952132
630.000000	51.375157
620.000000	50.761883
610.000000	50.114998
600.000000	49.490505
590.000000	48.903715
580.000000	48.171139
570.000000	47.438091
560.000000	46.625241
550.000000	45.814194
540.000000	45.040168
530.000000	44.090435
520.000000	43.196152
510.000000	42.190373
500.000000	41.165341
490.000000	40.136443
480.000000	38.626885
470.000000	36.707976
460.000000	34.700870
450.000000	32.543961
440.000000	29.983458
430.000000	27.194898
420.000000	24.324876
410.000000	22.275307
400.000000	21.245866
390.000000	20.346267
380.000000	19.141111
370.000000	17.900889
360.000000	16.737464
350.000000	15.716526
340.000000	14.785875
330.000000	13.560005
320.000000	12.818680
310.000000	12.059377
300.000000	10.080633
290.000000	9.405671
280.000000	9.039963
270.000000	8.887371
260.000000	8.934431
250.000000	8.951816
