PE UV       SUBTECH     SPECTRUM    ASCII       PEDS        4.00        
   -1
3S-N10-C010.Sample.Raw.asc
22/03/03
16:29:04.00
22/03/03
16:29:04.00
Administrator

250.000000
1
Lambda 750
750N8071901
PerkinElmer UV WinLab 6.0.4.0738 / 1.61.00 Lambda 900

0
0
3350/servo 860.8/2
0
0
UV/VIS
1
1
1
CommonBeamDepol,150mm sphere / downward view
0
0
0
0
Program
Program
3350/servo 860.8/2
3350/0.2 860.8/0.2
3350/0.2 860.8/0.2
0
1
 
 
 
0
 
860.8
319.2
860.8
Front
100
on
 
 
0
0
0
 
0
 
 
 
0
 
 
0
0
0
0
0
 
 
 
 
0
0


0
0
#HDR
-1
-1
#GR
nm
%R
1.0
0.0
2500.000000
-10.000000
226
8
69.756307
18.002014
#DATA
2500.000000	34.671075
2490.000000	30.578402
2480.000000	36.409447
2470.000000	38.307593
2460.000000	39.537235
2450.000000	31.096258
2440.000000	37.265862
2430.000000	36.966602
2420.000000	36.956733
2410.000000	31.006211
2400.000000	42.313721
2390.000000	36.830092
2380.000000	36.974242
2370.000000	36.657997
2360.000000	41.333964
2350.000000	35.658476
2340.000000	35.769029
2330.000000	36.325281
2320.000000	36.252177
2310.000000	37.025598
2300.000000	38.248304
2290.000000	36.758130
2280.000000	37.112487
2270.000000	35.446279
2260.000000	36.978405
2250.000000	37.582434
2240.000000	38.924595
2230.000000	40.315564
2220.000000	42.525125
2210.000000	40.747039
2200.000000	40.477563
2190.000000	37.304864
2180.000000	38.545581
2170.000000	39.375004
2160.000000	38.263243
2150.000000	39.753145
2140.000000	41.974914
2130.000000	42.744408
2120.000000	42.897675
2110.000000	42.914852
2100.000000	44.589627
2090.000000	42.590988
2080.000000	41.789275
2070.000000	42.298250
2060.000000	41.299907
2050.000000	40.689818
2040.000000	39.466952
2030.000000	40.318579
2020.000000	40.891981
2010.000000	40.835943
2000.000000	39.901545
1990.000000	39.181308
1980.000000	38.041405
1970.000000	36.388588
1960.000000	35.450772
1950.000000	35.407450
1940.000000	34.382674
1930.000000	35.965126
1920.000000	37.414394
1910.000000	39.570661
1900.000000	44.065381
1890.000000	48.901071
1880.000000	52.563820
1870.000000	55.531449
1860.000000	56.861545
1850.000000	57.185609
1840.000000	57.350247
1830.000000	56.864992
1820.000000	56.865075
1810.000000	56.799749
1800.000000	56.194489
1790.000000	55.584028
1780.000000	54.838851
1770.000000	54.691168
1760.000000	54.141085
1750.000000	54.074014
1740.000000	53.818794
1730.000000	53.397016
1720.000000	54.006367
1710.000000	54.763925
1700.000000	55.214921
1690.000000	55.739049
1680.000000	56.958866
1670.000000	58.082826
1660.000000	58.973534
1650.000000	59.592974
1640.000000	59.613491
1630.000000	59.035212
1620.000000	58.857268
1610.000000	58.131647
1600.000000	57.538307
1590.000000	56.855645
1580.000000	56.270354
1570.000000	55.946340
1560.000000	55.507711
1550.000000	55.460980
1540.000000	55.250868
1530.000000	54.423612
1520.000000	53.789474
1510.000000	53.364858
1500.000000	52.992305
1490.000000	52.773151
1480.000000	53.181127
1470.000000	53.711373
1460.000000	54.208636
1450.000000	54.712565
1440.000000	55.280564
1430.000000	55.881711
1420.000000	56.514386
1410.000000	57.916758
1400.000000	60.399158
1390.000000	63.431988
1380.000000	65.221847
1370.000000	65.461451
1360.000000	65.626720
1350.000000	65.765713
1340.000000	65.956354
1330.000000	66.652637
1320.000000	67.833672
1310.000000	68.445246
1300.000000	68.478584
1290.000000	68.397863
1280.000000	68.310634
1270.000000	68.314245
1260.000000	68.245592
1250.000000	67.883325
1240.000000	67.635299
1230.000000	67.575614
1220.000000	67.760869
1210.000000	67.742198
1200.000000	67.182818
1190.000000	66.748594
1180.000000	66.800606
1170.000000	67.472394
1160.000000	68.123760
1150.000000	68.719255
1140.000000	69.446227
1130.000000	69.756307
1120.000000	69.670873
1110.000000	69.430403
1100.000000	69.335106
1090.000000	69.334414
1080.000000	69.440858
1070.000000	69.439447
1060.000000	69.390410
1050.000000	69.380711
1040.000000	69.389385
1030.000000	69.322378
1020.000000	69.234676
1010.000000	69.475882
1000.000000	69.661403
990.000000	69.721746
980.000000	69.586040
970.000000	69.589693
960.000000	69.589022
950.000000	69.660636
940.000000	69.440111
930.000000	69.049734
920.000000	68.896178
910.000000	69.207260
900.000000	69.469263
890.000000	68.988819
880.000000	68.639637
870.000000	69.248778
860.000000	68.483364
850.000000	68.504897
840.000000	69.600200
830.000000	69.447951
820.000000	69.123850
810.000000	68.871017
800.000000	68.970899
790.000000	68.928546
780.000000	69.026361
770.000000	69.065279
760.000000	69.044240
750.000000	68.886866
740.000000	68.899223
730.000000	68.600266
720.000000	68.667484
710.000000	68.692324
700.000000	68.525193
690.000000	68.496614
680.000000	68.500071
670.000000	68.209698
660.000000	68.091235
650.000000	68.042426
640.000000	67.904938
630.000000	67.817689
620.000000	67.659382
610.000000	67.431976
600.000000	67.188812
590.000000	66.953198
580.000000	66.678917
570.000000	66.383231
560.000000	66.073636
550.000000	65.758171
540.000000	65.522585
530.000000	65.013236
520.000000	64.600295
510.000000	64.136181
500.000000	63.750026
490.000000	63.608263
480.000000	63.104910
470.000000	61.917602
460.000000	60.904671
450.000000	60.056840
440.000000	58.793092
430.000000	57.226623
420.000000	55.421393
410.000000	53.485248
400.000000	51.879106
390.000000	50.519660
380.000000	49.216410
370.000000	47.760719
360.000000	45.729926
350.000000	43.471255
340.000000	41.532051
330.000000	39.745231
320.000000	37.695742
310.000000	34.900538
300.000000	30.624649
290.000000	25.340207
280.000000	21.057565
270.000000	20.012200
260.000000	19.589164
250.000000	18.002014
