PE UV       SUBTECH     SPECTRUM    ASCII       PEDS        4.00        
   -1
3S-N10-F023.Sample.Raw.asc
22/03/30
16:51:43.00
22/03/30
16:51:43.00
Administrator

250.000000
1
Lambda 750
750N8071901
PerkinElmer UV WinLab 6.0.4.0738 / 1.61.00 Lambda 900

0
0
3350/servo 860.8/2
0
0
UV/VIS
1
1
1
CommonBeamDepol,150mm sphere / downward view
0
0
0
0
Program
Program
3350/servo 860.8/2
3350/0.2 860.8/0.2
3350/0.2 860.8/0.2
0
1
 
 
 
0
 
860.8
319.2
860.8
Front
100
on
 
 
0
0
0
 
0
 
 
 
0
 
 
0
0
0
0
0
 
 
 
 
0
0


0
0
#HDR
-1
-1
#GR
nm
%R
1.0
0.0
2500.000000
-10.000000
226
8
64.042971
10.073832
#DATA
2500.000000	11.058630
2490.000000	11.114734
2480.000000	12.895309
2470.000000	11.175807
2460.000000	11.801938
2450.000000	13.120242
2440.000000	15.854904
2430.000000	14.635130
2420.000000	14.866376
2410.000000	14.434901
2400.000000	13.170810
2390.000000	15.484519
2380.000000	13.483010
2370.000000	13.980264
2360.000000	16.314401
2350.000000	15.328198
2340.000000	14.401651
2330.000000	15.541776
2320.000000	14.818756
2310.000000	15.420209
2300.000000	14.996548
2290.000000	13.798219
2280.000000	15.589159
2270.000000	13.953216
2260.000000	14.079875
2250.000000	16.250890
2240.000000	17.553705
2230.000000	18.261484
2220.000000	18.400676
2210.000000	18.136391
2200.000000	17.400190
2190.000000	17.504025
2180.000000	16.391180
2170.000000	16.428424
2160.000000	17.373144
2150.000000	17.954285
2140.000000	19.280816
2130.000000	20.179487
2120.000000	20.704704
2110.000000	20.972027
2100.000000	21.267913
2090.000000	21.487211
2080.000000	21.117063
2070.000000	19.993182
2060.000000	18.951447
2050.000000	18.105917
2040.000000	17.015184
2030.000000	17.471329
2020.000000	18.288889
2010.000000	18.267932
2000.000000	17.790727
1990.000000	17.281147
1980.000000	16.161172
1970.000000	15.256229
1960.000000	14.232234
1950.000000	13.780961
1940.000000	13.407220
1930.000000	14.411057
1920.000000	15.693530
1910.000000	18.453901
1900.000000	22.904310
1890.000000	28.434363
1880.000000	33.782076
1870.000000	37.710613
1860.000000	39.837673
1850.000000	40.578353
1840.000000	40.746284
1830.000000	40.214280
1820.000000	39.817719
1810.000000	39.207001
1800.000000	38.739974
1790.000000	38.243386
1780.000000	37.697667
1770.000000	37.039824
1760.000000	36.362759
1750.000000	35.684527
1740.000000	35.072866
1730.000000	34.700213
1720.000000	35.365604
1710.000000	36.586757
1700.000000	37.357553
1690.000000	38.080365
1680.000000	39.926373
1670.000000	42.252309
1660.000000	43.914518
1650.000000	44.552307
1640.000000	44.346329
1630.000000	43.811949
1620.000000	43.098615
1610.000000	42.105706
1600.000000	41.137488
1590.000000	40.241746
1580.000000	39.495418
1570.000000	38.767045
1560.000000	38.231309
1550.000000	37.785309
1540.000000	36.915854
1530.000000	35.758450
1520.000000	34.885172
1510.000000	34.403155
1500.000000	34.130009
1490.000000	34.088029
1480.000000	34.432364
1470.000000	34.922659
1460.000000	35.488742
1450.000000	36.358006
1440.000000	37.572532
1430.000000	39.280561
1420.000000	41.687302
1410.000000	44.794922
1400.000000	48.084316
1390.000000	51.025635
1380.000000	53.190854
1370.000000	54.395238
1360.000000	55.384218
1350.000000	56.370808
1340.000000	57.123087
1330.000000	57.725890
1320.000000	58.482241
1310.000000	59.462223
1300.000000	60.092836
1290.000000	60.284487
1280.000000	60.224277
1270.000000	60.090169
1260.000000	59.925005
1250.000000	59.745297
1240.000000	59.517915
1230.000000	59.188225
1220.000000	58.768861
1210.000000	58.185563
1200.000000	57.662180
1190.000000	57.478972
1180.000000	57.879476
1170.000000	58.791363
1160.000000	60.061275
1150.000000	61.147611
1140.000000	61.943889
1130.000000	62.540871
1120.000000	62.866519
1110.000000	62.984523
1100.000000	63.039583
1090.000000	63.031353
1080.000000	63.021957
1070.000000	62.929347
1060.000000	62.759015
1050.000000	62.562450
1040.000000	62.464059
1030.000000	62.439525
1020.000000	62.499042
1010.000000	62.663497
1000.000000	62.862043
990.000000	63.018096
980.000000	63.053585
970.000000	63.170048
960.000000	63.388485
950.000000	63.480836
940.000000	63.554849
930.000000	63.581352
920.000000	63.594294
910.000000	63.667344
900.000000	63.762323
890.000000	63.862934
880.000000	64.013192
870.000000	64.042971
860.000000	63.925984
850.000000	63.836031
840.000000	63.564975
830.000000	63.418001
820.000000	63.574464
810.000000	63.493317
800.000000	63.353799
790.000000	63.281781
780.000000	63.369092
770.000000	63.330195
760.000000	63.220162
750.000000	63.085270
740.000000	62.931563
730.000000	62.702234
720.000000	62.648690
710.000000	62.636068
700.000000	62.374489
690.000000	62.107051
680.000000	61.885158
670.000000	61.569847
660.000000	61.182764
650.000000	60.827601
640.000000	60.430295
630.000000	59.908730
620.000000	59.448297
610.000000	58.928229
600.000000	58.454108
590.000000	58.019481
580.000000	57.463157
570.000000	56.929949
560.000000	56.434616
550.000000	55.901186
540.000000	55.220279
530.000000	54.559181
520.000000	53.823318
510.000000	53.010752
500.000000	52.014971
490.000000	50.718066
480.000000	49.176054
470.000000	47.350317
460.000000	45.235208
450.000000	42.726288
440.000000	39.770892
430.000000	36.447817
420.000000	33.028530
410.000000	30.410663
400.000000	29.060815
390.000000	28.017150
380.000000	26.706359
370.000000	25.024602
360.000000	23.155546
350.000000	21.339023
340.000000	19.848701
330.000000	18.443365
320.000000	17.017138
310.000000	15.481240
300.000000	13.119600
290.000000	11.118580
280.000000	10.291846
270.000000	10.073832
260.000000	10.202301
250.000000	10.258979
