PE UV       SUBTECH     SPECTRUM    ASCII       PEDS        4.00        
   -1
3S-H10-C022.Sample.Cycle1.Raw.asc
22/03/25
16:57:28.00
22/03/25
16:57:28.00
Administrator

250.000000
1
Lambda 750
750N8071901
PerkinElmer UV WinLab 6.0.4.0738 / 1.61.00 Lambda 900

0
0
3350/servo 860.8/2
0
0
UV/VIS
1
1
1
CommonBeamDepol,150mm sphere / downward view
0
0
0
0
Program
Program
3350/servo 860.8/2
3350/0.2 860.8/0.2
3350/0.2 860.8/0.2
0
1
 
 
 
0
 
860.8
319.2
860.8
Front
100
on
 
 
0
0
0
 
0
 
 
 
0
 
 
0
0
0
0
0
 
 
 
 
0
0


0
0
#HDR
-1
-1
#GR
nm
%R
1.0
0.0
2500.000000
-10.000000
226
8
46.409834
7.968400
#DATA
2500.000000	13.634632
2490.000000	16.746311
2480.000000	15.367151
2470.000000	17.032610
2460.000000	17.929213
2450.000000	19.151744
2440.000000	16.505343
2430.000000	17.306623
2420.000000	17.855181
2410.000000	20.136496
2400.000000	19.608026
2390.000000	18.799725
2380.000000	19.839176
2370.000000	20.139492
2360.000000	18.578144
2350.000000	17.922628
2340.000000	18.641182
2330.000000	17.647235
2320.000000	18.296369
2310.000000	18.485358
2300.000000	17.350039
2290.000000	18.416425
2280.000000	18.668612
2270.000000	19.358094
2260.000000	19.160374
2250.000000	20.069294
2240.000000	21.521381
2230.000000	21.625435
2220.000000	22.281698
2210.000000	22.268099
2200.000000	21.438992
2190.000000	21.493231
2180.000000	21.069554
2170.000000	20.954469
2160.000000	21.444116
2150.000000	21.330599
2140.000000	22.042248
2130.000000	23.061661
2120.000000	23.214659
2110.000000	24.208956
2100.000000	24.374312
2090.000000	24.082439
2080.000000	24.125903
2070.000000	23.693619
2060.000000	22.610169
2050.000000	22.202444
2040.000000	21.633318
2030.000000	21.778714
2020.000000	22.160273
2010.000000	22.257220
2000.000000	22.058379
1990.000000	21.450009
1980.000000	20.899340
1970.000000	19.933957
1960.000000	19.327495
1950.000000	18.828143
1940.000000	18.611677
1930.000000	19.198470
1920.000000	20.216669
1910.000000	22.182489
1900.000000	24.729714
1890.000000	27.833789
1880.000000	30.576117
1870.000000	32.452404
1860.000000	33.441065
1850.000000	33.665386
1840.000000	33.740282
1830.000000	33.521911
1820.000000	33.283739
1810.000000	32.988460
1800.000000	32.727529
1790.000000	32.489644
1780.000000	32.124878
1770.000000	31.622146
1760.000000	31.254557
1750.000000	31.029949
1740.000000	30.663765
1730.000000	30.197942
1720.000000	30.401532
1710.000000	31.351452
1700.000000	31.978944
1690.000000	32.597042
1680.000000	33.644316
1670.000000	34.813032
1660.000000	35.675322
1650.000000	36.088721
1640.000000	35.962875
1630.000000	35.682854
1620.000000	35.328875
1610.000000	34.913703
1600.000000	34.458322
1590.000000	34.057705
1580.000000	33.676554
1570.000000	33.390868
1560.000000	33.090405
1550.000000	32.878708
1540.000000	32.497239
1530.000000	31.864936
1520.000000	31.431497
1510.000000	31.184260
1500.000000	31.094821
1490.000000	31.088626
1480.000000	31.232253
1470.000000	31.486573
1460.000000	31.784436
1450.000000	32.101795
1440.000000	32.677420
1430.000000	33.349879
1420.000000	34.178943
1410.000000	35.543077
1400.000000	37.322905
1390.000000	39.150212
1380.000000	40.385894
1370.000000	41.048031
1360.000000	41.467169
1350.000000	41.737971
1340.000000	41.907411
1330.000000	42.130778
1320.000000	42.579634
1310.000000	43.050093
1300.000000	43.341107
1290.000000	43.452130
1280.000000	43.330787
1270.000000	43.239777
1260.000000	43.179709
1250.000000	43.068693
1240.000000	42.890649
1230.000000	42.553831
1220.000000	42.113720
1210.000000	41.826077
1200.000000	41.678583
1190.000000	41.694746
1180.000000	41.998326
1170.000000	42.611981
1160.000000	43.291569
1150.000000	43.855330
1140.000000	44.297372
1130.000000	44.649775
1120.000000	44.839934
1110.000000	44.905946
1100.000000	44.939541
1090.000000	44.946807
1080.000000	44.974033
1070.000000	44.916134
1060.000000	44.888273
1050.000000	44.871320
1040.000000	44.865574
1030.000000	44.898448
1020.000000	45.041607
1010.000000	45.308707
1000.000000	45.605381
990.000000	45.726205
980.000000	45.728857
970.000000	45.777099
960.000000	45.882325
950.000000	45.995872
940.000000	45.995716
930.000000	45.963247
920.000000	45.951295
910.000000	46.032632
900.000000	46.118250
890.000000	46.218546
880.000000	46.341895
870.000000	46.284536
860.000000	46.409834
850.000000	45.624562
840.000000	44.801064
830.000000	44.749840
820.000000	44.705043
810.000000	44.805410
800.000000	44.908153
790.000000	44.856114
780.000000	44.819401
770.000000	44.730795
760.000000	44.651607
750.000000	44.575280
740.000000	44.526942
730.000000	44.477444
720.000000	44.389735
710.000000	44.241427
700.000000	44.156050
690.000000	44.068821
680.000000	43.927673
670.000000	43.869593
660.000000	43.774881
650.000000	43.619949
640.000000	43.401755
630.000000	43.155170
620.000000	42.952288
610.000000	42.739704
600.000000	42.517521
590.000000	42.363015
580.000000	42.137124
570.000000	41.866881
560.000000	41.634970
550.000000	41.331907
540.000000	40.943815
530.000000	40.496240
520.000000	40.006279
510.000000	39.465404
500.000000	38.871164
490.000000	38.318417
480.000000	37.680402
470.000000	36.971738
460.000000	36.147013
450.000000	35.132886
440.000000	34.045227
430.000000	32.693534
420.000000	31.105487
410.000000	29.602769
400.000000	28.354199
390.000000	27.169580
380.000000	25.909752
370.000000	24.666200
360.000000	23.385035
350.000000	22.146741
340.000000	20.600555
330.000000	18.934055
320.000000	17.487180
310.000000	16.303142
300.000000	14.137170
290.000000	11.350904
280.000000	9.487098
270.000000	9.005111
260.000000	8.762148
250.000000	7.968400
