PE UV       SUBTECH     SPECTRUM    ASCII       PEDS        4.00        
   -1
3S-N10-C009.Sample.Raw.asc
22/03/03
16:26:08.00
22/03/03
16:26:08.00
Administrator

250.000000
1
Lambda 750
750N8071901
PerkinElmer UV WinLab 6.0.4.0738 / 1.61.00 Lambda 900

0
0
3350/servo 860.8/2
0
0
UV/VIS
1
1
1
CommonBeamDepol,150mm sphere / downward view
0
0
0
0
Program
Program
3350/servo 860.8/2
3350/0.2 860.8/0.2
3350/0.2 860.8/0.2
0
1
 
 
 
0
 
860.8
319.2
860.8
Front
100
on
 
 
0
0
0
 
0
 
 
 
0
 
 
0
0
0
0
0
 
 
 
 
0
0


0
0
#HDR
-1
-1
#GR
nm
%R
1.0
0.0
2500.000000
-10.000000
226
8
68.577219
17.730536
#DATA
2500.000000	23.195089
2490.000000	32.253481
2480.000000	30.910622
2470.000000	31.708852
2460.000000	33.168138
2450.000000	31.533931
2440.000000	34.865190
2430.000000	37.597582
2420.000000	42.888576
2410.000000	29.754188
2400.000000	39.248023
2390.000000	36.149725
2380.000000	34.804104
2370.000000	33.855706
2360.000000	38.770469
2350.000000	34.498328
2340.000000	35.737703
2330.000000	33.172137
2320.000000	33.769559
2310.000000	38.631883
2300.000000	36.697146
2290.000000	35.657619
2280.000000	36.578484
2270.000000	35.248012
2260.000000	35.173076
2250.000000	36.436388
2240.000000	37.812751
2230.000000	38.369245
2220.000000	38.425129
2210.000000	39.315046
2200.000000	38.326123
2190.000000	39.201783
2180.000000	37.582159
2170.000000	37.747827
2160.000000	37.325256
2150.000000	39.079314
2140.000000	39.788062
2130.000000	41.422576
2120.000000	41.393728
2110.000000	41.768135
2100.000000	42.389657
2090.000000	41.267068
2080.000000	41.653430
2070.000000	40.863374
2060.000000	39.895722
2050.000000	39.530370
2040.000000	37.818528
2030.000000	38.477554
2020.000000	38.790992
2010.000000	38.964741
2000.000000	38.517978
1990.000000	37.890360
1980.000000	36.695229
1970.000000	35.373423
1960.000000	34.335944
1950.000000	33.865986
1940.000000	32.675560
1930.000000	34.301230
1920.000000	35.782750
1910.000000	39.138271
1900.000000	42.979089
1890.000000	47.691992
1880.000000	51.412119
1870.000000	54.468479
1860.000000	56.006676
1850.000000	55.845111
1840.000000	55.818146
1830.000000	55.703179
1820.000000	55.032882
1810.000000	55.156479
1800.000000	54.658162
1790.000000	54.179052
1780.000000	53.881185
1770.000000	53.393245
1760.000000	52.881787
1750.000000	52.531803
1740.000000	52.092884
1730.000000	51.763323
1720.000000	52.153072
1710.000000	53.015300
1700.000000	53.852059
1690.000000	54.513645
1680.000000	55.693552
1670.000000	56.724227
1660.000000	57.572745
1650.000000	58.032150
1640.000000	58.051549
1630.000000	57.801843
1620.000000	57.496073
1610.000000	56.666229
1600.000000	56.152412
1590.000000	55.349054
1580.000000	54.961860
1570.000000	54.605570
1560.000000	54.285235
1550.000000	54.044548
1540.000000	53.809611
1530.000000	52.977438
1520.000000	52.392544
1510.000000	51.862312
1500.000000	51.621545
1490.000000	51.507503
1480.000000	51.867761
1470.000000	52.343488
1460.000000	52.847362
1450.000000	53.395701
1440.000000	53.964239
1430.000000	54.408920
1420.000000	55.131542
1410.000000	56.559871
1400.000000	59.145851
1390.000000	62.150254
1380.000000	63.867146
1370.000000	64.138566
1360.000000	64.434416
1350.000000	64.575463
1340.000000	64.670457
1330.000000	65.357436
1320.000000	66.653563
1310.000000	67.410774
1300.000000	67.508100
1290.000000	67.511461
1280.000000	67.395474
1270.000000	67.222375
1260.000000	67.154599
1250.000000	66.839524
1240.000000	66.530437
1230.000000	66.441585
1220.000000	66.462629
1210.000000	66.364027
1200.000000	65.896262
1190.000000	65.558803
1180.000000	65.640777
1170.000000	66.123576
1160.000000	66.940909
1150.000000	67.503367
1140.000000	67.864124
1130.000000	68.170556
1120.000000	68.256901
1110.000000	68.270085
1100.000000	68.427706
1090.000000	68.369104
1080.000000	68.372492
1070.000000	68.326257
1060.000000	68.321129
1050.000000	68.283636
1040.000000	68.123093
1030.000000	67.970969
1020.000000	67.958782
1010.000000	68.313279
1000.000000	68.476557
990.000000	68.577219
980.000000	68.397374
970.000000	68.416308
960.000000	68.546827
950.000000	68.574236
940.000000	68.358861
930.000000	67.975268
920.000000	67.921434
910.000000	67.959614
900.000000	68.025701
890.000000	68.077785
880.000000	67.826550
870.000000	67.674868
860.000000	67.019943
850.000000	67.409918
840.000000	67.911541
830.000000	68.076171
820.000000	67.817351
810.000000	67.748747
800.000000	67.786652
790.000000	67.654715
780.000000	67.688759
770.000000	67.563903
760.000000	67.575582
750.000000	67.610179
740.000000	67.561165
730.000000	67.435275
720.000000	67.386970
710.000000	67.369188
700.000000	67.387761
690.000000	67.279210
680.000000	67.108280
670.000000	66.851570
660.000000	66.783825
650.000000	66.719485
640.000000	66.546435
630.000000	66.378461
620.000000	66.279775
610.000000	66.095711
600.000000	65.876284
590.000000	65.588709
580.000000	65.367910
570.000000	65.058163
560.000000	64.765069
550.000000	64.377506
540.000000	64.135986
530.000000	63.756451
520.000000	63.372615
510.000000	62.848205
500.000000	62.452102
490.000000	62.237019
480.000000	61.729900
470.000000	60.618490
460.000000	59.705878
450.000000	58.872116
440.000000	57.580229
430.000000	55.976071
420.000000	54.111284
410.000000	52.258399
400.000000	50.576355
390.000000	49.267412
380.000000	47.830232
370.000000	46.387006
360.000000	44.843442
350.000000	42.732874
340.000000	40.812352
330.000000	38.988868
320.000000	36.785478
310.000000	33.937839
300.000000	30.075529
290.000000	24.824704
280.000000	20.771936
270.000000	19.834570
260.000000	19.463780
250.000000	17.730536
