PE UV       SUBTECH     SPECTRUM    ASCII       PEDS        4.00        
   -1
3S-N10-F020.Sample.Raw.asc
22/03/30
16:42:56.00
22/03/30
16:42:56.00
Administrator

250.000000
1
Lambda 750
750N8071901
PerkinElmer UV WinLab 6.0.4.0738 / 1.61.00 Lambda 900

0
0
3350/servo 860.8/2
0
0
UV/VIS
1
1
1
CommonBeamDepol,150mm sphere / downward view
0
0
0
0
Program
Program
3350/servo 860.8/2
3350/0.2 860.8/0.2
3350/0.2 860.8/0.2
0
1
 
 
 
0
 
860.8
319.2
860.8
Front
100
on
 
 
0
0
0
 
0
 
 
 
0
 
 
0
0
0
0
0
 
 
 
 
0
0


0
0
#HDR
-1
-1
#GR
nm
%R
1.0
0.0
2500.000000
-10.000000
226
8
64.258041
8.331092
#DATA
2500.000000	8.331092
2490.000000	14.332259
2480.000000	13.332355
2470.000000	12.607632
2460.000000	10.861021
2450.000000	12.701219
2440.000000	12.648600
2430.000000	14.310202
2420.000000	14.809141
2410.000000	13.372953
2400.000000	14.343083
2390.000000	14.887266
2380.000000	15.054805
2370.000000	15.205960
2360.000000	16.577498
2350.000000	15.795971
2340.000000	14.800646
2330.000000	14.899220
2320.000000	14.619296
2310.000000	16.099272
2300.000000	15.123789
2290.000000	15.304858
2280.000000	14.712936
2270.000000	13.195339
2260.000000	14.318179
2250.000000	16.463677
2240.000000	17.607014
2230.000000	18.713072
2220.000000	18.775013
2210.000000	18.159639
2200.000000	18.555629
2190.000000	17.260484
2180.000000	16.397662
2170.000000	16.329990
2160.000000	17.443719
2150.000000	18.572503
2140.000000	19.340601
2130.000000	20.382418
2120.000000	21.125174
2110.000000	20.654979
2100.000000	21.253125
2090.000000	20.729204
2080.000000	21.143764
2070.000000	20.025363
2060.000000	18.578845
2050.000000	17.924413
2040.000000	17.022110
2030.000000	17.607348
2020.000000	18.278361
2010.000000	18.397026
2000.000000	17.672215
1990.000000	17.075250
1980.000000	16.108975
1970.000000	15.203905
1960.000000	14.449557
1950.000000	13.750319
1940.000000	13.404297
1930.000000	14.435835
1920.000000	15.798313
1910.000000	18.211969
1900.000000	23.028735
1890.000000	28.365591
1880.000000	33.736425
1870.000000	37.678073
1860.000000	39.883682
1850.000000	40.524948
1840.000000	40.909842
1830.000000	40.353103
1820.000000	39.834251
1810.000000	39.345049
1800.000000	38.783265
1790.000000	38.368535
1780.000000	37.787382
1770.000000	37.097218
1760.000000	36.344910
1750.000000	35.744802
1740.000000	35.228904
1730.000000	34.710801
1720.000000	35.401737
1710.000000	36.657011
1700.000000	37.379699
1690.000000	38.154181
1680.000000	39.941271
1670.000000	42.310946
1660.000000	43.956591
1650.000000	44.641323
1640.000000	44.453583
1630.000000	43.903806
1620.000000	43.180594
1610.000000	42.245817
1600.000000	41.243252
1590.000000	40.305503
1580.000000	39.546449
1570.000000	38.858578
1560.000000	38.337685
1550.000000	37.876646
1540.000000	36.989856
1530.000000	35.833848
1520.000000	35.019120
1510.000000	34.490151
1500.000000	34.176415
1490.000000	34.137081
1480.000000	34.485237
1470.000000	34.974300
1460.000000	35.531234
1450.000000	36.377210
1440.000000	37.622926
1430.000000	39.305769
1420.000000	41.714442
1410.000000	44.870098
1400.000000	48.166146
1390.000000	51.180402
1380.000000	53.309135
1370.000000	54.510565
1360.000000	55.532114
1350.000000	56.518390
1340.000000	57.255971
1330.000000	57.878986
1320.000000	58.645490
1310.000000	59.612603
1300.000000	60.255804
1290.000000	60.502381
1280.000000	60.469153
1270.000000	60.326247
1260.000000	60.179692
1250.000000	59.964134
1240.000000	59.724735
1230.000000	59.384445
1220.000000	58.967993
1210.000000	58.391267
1200.000000	57.845552
1190.000000	57.650015
1180.000000	58.086856
1170.000000	59.003492
1160.000000	60.264181
1150.000000	61.354996
1140.000000	62.131398
1130.000000	62.735400
1120.000000	63.099533
1110.000000	63.197150
1100.000000	63.267137
1090.000000	63.283259
1080.000000	63.217272
1070.000000	63.097166
1060.000000	62.925619
1050.000000	62.769446
1040.000000	62.651151
1030.000000	62.588368
1020.000000	62.626352
1010.000000	62.799508
1000.000000	63.032634
990.000000	63.162920
980.000000	63.238775
970.000000	63.349599
960.000000	63.545397
950.000000	63.640954
940.000000	63.676350
930.000000	63.699403
920.000000	63.666559
910.000000	63.645473
900.000000	63.710390
890.000000	63.851257
880.000000	64.183009
870.000000	64.258041
860.000000	64.174883
850.000000	63.956321
840.000000	63.420102
830.000000	63.555836
820.000000	63.654197
810.000000	63.578178
800.000000	63.492356
790.000000	63.462502
780.000000	63.397367
770.000000	63.264420
760.000000	63.255548
750.000000	63.263227
740.000000	63.085037
730.000000	62.949947
720.000000	62.872777
710.000000	62.773590
700.000000	62.507796
690.000000	62.242112
680.000000	61.939727
670.000000	61.648329
660.000000	61.352779
650.000000	60.971771
640.000000	60.569938
630.000000	60.106636
620.000000	59.599322
610.000000	59.078334
600.000000	58.596244
590.000000	58.149457
580.000000	57.595316
570.000000	57.052591
560.000000	56.516454
550.000000	56.003038
540.000000	55.339503
530.000000	54.678208
520.000000	53.983938
510.000000	53.152544
500.000000	52.128099
490.000000	50.856453
480.000000	49.329033
470.000000	47.529579
460.000000	45.427188
450.000000	42.850767
440.000000	39.915147
430.000000	36.547248
420.000000	33.053085
410.000000	30.408061
400.000000	29.072480
390.000000	28.005539
380.000000	26.551803
370.000000	24.821638
360.000000	22.863698
350.000000	21.013408
340.000000	19.459959
330.000000	17.902938
320.000000	16.659108
310.000000	15.278915
300.000000	13.180548
290.000000	11.140587
280.000000	10.349128
270.000000	10.150375
260.000000	10.241580
250.000000	10.257555
