PE UV       SUBTECH     SPECTRUM    ASCII       PEDS        4.00        
   -1
3S-H10-F005.Sample.Raw.asc
22/03/03
15:32:16.00
22/03/03
15:32:16.00
Administrator

250.000000
1
Lambda 750
750N8071901
PerkinElmer UV WinLab 6.0.4.0738 / 1.61.00 Lambda 900

0
0
3350/servo 860.8/2
0
0
UV/VIS
1
1
1
CommonBeamDepol,150mm sphere / downward view
0
0
0
0
Program
Program
3350/servo 860.8/2
3350/0.2 860.8/0.2
3350/0.2 860.8/0.2
0
1
 
 
 
0
 
860.8
319.2
860.8
Front
100
on
 
 
0
0
0
 
0
 
 
 
0
 
 
0
0
0
0
0
 
 
 
 
0
0


0
0
#HDR
-1
-1
#GR
nm
%R
1.0
0.0
2500.000000
-10.000000
226
8
56.491075
1.275827
#DATA
2500.000000	1.275827
2490.000000	12.992531
2480.000000	15.797452
2470.000000	14.659660
2460.000000	11.156914
2450.000000	13.920952
2440.000000	8.134554
2430.000000	12.939485
2420.000000	14.016991
2410.000000	8.427630
2400.000000	9.582837
2390.000000	12.699450
2380.000000	10.073475
2370.000000	7.842266
2360.000000	12.798249
2350.000000	12.477712
2340.000000	12.458474
2330.000000	10.599020
2320.000000	8.008397
2310.000000	12.818154
2300.000000	12.487197
2290.000000	13.165629
2280.000000	13.736866
2270.000000	13.760297
2260.000000	13.975881
2250.000000	14.387949
2240.000000	17.214937
2230.000000	15.333660
2220.000000	16.444653
2210.000000	15.550040
2200.000000	15.598485
2190.000000	14.379780
2180.000000	14.308411
2170.000000	15.541006
2160.000000	14.364421
2150.000000	15.469948
2140.000000	16.254013
2130.000000	17.298263
2120.000000	17.507644
2110.000000	16.452985
2100.000000	18.726570
2090.000000	17.745111
2080.000000	17.608119
2070.000000	17.313549
2060.000000	15.446754
2050.000000	15.040706
2040.000000	14.588694
2030.000000	14.919999
2020.000000	15.174372
2010.000000	15.625586
2000.000000	15.231534
1990.000000	14.401381
1980.000000	13.943747
1970.000000	13.096144
1960.000000	12.120079
1950.000000	12.145357
1940.000000	11.320045
1930.000000	12.613691
1920.000000	13.522887
1910.000000	15.118417
1900.000000	18.926504
1890.000000	24.080566
1880.000000	28.144073
1870.000000	32.037626
1860.000000	33.975396
1850.000000	33.846669
1840.000000	33.958917
1830.000000	33.218264
1820.000000	32.989691
1810.000000	32.914303
1800.000000	32.155703
1790.000000	31.282855
1780.000000	30.419089
1770.000000	29.794453
1760.000000	29.076295
1750.000000	28.690840
1740.000000	27.928690
1730.000000	27.099446
1720.000000	27.612935
1710.000000	29.100603
1700.000000	30.328067
1690.000000	32.035459
1680.000000	34.086879
1670.000000	36.200435
1660.000000	37.394356
1650.000000	38.326657
1640.000000	38.308055
1630.000000	37.849601
1620.000000	37.393782
1610.000000	36.556669
1600.000000	35.546784
1590.000000	34.770121
1580.000000	33.941438
1570.000000	33.482065
1560.000000	32.865265
1550.000000	32.434626
1540.000000	31.869176
1530.000000	30.807155
1520.000000	30.024123
1510.000000	29.490491
1500.000000	29.088805
1490.000000	28.895322
1480.000000	29.272625
1470.000000	29.615884
1460.000000	30.169922
1450.000000	30.809222
1440.000000	31.654310
1430.000000	32.605786
1420.000000	33.915047
1410.000000	36.118792
1400.000000	39.877081
1390.000000	43.912493
1380.000000	46.704459
1370.000000	47.738409
1360.000000	48.554892
1350.000000	49.158365
1340.000000	49.483954
1330.000000	50.057967
1320.000000	51.513893
1310.000000	52.853897
1300.000000	53.372916
1290.000000	53.635141
1280.000000	53.755055
1270.000000	53.408104
1260.000000	53.303736
1250.000000	52.655368
1240.000000	51.714199
1230.000000	51.212341
1220.000000	50.663923
1210.000000	50.037768
1200.000000	49.574970
1190.000000	49.625792
1180.000000	50.348832
1170.000000	51.366392
1160.000000	52.715215
1150.000000	53.902407
1140.000000	54.916992
1130.000000	55.733774
1120.000000	55.844638
1110.000000	55.782650
1100.000000	55.884661
1090.000000	55.923557
1080.000000	55.943819
1070.000000	55.833633
1060.000000	55.598991
1050.000000	55.479648
1040.000000	55.463024
1030.000000	55.384331
1020.000000	55.438240
1010.000000	55.875036
1000.000000	56.300718
990.000000	56.278240
980.000000	56.166551
970.000000	56.209654
960.000000	56.363636
950.000000	56.344045
940.000000	56.096105
930.000000	55.779375
920.000000	55.733792
910.000000	55.965103
900.000000	56.491075
890.000000	56.378544
880.000000	55.806236
870.000000	55.791105
860.000000	55.373339
850.000000	54.915855
840.000000	55.350704
830.000000	55.309517
820.000000	54.909477
810.000000	54.791807
800.000000	54.845838
790.000000	54.769452
780.000000	54.889406
770.000000	54.760670
760.000000	54.457616
750.000000	54.358610
740.000000	54.292655
730.000000	53.950636
720.000000	53.800453
710.000000	53.720643
700.000000	53.355830
690.000000	53.071641
680.000000	52.654751
670.000000	52.281520
660.000000	51.897026
650.000000	51.602767
640.000000	51.172763
630.000000	50.683869
620.000000	50.092288
610.000000	49.506382
600.000000	48.973958
590.000000	48.467212
580.000000	47.806302
570.000000	47.141782
560.000000	46.502293
550.000000	45.745161
540.000000	44.996276
530.000000	44.144584
520.000000	43.245395
510.000000	42.212089
500.000000	41.234082
490.000000	40.174571
480.000000	38.664121
470.000000	36.790011
460.000000	34.866497
450.000000	32.675080
440.000000	29.995368
430.000000	27.154664
420.000000	24.315005
410.000000	21.971872
400.000000	20.545890
390.000000	19.380303
380.000000	18.055743
370.000000	16.724965
360.000000	15.500016
350.000000	14.265076
340.000000	13.194071
330.000000	12.551718
320.000000	12.061870
310.000000	11.155620
300.000000	9.694820
290.000000	9.039814
280.000000	8.744469
270.000000	8.786356
260.000000	8.650035
250.000000	8.752268
