PE UV       SUBTECH     SPECTRUM    ASCII       PEDS        4.00        
   -1
3S-N10-C006.Sample.Raw.asc
22/03/03
16:16:29.00
22/03/03
16:16:29.00
Administrator

250.000000
1
Lambda 750
750N8071901
PerkinElmer UV WinLab 6.0.4.0738 / 1.61.00 Lambda 900

0
0
3350/servo 860.8/2
0
0
UV/VIS
1
1
1
CommonBeamDepol,150mm sphere / downward view
0
0
0
0
Program
Program
3350/servo 860.8/2
3350/0.2 860.8/0.2
3350/0.2 860.8/0.2
0
1
 
 
 
0
 
860.8
319.2
860.8
Front
100
on
 
 
0
0
0
 
0
 
 
 
0
 
 
0
0
0
0
0
 
 
 
 
0
0


0
0
#HDR
-1
-1
#GR
nm
%R
1.0
0.0
2500.000000
-10.000000
226
8
68.041955
17.248372
#DATA
2500.000000	33.007265
2490.000000	30.932598
2480.000000	34.757343
2470.000000	31.965537
2460.000000	37.207654
2450.000000	31.748316
2440.000000	34.290197
2430.000000	34.497711
2420.000000	45.878738
2410.000000	36.575946
2400.000000	37.822083
2390.000000	37.247706
2380.000000	38.688666
2370.000000	34.584806
2360.000000	38.587045
2350.000000	35.950043
2340.000000	36.617030
2330.000000	37.342921
2320.000000	35.236798
2310.000000	37.654970
2300.000000	37.778503
2290.000000	34.658024
2280.000000	35.934794
2270.000000	36.260029
2260.000000	36.765465
2250.000000	35.174351
2240.000000	38.572392
2230.000000	38.895672
2220.000000	40.254314
2210.000000	39.823009
2200.000000	38.767500
2190.000000	37.797608
2180.000000	37.333324
2170.000000	38.390452
2160.000000	37.341141
2150.000000	39.536479
2140.000000	40.622603
2130.000000	41.131505
2120.000000	42.271208
2110.000000	42.268794
2100.000000	42.813844
2090.000000	42.249447
2080.000000	41.994121
2070.000000	41.765481
2060.000000	40.502107
2050.000000	39.167196
2040.000000	38.559883
2030.000000	39.087188
2020.000000	39.483134
2010.000000	39.083811
2000.000000	39.449754
1990.000000	38.777932
1980.000000	37.470656
1970.000000	35.843312
1960.000000	35.141260
1950.000000	34.148453
1940.000000	33.365042
1930.000000	34.479294
1920.000000	35.806164
1910.000000	38.581613
1900.000000	43.417532
1890.000000	47.160642
1880.000000	51.201585
1870.000000	54.037466
1860.000000	55.409798
1850.000000	55.826179
1840.000000	55.928203
1830.000000	55.546531
1820.000000	55.584071
1810.000000	55.525868
1800.000000	54.725693
1790.000000	54.005535
1780.000000	53.367940
1770.000000	53.207514
1760.000000	52.937269
1750.000000	52.504721
1740.000000	52.208771
1730.000000	51.884553
1720.000000	52.351223
1710.000000	53.272730
1700.000000	53.702905
1690.000000	54.296234
1680.000000	55.438154
1670.000000	56.808639
1660.000000	57.428718
1650.000000	57.972315
1640.000000	57.752438
1630.000000	57.557944
1620.000000	57.342637
1610.000000	56.531285
1600.000000	55.910627
1590.000000	55.383955
1580.000000	54.715606
1570.000000	54.442257
1560.000000	54.103505
1550.000000	53.948754
1540.000000	53.765028
1530.000000	53.035869
1520.000000	52.470760
1510.000000	51.809040
1500.000000	51.539285
1490.000000	51.478408
1480.000000	51.771661
1470.000000	52.322343
1460.000000	52.867070
1450.000000	53.137578
1440.000000	53.762175
1430.000000	54.348553
1420.000000	55.037505
1410.000000	56.361641
1400.000000	58.979231
1390.000000	61.755538
1380.000000	63.394745
1370.000000	63.819624
1360.000000	64.017182
1350.000000	64.146623
1340.000000	64.233266
1330.000000	65.007421
1320.000000	66.243380
1310.000000	66.978568
1300.000000	66.998335
1290.000000	66.974270
1280.000000	66.742001
1270.000000	66.628564
1260.000000	66.550551
1250.000000	66.298759
1240.000000	65.973942
1230.000000	65.956205
1220.000000	65.943777
1210.000000	65.864153
1200.000000	65.414635
1190.000000	65.080525
1180.000000	65.286057
1170.000000	65.817492
1160.000000	66.334844
1150.000000	66.885541
1140.000000	67.413345
1130.000000	67.643672
1120.000000	67.792123
1110.000000	67.837424
1100.000000	67.858855
1090.000000	67.915394
1080.000000	67.870411
1070.000000	67.878679
1060.000000	67.860505
1050.000000	67.745123
1040.000000	67.626130
1030.000000	67.447591
1020.000000	67.419930
1010.000000	67.681871
1000.000000	67.969463
990.000000	68.030289
980.000000	67.939185
970.000000	67.813442
960.000000	67.892967
950.000000	68.041955
940.000000	67.947796
930.000000	67.432989
920.000000	67.238712
910.000000	67.414680
900.000000	67.671085
890.000000	67.638654
880.000000	67.484300
870.000000	67.676165
860.000000	66.798639
850.000000	66.730851
840.000000	67.614663
830.000000	67.119784
820.000000	66.738381
810.000000	66.655153
800.000000	66.731584
790.000000	66.912690
780.000000	67.042494
770.000000	66.898619
760.000000	66.703316
750.000000	66.822877
740.000000	66.822348
730.000000	66.415907
720.000000	66.472221
710.000000	66.598260
700.000000	66.446439
690.000000	66.402082
680.000000	66.250076
670.000000	66.064327
660.000000	66.018808
650.000000	65.803811
640.000000	65.603236
630.000000	65.542846
620.000000	65.399332
610.000000	65.175053
600.000000	64.886178
590.000000	64.692906
580.000000	64.407708
570.000000	64.048049
560.000000	63.766864
550.000000	63.444229
540.000000	63.117153
530.000000	62.650079
520.000000	62.252187
510.000000	61.725806
500.000000	61.347472
490.000000	61.242289
480.000000	60.654805
470.000000	59.535225
460.000000	58.611939
450.000000	57.705363
440.000000	56.350162
430.000000	54.877220
420.000000	53.136104
410.000000	51.191459
400.000000	49.529327
390.000000	48.202775
380.000000	46.836332
370.000000	45.295666
360.000000	43.452094
350.000000	41.629624
340.000000	39.772116
330.000000	37.694870
320.000000	35.680489
310.000000	33.186345
300.000000	29.567237
290.000000	24.223118
280.000000	20.202653
270.000000	19.405622
260.000000	19.011246
250.000000	17.248372
