PE UV       SUBTECH     SPECTRUM    ASCII       PEDS        4.00        
   -1
3S-H10-F002.Sample.Raw.asc
22/03/03
15:22:46.00
22/03/03
15:22:46.00
Administrator

250.000000
1
Lambda 750
750N8071901
PerkinElmer UV WinLab 6.0.4.0738 / 1.61.00 Lambda 900

0
0
3350/servo 860.8/2
0
0
UV/VIS
1
1
1
CommonBeamDepol,150mm sphere / downward view
0
0
0
0
Program
Program
3350/servo 860.8/2
3350/0.2 860.8/0.2
3350/0.2 860.8/0.2
0
1
 
 
 
0
 
860.8
319.2
860.8
Front
100
on
 
 
0
0
0
 
0
 
 
 
0
 
 
0
0
0
0
0
 
 
 
 
0
0


0
0
#HDR
-1
-1
#GR
nm
%R
1.0
0.0
2500.000000
-10.000000
226
8
55.982366
6.514495
#DATA
2500.000000	10.042384
2490.000000	14.873407
2480.000000	16.446644
2470.000000	21.973402
2460.000000	12.295776
2450.000000	7.103647
2440.000000	11.712211
2430.000000	11.747227
2420.000000	17.453924
2410.000000	6.665161
2400.000000	15.090114
2390.000000	6.514495
2380.000000	8.292324
2370.000000	14.398975
2360.000000	13.361093
2350.000000	14.342672
2340.000000	13.758159
2330.000000	13.368797
2320.000000	9.688538
2310.000000	13.355529
2300.000000	12.692782
2290.000000	13.367463
2280.000000	15.321556
2270.000000	11.358984
2260.000000	13.198687
2250.000000	13.855413
2240.000000	16.070814
2230.000000	15.213751
2220.000000	15.892079
2210.000000	15.482746
2200.000000	14.717190
2190.000000	13.925164
2180.000000	12.438879
2170.000000	14.454089
2160.000000	15.184709
2150.000000	16.918721
2140.000000	17.105600
2130.000000	17.494666
2120.000000	17.426580
2110.000000	17.524496
2100.000000	17.739702
2090.000000	17.601191
2080.000000	17.133020
2070.000000	17.376185
2060.000000	16.008857
2050.000000	15.657888
2040.000000	14.588694
2030.000000	15.845502
2020.000000	15.999451
2010.000000	15.938776
2000.000000	15.115876
1990.000000	14.671511
1980.000000	13.968689
1970.000000	13.025880
1960.000000	12.389251
1950.000000	12.051446
1940.000000	11.732260
1930.000000	12.321844
1920.000000	13.593128
1910.000000	15.736845
1900.000000	18.947590
1890.000000	23.934921
1880.000000	28.423562
1870.000000	31.757322
1860.000000	33.814334
1850.000000	34.480147
1840.000000	34.544678
1830.000000	33.619314
1820.000000	32.953965
1810.000000	32.850792
1800.000000	32.242318
1790.000000	31.671621
1780.000000	30.837153
1770.000000	30.101567
1760.000000	29.339105
1750.000000	28.814539
1740.000000	28.183786
1730.000000	27.273989
1720.000000	27.959700
1710.000000	29.510151
1700.000000	30.670976
1690.000000	32.101341
1680.000000	34.177363
1670.000000	36.231726
1660.000000	37.483550
1650.000000	38.412031
1640.000000	38.267201
1630.000000	38.012443
1620.000000	37.402550
1610.000000	36.410054
1600.000000	35.619611
1590.000000	34.725040
1580.000000	33.867125
1570.000000	33.334791
1560.000000	32.797390
1550.000000	32.553089
1540.000000	32.028504
1530.000000	31.005821
1520.000000	30.228801
1510.000000	29.487572
1500.000000	29.149954
1490.000000	29.105536
1480.000000	29.445896
1470.000000	29.793796
1460.000000	30.207877
1450.000000	30.893805
1440.000000	31.825120
1430.000000	32.679244
1420.000000	34.103848
1410.000000	36.226318
1400.000000	39.909236
1390.000000	43.870982
1380.000000	46.570006
1370.000000	47.586912
1360.000000	48.349897
1350.000000	49.034380
1340.000000	49.283697
1330.000000	49.863760
1320.000000	51.266151
1310.000000	52.527143
1300.000000	53.121749
1290.000000	53.311192
1280.000000	53.595218
1270.000000	53.264847
1260.000000	52.874603
1250.000000	52.289927
1240.000000	51.381632
1230.000000	50.979624
1220.000000	50.456678
1210.000000	49.949642
1200.000000	49.423306
1190.000000	49.413224
1180.000000	50.137619
1170.000000	51.092528
1160.000000	52.392420
1150.000000	53.653520
1140.000000	54.845510
1130.000000	55.563977
1120.000000	55.670073
1110.000000	55.395877
1100.000000	55.339058
1090.000000	55.365645
1080.000000	55.424425
1070.000000	55.599770
1060.000000	55.517070
1050.000000	55.314228
1040.000000	55.104384
1030.000000	55.012215
1020.000000	55.106042
1010.000000	55.569493
1000.000000	55.979605
990.000000	55.936062
980.000000	55.805805
970.000000	55.749935
960.000000	55.823671
950.000000	55.982366
940.000000	55.695893
930.000000	55.430863
920.000000	55.195082
910.000000	55.345257
900.000000	55.788445
890.000000	55.844377
880.000000	55.558803
870.000000	55.495389
860.000000	54.646745
850.000000	54.650133
840.000000	55.075500
830.000000	54.954961
820.000000	54.775828
810.000000	54.649731
800.000000	54.826166
790.000000	54.625133
780.000000	54.685253
770.000000	54.476878
760.000000	54.334340
750.000000	54.159777
740.000000	53.855807
730.000000	53.613754
720.000000	53.557957
710.000000	53.451290
700.000000	53.122528
690.000000	52.826262
680.000000	52.516112
670.000000	52.148740
660.000000	51.814723
650.000000	51.372163
640.000000	50.887578
630.000000	50.339237
620.000000	49.750081
610.000000	49.234690
600.000000	48.732141
590.000000	48.144696
580.000000	47.488240
570.000000	46.847471
560.000000	46.212534
550.000000	45.449115
540.000000	44.694350
530.000000	43.853117
520.000000	43.013349
510.000000	41.969830
500.000000	40.926446
490.000000	39.907676
480.000000	38.553091
470.000000	36.695200
460.000000	34.743612
450.000000	32.549951
440.000000	29.964269
430.000000	27.100578
420.000000	24.211039
410.000000	22.006606
400.000000	20.707674
390.000000	19.610758
380.000000	18.301159
370.000000	16.981264
360.000000	15.765898
350.000000	14.591051
340.000000	13.434777
330.000000	12.602696
320.000000	12.083958
310.000000	10.970612
300.000000	9.826997
290.000000	9.135908
280.000000	8.789360
270.000000	8.713644
260.000000	8.727379
250.000000	8.815845
