PE UV       SUBTECH     SPECTRUM    ASCII       PEDS        4.00        
   -1
3S-H10-C015.Sample.Cycle1.Raw.asc
22/03/25
16:40:17.00
22/03/25
16:40:17.00
Administrator

250.000000
1
Lambda 750
750N8071901
PerkinElmer UV WinLab 6.0.4.0738 / 1.61.00 Lambda 900

0
0
3350/servo 860.8/2
0
0
UV/VIS
1
1
1
CommonBeamDepol,150mm sphere / downward view
0
0
0
0
Program
Program
3350/servo 860.8/2
3350/0.2 860.8/0.2
3350/0.2 860.8/0.2
0
1
 
 
 
0
 
860.8
319.2
860.8
Front
100
on
 
 
0
0
0
 
0
 
 
 
0
 
 
0
0
0
0
0
 
 
 
 
0
0


0
0
#HDR
-1
-1
#GR
nm
%R
1.0
0.0
2500.000000
-10.000000
226
8
46.490438
7.653219
#DATA
2500.000000	17.698175
2490.000000	18.695129
2480.000000	18.386791
2470.000000	17.644384
2460.000000	19.148245
2450.000000	20.277154
2440.000000	18.784238
2430.000000	20.518988
2420.000000	19.331209
2410.000000	20.864857
2400.000000	20.435982
2390.000000	21.290729
2380.000000	21.930069
2370.000000	21.130115
2360.000000	20.886647
2350.000000	19.819361
2340.000000	19.991281
2330.000000	21.186954
2320.000000	20.044370
2310.000000	20.252379
2300.000000	19.000470
2290.000000	20.282722
2280.000000	20.148491
2270.000000	20.602995
2260.000000	20.541603
2250.000000	22.079187
2240.000000	22.534214
2230.000000	23.337264
2220.000000	23.591075
2210.000000	24.078444
2200.000000	22.975921
2190.000000	23.340320
2180.000000	22.535218
2170.000000	22.469794
2160.000000	23.571634
2150.000000	23.504288
2140.000000	23.950416
2130.000000	24.886874
2120.000000	25.377099
2110.000000	25.627711
2100.000000	25.825611
2090.000000	25.558335
2080.000000	25.359210
2070.000000	24.784640
2060.000000	24.298039
2050.000000	23.805406
2040.000000	23.289596
2030.000000	23.243462
2020.000000	23.524124
2010.000000	23.901369
2000.000000	23.455708
1990.000000	22.884248
1980.000000	22.258523
1970.000000	21.533674
1960.000000	21.148408
1950.000000	20.470610
1940.000000	20.271552
1930.000000	20.799293
1920.000000	21.890109
1910.000000	23.694679
1900.000000	26.270093
1890.000000	28.945133
1880.000000	31.670989
1870.000000	33.513337
1860.000000	34.478825
1850.000000	34.663388
1840.000000	34.702814
1830.000000	34.563410
1820.000000	34.327528
1810.000000	34.047038
1800.000000	33.756528
1790.000000	33.538457
1780.000000	33.323916
1770.000000	32.829485
1760.000000	32.456593
1750.000000	32.198384
1740.000000	31.787615
1730.000000	31.449063
1720.000000	31.647555
1710.000000	32.396432
1700.000000	33.059900
1690.000000	33.648150
1680.000000	34.624362
1670.000000	35.726237
1660.000000	36.534334
1650.000000	36.866313
1640.000000	36.864914
1630.000000	36.636092
1620.000000	36.288054
1610.000000	35.860771
1600.000000	35.423522
1590.000000	35.077464
1580.000000	34.760104
1570.000000	34.446162
1560.000000	34.163237
1550.000000	33.951018
1540.000000	33.582263
1530.000000	33.024185
1520.000000	32.571353
1510.000000	32.335599
1500.000000	32.259830
1490.000000	32.229991
1480.000000	32.395065
1470.000000	32.654502
1460.000000	32.901394
1450.000000	33.272044
1440.000000	33.826978
1430.000000	34.444442
1420.000000	35.190395
1410.000000	36.444286
1400.000000	38.107999
1390.000000	39.817365
1380.000000	41.002068
1370.000000	41.561074
1360.000000	41.918620
1350.000000	42.169698
1340.000000	42.276445
1330.000000	42.470008
1320.000000	42.906489
1310.000000	43.449368
1300.000000	43.823165
1290.000000	43.987717
1280.000000	43.908107
1270.000000	43.728247
1260.000000	43.610582
1250.000000	43.573556
1240.000000	43.425426
1230.000000	43.123561
1220.000000	42.713676
1210.000000	42.408527
1200.000000	42.258318
1190.000000	42.347822
1180.000000	42.685968
1170.000000	43.165425
1160.000000	43.799347
1150.000000	44.318877
1140.000000	44.679417
1130.000000	44.936677
1120.000000	45.065669
1110.000000	45.193394
1100.000000	45.222149
1090.000000	45.207179
1080.000000	45.162411
1070.000000	45.119691
1060.000000	45.080274
1050.000000	45.043462
1040.000000	45.049259
1030.000000	45.091465
1020.000000	45.203298
1010.000000	45.454039
1000.000000	45.743999
990.000000	45.863557
980.000000	45.844129
970.000000	45.936371
960.000000	46.027787
950.000000	46.073352
940.000000	46.032109
930.000000	45.965632
920.000000	45.922589
910.000000	46.037137
900.000000	46.265178
890.000000	46.342400
880.000000	46.440580
870.000000	46.456578
860.000000	46.490438
850.000000	46.100817
840.000000	45.682644
830.000000	45.733382
820.000000	45.651671
810.000000	45.642896
800.000000	45.752603
790.000000	45.613181
780.000000	45.452991
770.000000	45.390634
760.000000	45.343618
750.000000	45.232816
740.000000	45.174413
730.000000	45.030718
720.000000	44.911595
710.000000	44.777300
700.000000	44.654519
690.000000	44.492325
680.000000	44.350621
670.000000	44.243136
660.000000	44.098964
650.000000	43.868423
640.000000	43.598803
630.000000	43.342874
620.000000	43.122347
610.000000	42.802304
600.000000	42.513914
590.000000	42.314432
580.000000	42.047614
570.000000	41.696101
560.000000	41.395231
550.000000	41.050100
540.000000	40.583909
530.000000	40.103375
520.000000	39.569545
510.000000	39.008342
500.000000	38.412175
490.000000	37.807263
480.000000	37.122655
470.000000	36.396850
460.000000	35.611964
450.000000	34.587352
440.000000	33.478262
430.000000	32.204193
420.000000	30.731405
410.000000	29.348522
400.000000	28.197627
390.000000	27.053055
380.000000	25.778417
370.000000	24.558961
360.000000	23.320408
350.000000	21.935810
340.000000	20.516897
330.000000	18.941654
320.000000	17.250512
310.000000	15.753696
300.000000	13.719058
290.000000	10.979300
280.000000	9.112812
270.000000	8.587426
260.000000	8.382886
250.000000	7.653219
