PE UV       SUBTECH     SPECTRUM    ASCII       PEDS        4.00        
   -1
3S-N10-C005.Sample.Raw.asc
22/03/03
16:13:09.00
22/03/03
16:13:09.00
Administrator

250.000000
1
Lambda 750
750N8071901
PerkinElmer UV WinLab 6.0.4.0738 / 1.61.00 Lambda 900

0
0
3350/servo 860.8/2
0
0
UV/VIS
1
1
1
CommonBeamDepol,150mm sphere / downward view
0
0
0
0
Program
Program
3350/servo 860.8/2
3350/0.2 860.8/0.2
3350/0.2 860.8/0.2
0
1
 
 
 
0
 
860.8
319.2
860.8
Front
100
on
 
 
0
0
0
 
0
 
 
 
0
 
 
0
0
0
0
0
 
 
 
 
0
0


0
0
#HDR
-1
-1
#GR
nm
%R
1.0
0.0
2500.000000
-10.000000
226
8
68.496707
17.925443
#DATA
2500.000000	33.808332
2490.000000	29.841312
2480.000000	36.236095
2470.000000	36.621622
2460.000000	32.592471
2450.000000	32.819501
2440.000000	36.031231
2430.000000	35.519017
2420.000000	37.093225
2410.000000	32.138528
2400.000000	38.784267
2390.000000	36.078532
2380.000000	34.779081
2370.000000	33.317032
2360.000000	35.299469
2350.000000	38.082083
2340.000000	35.666307
2330.000000	35.732358
2320.000000	36.140515
2310.000000	36.442225
2300.000000	36.799567
2290.000000	33.936872
2280.000000	35.382750
2270.000000	35.401348
2260.000000	35.179529
2250.000000	35.805369
2240.000000	38.497791
2230.000000	39.190325
2220.000000	39.583588
2210.000000	39.197100
2200.000000	38.196263
2190.000000	38.233892
2180.000000	38.679067
2170.000000	37.977437
2160.000000	37.479782
2150.000000	39.574035
2140.000000	41.347055
2130.000000	42.131886
2120.000000	40.637133
2110.000000	41.449404
2100.000000	42.844298
2090.000000	40.389944
2080.000000	41.303395
2070.000000	41.779880
2060.000000	39.301478
2050.000000	38.629212
2040.000000	38.302589
2030.000000	39.395927
2020.000000	39.112498
2010.000000	39.491535
2000.000000	38.525206
1990.000000	38.094961
1980.000000	37.057632
1970.000000	35.612759
1960.000000	34.726867
1950.000000	34.088291
1940.000000	33.629036
1930.000000	34.966936
1920.000000	36.519550
1910.000000	39.087401
1900.000000	43.408080
1890.000000	47.607825
1880.000000	51.620452
1870.000000	54.477215
1860.000000	55.479762
1850.000000	55.858217
1840.000000	55.605998
1830.000000	55.563211
1820.000000	55.362429
1810.000000	55.455786
1800.000000	54.857084
1790.000000	54.138784
1780.000000	53.613946
1770.000000	53.485379
1760.000000	52.723370
1750.000000	52.585235
1740.000000	52.471885
1730.000000	51.853880
1720.000000	52.310427
1710.000000	53.229581
1700.000000	53.679508
1690.000000	54.421410
1680.000000	55.673120
1670.000000	56.887957
1660.000000	57.656821
1650.000000	58.310895
1640.000000	58.083649
1630.000000	57.919411
1620.000000	57.444197
1610.000000	56.657476
1600.000000	55.945584
1590.000000	55.478481
1580.000000	54.934903
1570.000000	54.565471
1560.000000	54.203493
1550.000000	54.031385
1540.000000	53.794263
1530.000000	53.160766
1520.000000	52.527047
1510.000000	51.927989
1500.000000	51.628825
1490.000000	51.478408
1480.000000	51.994438
1470.000000	52.347863
1460.000000	52.790429
1450.000000	53.376743
1440.000000	54.044919
1430.000000	54.495469
1420.000000	55.178924
1410.000000	56.588399
1400.000000	59.137082
1390.000000	62.023537
1380.000000	63.774120
1370.000000	64.045058
1360.000000	64.325761
1350.000000	64.452208
1340.000000	64.597103
1330.000000	65.328637
1320.000000	66.609800
1310.000000	67.364731
1300.000000	67.421157
1290.000000	67.342799
1280.000000	67.198466
1270.000000	67.178581
1260.000000	67.073812
1250.000000	66.703408
1240.000000	66.396671
1230.000000	66.250979
1220.000000	66.222818
1210.000000	66.290712
1200.000000	65.825238
1190.000000	65.462114
1180.000000	65.602508
1170.000000	66.084766
1160.000000	66.812815
1150.000000	67.414793
1140.000000	67.860477
1130.000000	68.088207
1120.000000	68.273630
1110.000000	68.254789
1100.000000	68.310739
1090.000000	68.374170
1080.000000	68.274384
1070.000000	68.288839
1060.000000	68.261485
1050.000000	68.098164
1040.000000	68.026124
1030.000000	67.837462
1020.000000	67.803615
1010.000000	68.027359
1000.000000	68.298935
990.000000	68.496707
980.000000	68.313753
970.000000	68.236687
960.000000	68.344425
950.000000	68.366783
940.000000	68.198098
930.000000	67.942300
920.000000	67.669414
910.000000	67.662618
900.000000	68.000608
890.000000	67.984716
880.000000	68.385060
870.000000	67.933620
860.000000	66.961739
850.000000	67.349585
840.000000	68.193969
830.000000	68.268495
820.000000	67.987509
810.000000	67.853023
800.000000	68.098779
790.000000	67.868887
780.000000	68.014874
770.000000	67.936755
760.000000	67.749502
750.000000	67.679804
740.000000	67.659809
730.000000	67.603044
720.000000	67.580967
710.000000	67.469099
700.000000	67.319461
690.000000	67.315813
680.000000	67.196197
670.000000	66.968847
660.000000	66.831049
650.000000	66.828045
640.000000	66.729142
630.000000	66.552464
620.000000	66.345117
610.000000	66.152201
600.000000	65.880314
590.000000	65.685933
580.000000	65.426712
570.000000	65.128079
560.000000	64.798299
550.000000	64.400074
540.000000	64.123351
530.000000	63.666872
520.000000	63.218143
510.000000	62.713164
500.000000	62.331634
490.000000	62.185955
480.000000	61.573510
470.000000	60.511576
460.000000	59.522887
450.000000	58.565286
440.000000	57.385033
430.000000	55.775560
420.000000	53.843471
410.000000	51.924161
400.000000	50.208427
390.000000	48.800660
380.000000	47.394153
370.000000	45.811445
360.000000	44.185930
350.000000	42.303181
340.000000	39.920289
330.000000	38.058826
320.000000	36.046106
310.000000	33.765383
300.000000	30.605767
290.000000	25.178549
280.000000	21.185333
270.000000	20.152743
260.000000	19.679959
250.000000	17.925443
