PE UV       SUBTECH     SPECTRUM    ASCII       PEDS        4.00        
   -1
3S-N10-F005.Sample.Raw.asc
22/03/03
16:51:14.00
22/03/03
16:51:14.00
Administrator

250.000000
1
Lambda 750
750N8071901
PerkinElmer UV WinLab 6.0.4.0738 / 1.61.00 Lambda 900

0
0
3350/servo 860.8/2
0
0
UV/VIS
1
1
1
CommonBeamDepol,150mm sphere / downward view
0
0
0
0
Program
Program
3350/servo 860.8/2
3350/0.2 860.8/0.2
3350/0.2 860.8/0.2
0
1
 
 
 
0
 
860.8
319.2
860.8
Front
100
on
 
 
0
0
0
 
0
 
 
 
0
 
 
0
0
0
0
0
 
 
 
 
0
0


0
0
#HDR
-1
-1
#GR
nm
%R
1.0
0.0
2500.000000
-10.000000
226
8
69.975911
10.134687
#DATA
2500.000000	15.390959
2490.000000	13.689022
2480.000000	13.358599
2470.000000	19.098384
2460.000000	17.615281
2450.000000	18.416367
2440.000000	15.802109
2430.000000	15.089218
2420.000000	20.224803
2410.000000	10.770563
2400.000000	19.211905
2390.000000	16.578349
2380.000000	13.842783
2370.000000	19.859070
2360.000000	24.199370
2350.000000	19.840365
2340.000000	15.622450
2330.000000	17.124675
2320.000000	14.781812
2310.000000	20.134052
2300.000000	19.186866
2290.000000	16.164414
2280.000000	17.221597
2270.000000	19.507185
2260.000000	19.242737
2250.000000	20.379341
2240.000000	21.465770
2230.000000	23.227877
2220.000000	21.365945
2210.000000	21.906816
2200.000000	21.882090
2190.000000	20.330843
2180.000000	20.090393
2170.000000	21.074407
2160.000000	19.482554
2150.000000	20.941486
2140.000000	22.427484
2130.000000	23.403699
2120.000000	23.844130
2110.000000	24.409094
2100.000000	25.641899
2090.000000	23.757527
2080.000000	23.992122
2070.000000	24.452652
2060.000000	22.377687
2050.000000	21.231083
2040.000000	20.205544
2030.000000	21.298699
2020.000000	21.433268
2010.000000	21.776091
2000.000000	21.166997
1990.000000	20.393764
1980.000000	19.284436
1970.000000	17.955324
1960.000000	17.191076
1950.000000	16.441793
1940.000000	16.608780
1930.000000	16.766781
1920.000000	18.904384
1910.000000	22.251048
1900.000000	26.393130
1890.000000	32.520694
1880.000000	38.470511
1870.000000	43.225022
1860.000000	45.555118
1850.000000	45.413108
1840.000000	45.679200
1830.000000	45.460809
1820.000000	45.251462
1810.000000	44.650796
1800.000000	43.807713
1790.000000	42.865301
1780.000000	42.135860
1770.000000	41.632238
1760.000000	40.891072
1750.000000	40.079929
1740.000000	39.750589
1730.000000	39.059659
1720.000000	39.772272
1710.000000	41.227621
1700.000000	42.158060
1690.000000	43.062632
1680.000000	45.295204
1670.000000	47.454174
1660.000000	48.855827
1650.000000	49.963150
1640.000000	49.761806
1630.000000	49.256620
1620.000000	48.613597
1610.000000	47.438983
1600.000000	46.464257
1590.000000	45.379520
1580.000000	44.354022
1570.000000	43.593613
1560.000000	43.063270
1550.000000	42.610711
1540.000000	42.013521
1530.000000	40.755078
1520.000000	39.564327
1510.000000	38.918808
1500.000000	38.610604
1490.000000	38.554979
1480.000000	38.867331
1470.000000	39.409826
1460.000000	40.149193
1450.000000	41.018929
1440.000000	42.191452
1430.000000	43.523354
1420.000000	45.363425
1410.000000	48.110599
1400.000000	52.373610
1390.000000	56.926461
1380.000000	59.892438
1370.000000	60.828090
1360.000000	61.710805
1350.000000	62.518780
1340.000000	63.312672
1330.000000	64.384189
1320.000000	66.029017
1310.000000	67.039463
1300.000000	67.273281
1290.000000	67.184540
1280.000000	66.983615
1270.000000	66.833429
1260.000000	66.806994
1250.000000	66.397147
1240.000000	65.974681
1230.000000	65.669558
1220.000000	65.302059
1210.000000	64.962898
1200.000000	64.248670
1190.000000	63.812497
1180.000000	64.153457
1170.000000	65.241206
1160.000000	66.567608
1150.000000	67.929404
1140.000000	69.141332
1130.000000	69.836469
1120.000000	69.895625
1110.000000	69.714473
1100.000000	69.586475
1090.000000	69.653531
1080.000000	69.709933
1070.000000	69.758221
1060.000000	69.632579
1050.000000	69.444444
1040.000000	69.223255
1030.000000	69.108624
1020.000000	69.188831
1010.000000	69.367961
1000.000000	69.673244
990.000000	69.782824
980.000000	69.694540
970.000000	69.604146
960.000000	69.797599
950.000000	69.975911
940.000000	69.712119
930.000000	69.437941
920.000000	69.406886
910.000000	69.492986
900.000000	69.444830
890.000000	69.486282
880.000000	69.149441
870.000000	69.247481
860.000000	68.893352
850.000000	68.922735
840.000000	69.207427
830.000000	69.160774
820.000000	68.974555
810.000000	68.758269
800.000000	68.742705
790.000000	68.666267
780.000000	68.786415
770.000000	68.669830
760.000000	68.530476
750.000000	68.558823
740.000000	68.395270
730.000000	67.903016
720.000000	67.849733
710.000000	67.772205
700.000000	67.621740
690.000000	67.274465
680.000000	66.924331
670.000000	66.534786
660.000000	66.072103
650.000000	65.719526
640.000000	65.214226
630.000000	64.679580
620.000000	64.019050
610.000000	63.478325
600.000000	62.887831
590.000000	62.272362
580.000000	61.580558
570.000000	60.917160
560.000000	60.245232
550.000000	59.487428
540.000000	58.783784
530.000000	57.903709
520.000000	56.976532
510.000000	55.951630
500.000000	54.864661
490.000000	53.757643
480.000000	52.146803
470.000000	49.966715
460.000000	47.669868
450.000000	45.143298
440.000000	41.893734
430.000000	38.164933
420.000000	34.417524
410.000000	31.536969
400.000000	30.176592
390.000000	29.124335
380.000000	27.708104
370.000000	26.019156
360.000000	24.220338
350.000000	22.415667
340.000000	20.775702
330.000000	19.274816
320.000000	17.831526
310.000000	15.715338
300.000000	12.791528
290.000000	10.972198
280.000000	10.279166
270.000000	10.134687
260.000000	10.181062
250.000000	10.217786
