PE UV       SUBTECH     SPECTRUM    ASCII       PEDS        4.00        
   -1
3S-H10-C013.Sample.Cycle1.Raw.asc
22/03/25
16:34:36.00
22/03/25
16:34:36.00
Administrator

250.000000
1
Lambda 750
750N8071901
PerkinElmer UV WinLab 6.0.4.0738 / 1.61.00 Lambda 900

0
0
3350/servo 860.8/2
0
0
UV/VIS
1
1
1
CommonBeamDepol,150mm sphere / downward view
0
0
0
0
Program
Program
3350/servo 860.8/2
3350/0.2 860.8/0.2
3350/0.2 860.8/0.2
0
1
 
 
 
0
 
860.8
319.2
860.8
Front
100
on
 
 
0
0
0
 
0
 
 
 
0
 
 
0
0
0
0
0
 
 
 
 
0
0


0
0
#HDR
-1
-1
#GR
nm
%R
1.0
0.0
2500.000000
-10.000000
226
8
47.325596
7.202591
#DATA
2500.000000	15.031826
2490.000000	20.726171
2480.000000	18.473752
2470.000000	21.171351
2460.000000	19.484688
2450.000000	19.991914
2440.000000	18.271435
2430.000000	20.854717
2420.000000	21.136185
2410.000000	22.829024
2400.000000	22.752936
2390.000000	22.620877
2380.000000	22.490387
2370.000000	22.603892
2360.000000	21.270709
2350.000000	21.736144
2340.000000	20.028223
2330.000000	21.495577
2320.000000	21.686258
2310.000000	20.871721
2300.000000	19.415106
2290.000000	20.155777
2280.000000	20.819833
2270.000000	21.481681
2260.000000	21.398065
2250.000000	21.922265
2240.000000	23.417549
2230.000000	24.380833
2220.000000	24.890579
2210.000000	24.734898
2200.000000	23.918926
2190.000000	24.070506
2180.000000	23.139442
2170.000000	23.734439
2160.000000	24.120258
2150.000000	24.435314
2140.000000	25.306165
2130.000000	26.033328
2120.000000	25.986528
2110.000000	26.994995
2100.000000	26.507659
2090.000000	26.745345
2080.000000	26.696911
2070.000000	25.967950
2060.000000	25.056686
2050.000000	24.729150
2040.000000	24.340898
2030.000000	24.367720
2020.000000	24.705652
2010.000000	24.704578
2000.000000	24.547696
1990.000000	23.836862
1980.000000	23.099381
1970.000000	22.394185
1960.000000	21.859099
1950.000000	21.310285
1940.000000	21.148921
1930.000000	21.631163
1920.000000	22.754465
1910.000000	24.696338
1900.000000	27.167131
1890.000000	30.157550
1880.000000	32.640799
1870.000000	34.460886
1860.000000	35.445426
1850.000000	35.724483
1840.000000	35.812067
1830.000000	35.625795
1820.000000	35.368787
1810.000000	35.180718
1800.000000	34.825894
1790.000000	34.630500
1780.000000	34.324968
1770.000000	33.921388
1760.000000	33.518125
1750.000000	33.311036
1740.000000	32.968583
1730.000000	32.648410
1720.000000	32.904438
1710.000000	33.586900
1700.000000	34.139933
1690.000000	34.739428
1680.000000	35.699988
1670.000000	36.845531
1660.000000	37.660891
1650.000000	37.912510
1640.000000	37.903863
1630.000000	37.632711
1620.000000	37.299815
1610.000000	36.895509
1600.000000	36.500943
1590.000000	36.124266
1580.000000	35.832321
1570.000000	35.517189
1560.000000	35.243468
1550.000000	35.023558
1540.000000	34.580596
1530.000000	34.034582
1520.000000	33.641338
1510.000000	33.424603
1500.000000	33.323021
1490.000000	33.290770
1480.000000	33.446837
1470.000000	33.691431
1460.000000	33.982165
1450.000000	34.350591
1440.000000	34.886831
1430.000000	35.506452
1420.000000	36.275529
1410.000000	37.510147
1400.000000	39.161539
1390.000000	40.893714
1380.000000	42.062200
1370.000000	42.595883
1360.000000	42.944936
1350.000000	43.192209
1340.000000	43.291289
1330.000000	43.487928
1320.000000	43.965903
1310.000000	44.530852
1300.000000	44.924126
1290.000000	45.097362
1280.000000	45.048022
1270.000000	44.916267
1260.000000	44.867449
1250.000000	44.750345
1240.000000	44.492685
1230.000000	44.234351
1220.000000	43.915188
1210.000000	43.638196
1200.000000	43.482660
1190.000000	43.573397
1180.000000	43.879390
1170.000000	44.366831
1160.000000	44.975362
1150.000000	45.497864
1140.000000	45.913172
1130.000000	46.152328
1120.000000	46.250326
1110.000000	46.298597
1100.000000	46.308230
1090.000000	46.287996
1080.000000	46.267636
1070.000000	46.237005
1060.000000	46.184163
1050.000000	46.111324
1040.000000	46.134788
1030.000000	46.188961
1020.000000	46.244914
1010.000000	46.464673
1000.000000	46.754377
990.000000	46.873842
980.000000	46.895735
970.000000	46.950899
960.000000	47.020538
950.000000	47.061115
940.000000	47.056362
930.000000	46.988179
920.000000	46.864917
910.000000	47.028658
900.000000	47.261045
890.000000	47.313716
880.000000	47.325596
870.000000	47.218271
860.000000	47.243496
850.000000	46.957420
840.000000	46.164579
830.000000	46.172858
820.000000	45.949508
810.000000	45.920838
800.000000	45.992852
790.000000	45.828224
780.000000	45.774215
770.000000	45.664861
760.000000	45.626401
750.000000	45.504166
740.000000	45.406072
730.000000	45.293502
720.000000	45.220838
710.000000	45.073390
700.000000	44.893073
690.000000	44.683092
680.000000	44.533156
670.000000	44.346533
660.000000	44.166835
650.000000	44.034073
640.000000	43.735336
630.000000	43.430144
620.000000	43.176274
610.000000	42.892278
600.000000	42.634861
590.000000	42.374046
580.000000	42.059704
570.000000	41.699491
560.000000	41.389936
550.000000	41.010266
540.000000	40.592392
530.000000	40.072958
520.000000	39.534308
510.000000	38.968505
500.000000	38.336639
490.000000	37.738810
480.000000	37.049167
470.000000	36.354604
460.000000	35.571555
450.000000	34.554902
440.000000	33.431610
430.000000	32.226636
420.000000	30.819387
410.000000	29.405831
400.000000	28.240461
390.000000	27.170408
380.000000	25.946280
370.000000	24.711665
360.000000	23.529125
350.000000	22.254120
340.000000	20.713554
330.000000	19.097734
320.000000	17.512859
310.000000	16.045966
300.000000	13.726238
290.000000	10.906313
280.000000	8.873027
270.000000	8.284432
260.000000	7.959125
250.000000	7.202591
