PE UV       SUBTECH     SPECTRUM    ASCII       PEDS        4.00        
   -1
3S-N10-C008.Sample.Raw.asc
22/03/03
16:22:59.00
22/03/03
16:22:59.00
Administrator

250.000000
1
Lambda 750
750N8071901
PerkinElmer UV WinLab 6.0.4.0738 / 1.61.00 Lambda 900

0
0
3350/servo 860.8/2
0
0
UV/VIS
1
1
1
CommonBeamDepol,150mm sphere / downward view
0
0
0
0
Program
Program
3350/servo 860.8/2
3350/0.2 860.8/0.2
3350/0.2 860.8/0.2
0
1
 
 
 
0
 
860.8
319.2
860.8
Front
100
on
 
 
0
0
0
 
0
 
 
 
0
 
 
0
0
0
0
0
 
 
 
 
0
0


0
0
#HDR
-1
-1
#GR
nm
%R
1.0
0.0
2500.000000
-10.000000
226
8
69.356281
18.131488
#DATA
2500.000000	30.708052
2490.000000	32.173682
2480.000000	31.481910
2470.000000	32.803518
2460.000000	34.719223
2450.000000	29.844812
2440.000000	32.449925
2430.000000	37.572636
2420.000000	39.061556
2410.000000	31.808018
2400.000000	37.801856
2390.000000	36.371376
2380.000000	38.562037
2370.000000	33.528204
2360.000000	38.419153
2350.000000	38.367528
2340.000000	35.656108
2330.000000	37.089913
2320.000000	37.738026
2310.000000	37.895183
2300.000000	37.679793
2290.000000	38.686605
2280.000000	37.067746
2270.000000	36.184431
2260.000000	36.385471
2250.000000	36.567698
2240.000000	40.364255
2230.000000	39.994589
2220.000000	41.771550
2210.000000	38.896085
2200.000000	39.205229
2190.000000	40.117613
2180.000000	39.075898
2170.000000	38.662003
2160.000000	39.140575
2150.000000	39.618090
2140.000000	41.648910
2130.000000	41.960211
2120.000000	43.313660
2110.000000	43.738540
2100.000000	43.332294
2090.000000	42.863076
2080.000000	42.104809
2070.000000	42.202495
2060.000000	40.844940
2050.000000	39.446177
2040.000000	38.985798
2030.000000	40.071873
2020.000000	40.384796
2010.000000	40.176368
2000.000000	39.712154
1990.000000	38.512899
1980.000000	37.461852
1970.000000	35.912112
1960.000000	35.924573
1950.000000	35.229165
1940.000000	34.559653
1930.000000	35.519598
1920.000000	37.276106
1910.000000	39.779226
1900.000000	44.457290
1890.000000	48.220415
1880.000000	51.299883
1870.000000	54.707283
1860.000000	56.656755
1850.000000	56.940227
1840.000000	56.562475
1830.000000	56.405924
1820.000000	55.804255
1810.000000	56.171204
1800.000000	55.683603
1790.000000	55.040048
1780.000000	54.434699
1770.000000	54.315318
1760.000000	53.787022
1750.000000	53.405747
1740.000000	52.952195
1730.000000	52.636768
1720.000000	53.317209
1710.000000	54.174468
1700.000000	54.630002
1690.000000	55.425744
1680.000000	56.517393
1670.000000	57.465016
1660.000000	58.300190
1650.000000	58.766227
1640.000000	58.935020
1630.000000	58.619708
1620.000000	58.336317
1610.000000	57.559047
1600.000000	57.013225
1590.000000	56.369929
1580.000000	55.742877
1570.000000	55.365267
1560.000000	55.048644
1550.000000	54.957880
1540.000000	54.816737
1530.000000	53.870706
1520.000000	53.304825
1510.000000	52.769386
1500.000000	52.381542
1490.000000	52.371635
1480.000000	52.831672
1470.000000	53.244717
1460.000000	53.678725
1450.000000	54.165694
1440.000000	54.890246
1430.000000	55.342051
1420.000000	56.082839
1410.000000	57.354254
1400.000000	59.889797
1390.000000	62.834088
1380.000000	64.575021
1370.000000	64.827191
1360.000000	64.944369
1350.000000	65.113701
1340.000000	65.376857
1330.000000	66.045650
1320.000000	67.216544
1310.000000	67.979622
1300.000000	68.001516
1290.000000	67.813120
1280.000000	67.567949
1270.000000	67.579404
1260.000000	67.534816
1250.000000	67.279681
1240.000000	67.012290
1230.000000	66.879682
1220.000000	67.065859
1210.000000	66.968319
1200.000000	66.456310
1190.000000	66.170674
1180.000000	66.289133
1170.000000	66.608330
1160.000000	67.224910
1150.000000	68.047991
1140.000000	68.683988
1130.000000	68.908047
1120.000000	68.821326
1110.000000	68.625537
1100.000000	68.801128
1090.000000	68.756965
1080.000000	68.829848
1070.000000	68.867381
1060.000000	68.827744
1050.000000	68.765575
1040.000000	68.650001
1030.000000	68.508550
1020.000000	68.521614
1010.000000	68.866199
1000.000000	69.159881
990.000000	69.125537
980.000000	68.944022
970.000000	69.071477
960.000000	69.236364
950.000000	69.356281
940.000000	69.106375
930.000000	68.790705
920.000000	68.664827
910.000000	68.517806
900.000000	68.701917
890.000000	68.944905
880.000000	68.878628
870.000000	68.536725
860.000000	67.628209
850.000000	67.615307
840.000000	68.936821
830.000000	68.685197
820.000000	68.493419
810.000000	68.376358
800.000000	68.340087
790.000000	68.259669
780.000000	68.349606
770.000000	68.403982
760.000000	68.131326
750.000000	68.189943
740.000000	68.175169
730.000000	67.880199
720.000000	68.055855
710.000000	68.074636
700.000000	68.020044
690.000000	67.987555
680.000000	67.754807
670.000000	67.609156
660.000000	67.558962
650.000000	67.375561
640.000000	67.166695
630.000000	66.993539
620.000000	66.848998
610.000000	66.651872
600.000000	66.441867
590.000000	66.264584
580.000000	66.010050
570.000000	65.714038
560.000000	65.379810
550.000000	65.035313
540.000000	64.791046
530.000000	64.389523
520.000000	63.965544
510.000000	63.482014
500.000000	63.129990
490.000000	62.890641
480.000000	62.268801
470.000000	61.273425
460.000000	60.278227
450.000000	59.349334
440.000000	58.022894
430.000000	56.385007
420.000000	54.542284
410.000000	52.614263
400.000000	51.089757
390.000000	49.782204
380.000000	48.490470
370.000000	46.981646
360.000000	45.391473
350.000000	43.628068
340.000000	41.201836
330.000000	38.525329
320.000000	36.823260
310.000000	34.955112
300.000000	30.440929
290.000000	25.148520
280.000000	21.038325
270.000000	20.106383
260.000000	19.680440
250.000000	18.131488
