PE UV       SUBTECH     SPECTRUM    ASCII       PEDS        4.00        
   -1
3S-H10-C016.Sample.Cycle1.Raw.asc
22/03/25
16:43:07.00
22/03/25
16:43:07.00
Administrator

250.000000
1
Lambda 750
750N8071901
PerkinElmer UV WinLab 6.0.4.0738 / 1.61.00 Lambda 900

0
0
3350/servo 860.8/2
0
0
UV/VIS
1
1
1
CommonBeamDepol,150mm sphere / downward view
0
0
0
0
Program
Program
3350/servo 860.8/2
3350/0.2 860.8/0.2
3350/0.2 860.8/0.2
0
1
 
 
 
0
 
860.8
319.2
860.8
Front
100
on
 
 
0
0
0
 
0
 
 
 
0
 
 
0
0
0
0
0
 
 
 
 
0
0


0
0
#HDR
-1
-1
#GR
nm
%R
1.0
0.0
2500.000000
-10.000000
226
8
45.651417
7.702680
#DATA
2500.000000	15.815210
2490.000000	16.903905
2480.000000	17.867269
2470.000000	17.057390
2460.000000	17.436070
2450.000000	18.100754
2440.000000	17.972358
2430.000000	18.490602
2420.000000	18.375728
2410.000000	19.989677
2400.000000	19.607798
2390.000000	20.440429
2380.000000	19.967043
2370.000000	19.085009
2360.000000	19.131295
2350.000000	18.655970
2340.000000	19.138635
2330.000000	19.179294
2320.000000	18.898441
2310.000000	18.316446
2300.000000	16.858688
2290.000000	18.752956
2280.000000	17.927758
2270.000000	19.225894
2260.000000	19.144819
2250.000000	20.064010
2240.000000	21.142743
2230.000000	21.729815
2220.000000	22.537511
2210.000000	22.624165
2200.000000	21.772427
2190.000000	21.337629
2180.000000	20.937961
2170.000000	21.190931
2160.000000	22.019714
2150.000000	21.834295
2140.000000	22.564999
2130.000000	23.851129
2120.000000	23.377251
2110.000000	24.324936
2100.000000	24.212497
2090.000000	24.379533
2080.000000	24.233266
2070.000000	23.613437
2060.000000	22.993276
2050.000000	22.026962
2040.000000	21.753166
2030.000000	21.922114
2020.000000	22.379611
2010.000000	22.249627
2000.000000	22.134023
1990.000000	21.384574
1980.000000	20.812683
1970.000000	20.171916
1960.000000	19.537493
1950.000000	19.242262
1940.000000	18.962625
1930.000000	19.476924
1920.000000	20.525534
1910.000000	22.208131
1900.000000	24.773264
1890.000000	27.709922
1880.000000	30.316994
1870.000000	32.139851
1860.000000	32.996901
1850.000000	33.347841
1840.000000	33.390813
1830.000000	33.153553
1820.000000	32.929600
1810.000000	32.686207
1800.000000	32.435506
1790.000000	32.220563
1780.000000	31.833107
1770.000000	31.401452
1760.000000	31.016372
1750.000000	30.788994
1740.000000	30.381184
1730.000000	30.020663
1720.000000	30.249505
1710.000000	30.987269
1700.000000	31.662184
1690.000000	32.321395
1680.000000	33.362654
1670.000000	34.454166
1660.000000	35.363879
1650.000000	35.657240
1640.000000	35.600628
1630.000000	35.362570
1620.000000	35.016836
1610.000000	34.584017
1600.000000	34.202244
1590.000000	33.803227
1580.000000	33.476727
1570.000000	33.114608
1560.000000	32.840231
1550.000000	32.592220
1540.000000	32.187364
1530.000000	31.655253
1520.000000	31.196515
1510.000000	30.970015
1500.000000	30.888648
1490.000000	30.863263
1480.000000	31.012249
1470.000000	31.298837
1460.000000	31.550949
1450.000000	31.911938
1440.000000	32.454427
1430.000000	33.094997
1420.000000	33.890221
1410.000000	35.213311
1400.000000	36.890908
1390.000000	38.666887
1380.000000	39.910062
1370.000000	40.495046
1360.000000	40.854682
1350.000000	41.134563
1340.000000	41.316681
1330.000000	41.532082
1320.000000	41.949991
1310.000000	42.433282
1300.000000	42.772342
1290.000000	42.919077
1280.000000	42.849648
1270.000000	42.710468
1260.000000	42.601926
1250.000000	42.550980
1240.000000	42.371032
1230.000000	42.049927
1220.000000	41.609528
1210.000000	41.270536
1200.000000	41.128314
1190.000000	41.231207
1180.000000	41.552022
1170.000000	42.107505
1160.000000	42.779921
1150.000000	43.289479
1140.000000	43.695363
1130.000000	43.979125
1120.000000	44.119440
1110.000000	44.252737
1100.000000	44.296717
1090.000000	44.304916
1080.000000	44.268801
1070.000000	44.222598
1060.000000	44.197387
1050.000000	44.171531
1040.000000	44.157942
1030.000000	44.205328
1020.000000	44.315111
1010.000000	44.583163
1000.000000	44.904725
990.000000	45.017252
980.000000	44.987223
970.000000	45.015817
960.000000	45.164459
950.000000	45.275569
940.000000	45.258253
930.000000	45.258932
920.000000	45.225448
910.000000	45.273060
900.000000	45.373589
890.000000	45.520174
880.000000	45.504433
870.000000	45.472022
860.000000	45.651417
850.000000	45.056704
840.000000	44.309555
830.000000	44.270355
820.000000	44.202837
810.000000	44.179989
800.000000	44.199674
790.000000	44.075838
780.000000	44.003462
770.000000	43.888276
760.000000	43.859314
750.000000	43.782069
740.000000	43.737379
730.000000	43.667054
720.000000	43.531054
710.000000	43.337551
700.000000	43.208177
690.000000	43.062627
680.000000	42.874436
670.000000	42.719300
660.000000	42.577388
650.000000	42.405612
640.000000	42.158526
630.000000	41.875215
620.000000	41.627266
610.000000	41.349778
600.000000	41.101806
590.000000	40.917635
580.000000	40.687784
570.000000	40.340246
560.000000	40.053793
550.000000	39.713320
540.000000	39.325192
530.000000	38.847990
520.000000	38.319569
510.000000	37.799077
500.000000	37.215378
490.000000	36.541640
480.000000	35.837034
470.000000	35.161310
460.000000	34.329242
450.000000	33.290840
440.000000	32.188406
430.000000	30.879009
420.000000	29.426086
410.000000	28.007052
400.000000	26.800325
390.000000	25.676280
380.000000	24.460551
370.000000	23.147308
360.000000	21.908165
350.000000	20.785461
340.000000	19.281451
330.000000	17.845779
320.000000	16.542999
310.000000	15.229109
300.000000	13.067105
290.000000	10.576202
280.000000	8.946154
270.000000	8.524927
260.000000	8.362458
250.000000	7.702680
