PE UV       SUBTECH     SPECTRUM    ASCII       PEDS        4.00        
   -1
3C-N10-C025.Sample.Raw.asc
22/03/22
17:49:32.00
22/03/22
17:49:32.00
Administrator

250.000000
1
Lambda 750
750N8071901
PerkinElmer UV WinLab 6.0.4.0738 / 1.61.00 Lambda 900

0
0
3350/servo 860.8/2
0
0
UV/VIS
1
1
1
CommonBeamDepol,150mm sphere / downward view
0
0
0
0
Program
Program
3350/servo 860.8/2
3350/0.2 860.8/0.2
3350/0.2 860.8/0.2
0
1
 
 
 
0
 
860.8
319.2
860.8
Front
100
on
 
 
0
0
0
 
0
 
 
 
0
 
 
0
0
0
0
0
 
 
 
 
0
0


0
0
#HDR
-1
-1
#GR
nm
%R
1.0
0.0
2500.000000
-10.000000
226
8
49.394702
10.332694
#DATA
2500.000000	10.332694
2490.000000	13.231899
2480.000000	10.573683
2470.000000	14.854045
2460.000000	13.959276
2450.000000	13.373746
2440.000000	16.412314
2430.000000	14.508819
2420.000000	16.124394
2410.000000	15.877938
2400.000000	17.534886
2390.000000	15.947628
2380.000000	16.879298
2370.000000	17.527596
2360.000000	16.108131
2350.000000	17.709575
2340.000000	15.576530
2330.000000	17.156436
2320.000000	15.741176
2310.000000	16.506311
2300.000000	15.399450
2290.000000	15.183552
2280.000000	16.122707
2270.000000	16.402338
2260.000000	15.531587
2250.000000	16.395171
2240.000000	17.355901
2230.000000	17.733587
2220.000000	18.596826
2210.000000	18.001935
2200.000000	17.959355
2190.000000	16.892454
2180.000000	17.102780
2170.000000	17.155870
2160.000000	17.517598
2150.000000	17.942851
2140.000000	18.568839
2130.000000	19.457616
2120.000000	19.258980
2110.000000	19.895256
2100.000000	20.530970
2090.000000	20.016312
2080.000000	19.640943
2070.000000	18.868001
2060.000000	18.409673
2050.000000	18.177073
2040.000000	17.747308
2030.000000	17.671535
2020.000000	18.175202
2010.000000	18.331173
2000.000000	17.733730
1990.000000	17.419074
1980.000000	16.883991
1970.000000	16.294963
1960.000000	15.961050
1950.000000	15.621201
1940.000000	15.353092
1930.000000	15.763812
1920.000000	16.806701
1910.000000	18.294535
1900.000000	20.798319
1890.000000	24.316764
1880.000000	27.349588
1870.000000	29.977490
1860.000000	31.398932
1850.000000	31.733480
1840.000000	31.717905
1830.000000	31.448358
1820.000000	31.243291
1810.000000	31.057569
1800.000000	30.709752
1790.000000	30.328593
1780.000000	29.981413
1770.000000	29.476252
1760.000000	29.248506
1750.000000	28.957108
1740.000000	28.513612
1730.000000	28.364652
1720.000000	28.784850
1710.000000	29.562242
1700.000000	30.027547
1690.000000	30.400574
1680.000000	31.362659
1670.000000	32.798493
1660.000000	33.821909
1650.000000	34.385471
1640.000000	34.309972
1630.000000	34.013192
1620.000000	33.477730
1610.000000	32.954027
1600.000000	32.316823
1590.000000	31.708373
1580.000000	31.257049
1570.000000	30.792674
1560.000000	30.450765
1550.000000	30.240786
1540.000000	29.802218
1530.000000	29.125073
1520.000000	28.553366
1510.000000	28.227383
1500.000000	28.031731
1490.000000	27.993614
1480.000000	28.279934
1470.000000	28.625634
1460.000000	28.966163
1450.000000	29.507157
1440.000000	30.212944
1430.000000	31.081485
1420.000000	32.330908
1410.000000	34.120762
1400.000000	36.535995
1390.000000	39.003734
1380.000000	40.679584
1370.000000	41.379319
1360.000000	41.901793
1350.000000	42.479775
1340.000000	42.996936
1330.000000	43.595670
1320.000000	44.414269
1310.000000	45.063200
1300.000000	45.432635
1290.000000	45.587458
1280.000000	45.547741
1270.000000	45.472450
1260.000000	45.454592
1250.000000	45.360422
1240.000000	45.186479
1230.000000	45.012172
1220.000000	44.791064
1210.000000	44.411861
1200.000000	43.959515
1190.000000	43.799948
1180.000000	44.062545
1170.000000	44.753619
1160.000000	45.635293
1150.000000	46.350168
1140.000000	46.932044
1130.000000	47.284357
1120.000000	47.486614
1110.000000	47.625602
1100.000000	47.697982
1090.000000	47.711622
1080.000000	47.629818
1070.000000	47.532499
1060.000000	47.438580
1050.000000	47.386755
1040.000000	47.348260
1030.000000	47.247890
1020.000000	47.247593
1010.000000	47.480671
1000.000000	47.754479
990.000000	47.823150
980.000000	47.911137
970.000000	47.989320
960.000000	48.071751
950.000000	48.165407
940.000000	48.214680
930.000000	48.181525
920.000000	48.227258
910.000000	48.293326
900.000000	48.267740
890.000000	48.471924
880.000000	48.616828
870.000000	48.626127
860.000000	48.633249
850.000000	48.819375
840.000000	49.020216
830.000000	49.066672
820.000000	49.279183
810.000000	49.394702
800.000000	49.182822
790.000000	49.144021
780.000000	49.249907
770.000000	49.240766
760.000000	49.232070
750.000000	49.212173
740.000000	49.241670
730.000000	49.325213
720.000000	49.319343
710.000000	49.295474
700.000000	49.272566
690.000000	49.317199
680.000000	49.360610
670.000000	49.313282
660.000000	49.219836
650.000000	49.166621
640.000000	49.148789
630.000000	49.094189
620.000000	49.027266
610.000000	48.934460
600.000000	48.879947
590.000000	48.807622
580.000000	48.624523
570.000000	48.455006
560.000000	48.258166
550.000000	48.030493
540.000000	47.843263
530.000000	47.621803
520.000000	47.454918
510.000000	47.270080
500.000000	46.897032
490.000000	46.349570
480.000000	45.695538
470.000000	44.867226
460.000000	43.999101
450.000000	42.969511
440.000000	41.681076
430.000000	40.097578
420.000000	38.176331
410.000000	36.113098
400.000000	34.313964
390.000000	33.066194
380.000000	32.077766
370.000000	30.755003
360.000000	29.130513
350.000000	27.889663
340.000000	26.848031
330.000000	25.869891
320.000000	24.846156
310.000000	23.267125
300.000000	20.974713
290.000000	18.699390
280.000000	17.240832
270.000000	17.212817
260.000000	17.156116
250.000000	15.897900
