PE UV       SUBTECH     SPECTRUM    ASCII       PEDS        4.00        
   -1
3C-H10-C012.Sample.Raw.asc
22/03/18
16:03:08.00
22/03/18
16:03:08.00
Administrator

250.000000
1
Lambda 750
750N8071901
PerkinElmer UV WinLab 6.0.4.0738 / 1.61.00 Lambda 900

0
0
3350/servo 860.8/2
0
0
UV/VIS
1
1
1
CommonBeamDepol,150mm sphere / downward view
0
0
0
0
Program
Program
3350/servo 860.8/2
3350/0.2 860.8/0.2
3350/0.2 860.8/0.2
0
1
 
 
 
0
 
860.8
319.2
860.8
Front
100
on
 
 
0
0
0
 
0
 
 
 
0
 
 
0
0
0
0
0
 
 
 
 
0
0


0
0
#HDR
-1
-1
#GR
nm
%R
1.0
0.0
2500.000000
-10.000000
226
8
49.507301
12.465826
#DATA
2500.000000	14.689315
2490.000000	12.826929
2480.000000	12.465826
2470.000000	13.148337
2460.000000	15.565512
2450.000000	18.451052
2440.000000	12.673192
2430.000000	16.079609
2420.000000	17.065465
2410.000000	17.111436
2400.000000	17.527423
2390.000000	16.705949
2380.000000	18.023990
2370.000000	18.029100
2360.000000	17.220279
2350.000000	17.832811
2340.000000	20.371551
2330.000000	18.351040
2320.000000	17.328528
2310.000000	17.466340
2300.000000	17.297634
2290.000000	17.793624
2280.000000	16.651374
2270.000000	17.225211
2260.000000	17.414156
2250.000000	18.384671
2240.000000	18.600430
2230.000000	19.417032
2220.000000	19.773567
2210.000000	20.372603
2200.000000	19.128491
2190.000000	18.962561
2180.000000	18.971363
2170.000000	18.939730
2160.000000	19.045853
2150.000000	19.220673
2140.000000	19.797956
2130.000000	21.484938
2120.000000	21.663887
2110.000000	21.323723
2100.000000	21.239246
2090.000000	21.246465
2080.000000	21.023226
2070.000000	21.232392
2060.000000	19.990863
2050.000000	19.632528
2040.000000	19.005745
2030.000000	19.146129
2020.000000	19.700920
2010.000000	19.866380
2000.000000	19.450886
1990.000000	19.184002
1980.000000	18.603496
1970.000000	17.875730
1960.000000	17.504107
1950.000000	17.118292
1940.000000	16.827673
1930.000000	17.330293
1920.000000	18.158428
1910.000000	19.790201
1900.000000	22.229292
1890.000000	25.279271
1880.000000	28.407064
1870.000000	30.986765
1860.000000	32.391067
1850.000000	32.863725
1840.000000	32.693429
1830.000000	32.610836
1820.000000	32.329328
1810.000000	32.054865
1800.000000	31.634823
1790.000000	31.333409
1780.000000	31.166336
1770.000000	30.837910
1760.000000	30.500649
1750.000000	30.094079
1740.000000	29.709244
1730.000000	29.400146
1720.000000	29.807209
1710.000000	30.580431
1700.000000	31.015402
1690.000000	31.455169
1680.000000	32.555669
1670.000000	33.964246
1660.000000	35.054135
1650.000000	35.501951
1640.000000	35.306897
1630.000000	34.974247
1620.000000	34.471908
1610.000000	33.880477
1600.000000	33.366243
1590.000000	32.889834
1580.000000	32.427982
1570.000000	31.998159
1560.000000	31.663194
1550.000000	31.329966
1540.000000	30.737170
1530.000000	30.106055
1520.000000	29.618273
1510.000000	29.355708
1500.000000	29.205584
1490.000000	29.259001
1480.000000	29.481626
1470.000000	29.786265
1460.000000	30.106505
1450.000000	30.647480
1440.000000	31.392840
1430.000000	32.297151
1420.000000	33.505392
1410.000000	35.306777
1400.000000	37.621350
1390.000000	40.011131
1380.000000	41.699947
1370.000000	42.548883
1360.000000	43.094095
1350.000000	43.536198
1340.000000	43.848964
1330.000000	44.178397
1320.000000	44.707474
1310.000000	45.291735
1300.000000	45.664030
1290.000000	45.827249
1280.000000	45.740918
1270.000000	45.586901
1260.000000	45.592777
1250.000000	45.543713
1240.000000	45.330628
1230.000000	45.058122
1220.000000	44.782594
1210.000000	44.368527
1200.000000	44.020997
1190.000000	43.923911
1180.000000	44.209349
1170.000000	44.934644
1160.000000	45.808755
1150.000000	46.555143
1140.000000	47.221311
1130.000000	47.638531
1120.000000	47.776106
1110.000000	47.816578
1100.000000	47.848415
1090.000000	47.895728
1080.000000	47.910568
1070.000000	47.878144
1060.000000	47.808455
1050.000000	47.697556
1040.000000	47.672823
1030.000000	47.743627
1020.000000	47.947948
1010.000000	48.277014
1000.000000	48.668535
990.000000	48.783422
980.000000	48.843055
970.000000	48.920123
960.000000	48.981191
950.000000	49.058533
940.000000	49.148140
930.000000	49.153208
920.000000	49.173849
910.000000	49.178895
900.000000	49.270102
890.000000	49.393320
880.000000	49.396702
870.000000	49.385264
860.000000	49.507301
850.000000	49.224183
840.000000	48.576511
830.000000	48.571231
820.000000	48.545184
810.000000	48.420864
800.000000	48.497464
790.000000	48.692131
780.000000	48.596026
770.000000	48.510709
760.000000	48.427018
750.000000	48.508154
740.000000	48.477780
730.000000	48.449534
720.000000	48.532036
710.000000	48.479973
700.000000	48.390909
690.000000	48.266762
680.000000	48.346086
670.000000	48.343621
660.000000	48.295369
650.000000	48.240727
640.000000	48.175724
630.000000	48.128752
620.000000	48.070415
610.000000	47.994747
600.000000	47.858083
590.000000	47.769140
580.000000	47.684917
570.000000	47.560323
560.000000	47.438056
550.000000	47.291147
540.000000	47.005116
530.000000	46.668006
520.000000	46.330646
510.000000	45.872157
500.000000	45.305084
490.000000	44.701957
480.000000	44.115300
470.000000	43.549335
460.000000	42.694408
450.000000	41.643439
440.000000	40.552504
430.000000	39.168412
420.000000	37.432131
410.000000	35.623269
400.000000	34.019462
390.000000	32.793416
380.000000	31.707560
370.000000	30.671156
360.000000	29.552796
350.000000	28.537271
340.000000	27.698580
330.000000	26.234639
320.000000	25.098185
310.000000	24.360304
300.000000	22.777721
290.000000	19.992128
280.000000	18.110006
270.000000	17.879094
260.000000	17.781509
250.000000	16.507746
