PE UV       SUBTECH     SPECTRUM    ASCII       PEDS        4.00        
   -1
3C-N10-F011.Sample.Raw.asc
22/03/25
15:17:52.00
22/03/25
15:17:52.00
Administrator

250.000000
1
Lambda 750
750N8071901
PerkinElmer UV WinLab 6.0.4.0738 / 1.61.00 Lambda 900

0
0
3350/servo 860.8/2
0
0
UV/VIS
1
1
1
CommonBeamDepol,150mm sphere / downward view
0
0
0
0
Program
Program
3350/servo 860.8/2
3350/0.2 860.8/0.2
3350/0.2 860.8/0.2
0
1
 
 
 
0
 
860.8
319.2
860.8
Front
100
on
 
 
0
0
0
 
0
 
 
 
0
 
 
0
0
0
0
0
 
 
 
 
0
0


0
0
#HDR
-1
-1
#GR
nm
%R
1.0
0.0
2500.000000
-10.000000
226
8
40.604301
9.567648
#DATA
2500.000000	9.567648
2490.000000	12.804910
2480.000000	10.244543
2470.000000	12.646294
2460.000000	10.974050
2450.000000	12.774272
2440.000000	11.502940
2430.000000	15.155475
2420.000000	11.765877
2410.000000	14.203620
2400.000000	14.546574
2390.000000	13.820655
2380.000000	14.775603
2370.000000	13.332849
2360.000000	13.810405
2350.000000	13.694043
2340.000000	12.548759
2330.000000	14.207012
2320.000000	13.583849
2310.000000	14.062173
2300.000000	12.155388
2290.000000	13.234180
2280.000000	12.731260
2270.000000	13.356493
2260.000000	13.206313
2250.000000	14.032032
2240.000000	14.772141
2230.000000	15.032759
2220.000000	15.067490
2210.000000	15.284028
2200.000000	14.337227
2190.000000	15.123612
2180.000000	14.405168
2170.000000	14.184931
2160.000000	14.636834
2150.000000	14.846342
2140.000000	15.230385
2130.000000	16.224826
2120.000000	16.491849
2110.000000	16.906557
2100.000000	16.938838
2090.000000	16.713218
2080.000000	16.909034
2070.000000	16.301127
2060.000000	15.468016
2050.000000	15.043251
2040.000000	14.605963
2030.000000	14.920051
2020.000000	15.367230
2010.000000	15.470789
2000.000000	15.285520
1990.000000	14.820552
1980.000000	14.374292
1970.000000	13.877386
1960.000000	13.560804
1950.000000	13.229609
1940.000000	13.009365
1930.000000	13.421056
1920.000000	14.326885
1910.000000	15.683720
1900.000000	17.692818
1890.000000	20.212323
1880.000000	22.879479
1870.000000	24.826474
1860.000000	25.776426
1850.000000	26.255216
1840.000000	26.307983
1830.000000	26.092564
1820.000000	25.948930
1810.000000	25.618963
1800.000000	25.358454
1790.000000	25.156039
1780.000000	24.915595
1770.000000	24.685558
1760.000000	24.341403
1750.000000	24.080448
1740.000000	23.681557
1730.000000	23.534850
1720.000000	23.791810
1710.000000	24.473758
1700.000000	24.822515
1690.000000	25.155485
1680.000000	26.056522
1670.000000	27.201374
1660.000000	28.035248
1650.000000	28.314192
1640.000000	28.253411
1630.000000	27.948958
1620.000000	27.586255
1610.000000	27.123520
1600.000000	26.676226
1590.000000	26.346640
1580.000000	25.991558
1570.000000	25.639169
1560.000000	25.338960
1550.000000	25.077740
1540.000000	24.759582
1530.000000	24.187996
1520.000000	23.737291
1510.000000	23.462881
1500.000000	23.418142
1490.000000	23.440350
1480.000000	23.577362
1470.000000	23.848215
1460.000000	24.147818
1450.000000	24.543213
1440.000000	25.142455
1430.000000	25.866173
1420.000000	26.753930
1410.000000	28.191818
1400.000000	30.112600
1390.000000	32.028173
1380.000000	33.295649
1370.000000	33.941410
1360.000000	34.290525
1350.000000	34.592786
1340.000000	34.824387
1330.000000	35.082126
1320.000000	35.565086
1310.000000	36.113266
1300.000000	36.489023
1290.000000	36.651901
1280.000000	36.571835
1270.000000	36.441353
1260.000000	36.425309
1250.000000	36.431355
1240.000000	36.332729
1230.000000	36.162258
1220.000000	35.901146
1210.000000	35.639647
1200.000000	35.373219
1190.000000	35.279818
1180.000000	35.523143
1170.000000	36.104120
1160.000000	36.761007
1150.000000	37.304061
1140.000000	37.742920
1130.000000	38.105217
1120.000000	38.330330
1110.000000	38.408262
1100.000000	38.428939
1090.000000	38.469362
1080.000000	38.508950
1070.000000	38.480886
1060.000000	38.444573
1050.000000	38.429358
1040.000000	38.438414
1030.000000	38.507389
1020.000000	38.641389
1010.000000	38.926596
1000.000000	39.230057
990.000000	39.357616
980.000000	39.405277
970.000000	39.510141
960.000000	39.649834
950.000000	39.730264
940.000000	39.776103
930.000000	39.806503
920.000000	39.765087
910.000000	39.858428
900.000000	40.046445
890.000000	40.109432
880.000000	40.189923
870.000000	40.260146
860.000000	40.604301
850.000000	39.990040
840.000000	38.987487
830.000000	39.030755
820.000000	39.097449
810.000000	39.105258
800.000000	39.205768
790.000000	39.165994
780.000000	39.209198
770.000000	39.217741
760.000000	39.233868
750.000000	39.180154
740.000000	39.289414
730.000000	39.360293
720.000000	39.418480
710.000000	39.403813
700.000000	39.384115
690.000000	39.423627
680.000000	39.421102
670.000000	39.490685
660.000000	39.502211
650.000000	39.527984
640.000000	39.529590
630.000000	39.506194
620.000000	39.481031
610.000000	39.446958
600.000000	39.435920
590.000000	39.417520
580.000000	39.418525
570.000000	39.327009
560.000000	39.217883
550.000000	39.153309
540.000000	39.015550
530.000000	38.745041
520.000000	38.438950
510.000000	38.119063
500.000000	37.749261
490.000000	37.346009
480.000000	36.906651
470.000000	36.450773
460.000000	35.810412
450.000000	35.015308
440.000000	34.078219
430.000000	32.825675
420.000000	31.156061
410.000000	29.159295
400.000000	27.444290
390.000000	26.502097
380.000000	25.873840
370.000000	25.158158
360.000000	24.496905
350.000000	23.726406
340.000000	22.601218
330.000000	21.524873
320.000000	20.748408
310.000000	19.624125
300.000000	17.908381
290.000000	15.699831
280.000000	14.240196
270.000000	14.079990
260.000000	14.028273
250.000000	13.026665
