PE UV       SUBTECH     SPECTRUM    ASCII       PEDS        4.00        
   -1
3C-N10-F028.Sample.Raw.asc
22/03/25
16:10:25.00
22/03/25
16:10:25.00
Administrator

250.000000
1
Lambda 750
750N8071901
PerkinElmer UV WinLab 6.0.4.0738 / 1.61.00 Lambda 900

0
0
3350/servo 860.8/2
0
0
UV/VIS
1
1
1
CommonBeamDepol,150mm sphere / downward view
0
0
0
0
Program
Program
3350/servo 860.8/2
3350/0.2 860.8/0.2
3350/0.2 860.8/0.2
0
1
 
 
 
0
 
860.8
319.2
860.8
Front
100
on
 
 
0
0
0
 
0
 
 
 
0
 
 
0
0
0
0
0
 
 
 
 
0
0


0
0
#HDR
-1
-1
#GR
nm
%R
1.0
0.0
2500.000000
-10.000000
226
8
40.143149
8.051363
#DATA
2500.000000	8.051363
2490.000000	12.063356
2480.000000	11.792577
2470.000000	12.945929
2460.000000	9.897661
2450.000000	11.688404
2440.000000	12.511155
2430.000000	12.921130
2420.000000	11.696746
2410.000000	13.374091
2400.000000	12.279558
2390.000000	12.730996
2380.000000	14.471469
2370.000000	15.053883
2360.000000	13.200586
2350.000000	13.414027
2340.000000	13.594833
2330.000000	12.708349
2320.000000	12.582077
2310.000000	13.116498
2300.000000	12.684518
2290.000000	13.498170
2280.000000	12.528211
2270.000000	13.031776
2260.000000	13.036118
2250.000000	13.246272
2240.000000	14.028847
2230.000000	15.105481
2220.000000	15.036948
2210.000000	14.900467
2200.000000	14.374275
2190.000000	14.270546
2180.000000	13.635591
2170.000000	13.777373
2160.000000	14.400240
2150.000000	14.933225
2140.000000	15.188068
2130.000000	15.688310
2120.000000	15.583914
2110.000000	16.319108
2100.000000	16.387248
2090.000000	16.388307
2080.000000	16.242011
2070.000000	15.518498
2060.000000	15.069548
2050.000000	14.893002
2040.000000	14.155044
2030.000000	14.406793
2020.000000	14.720252
2010.000000	14.934933
2000.000000	14.699052
1990.000000	14.200891
1980.000000	13.938454
1970.000000	13.487217
1960.000000	13.067088
1950.000000	12.872683
1940.000000	12.492056
1930.000000	12.961548
1920.000000	13.667588
1910.000000	14.977061
1900.000000	17.023669
1890.000000	19.581019
1880.000000	22.276780
1870.000000	24.201598
1860.000000	25.224377
1850.000000	25.549661
1840.000000	25.737168
1830.000000	25.516045
1820.000000	25.402775
1810.000000	25.119047
1800.000000	24.831614
1790.000000	24.616953
1780.000000	24.294540
1770.000000	24.053781
1760.000000	23.731705
1750.000000	23.424476
1740.000000	23.143219
1730.000000	22.955863
1720.000000	23.225982
1710.000000	23.916974
1700.000000	24.318977
1690.000000	24.657749
1680.000000	25.497584
1670.000000	26.662497
1660.000000	27.533426
1650.000000	27.776287
1640.000000	27.722624
1630.000000	27.477761
1620.000000	27.052814
1610.000000	26.623108
1600.000000	26.126894
1590.000000	25.754476
1580.000000	25.453599
1570.000000	25.051481
1560.000000	24.741272
1550.000000	24.542393
1540.000000	24.125536
1530.000000	23.564476
1520.000000	23.115824
1510.000000	22.915031
1500.000000	22.786230
1490.000000	22.809979
1480.000000	22.983143
1470.000000	23.260561
1460.000000	23.557993
1450.000000	23.955208
1440.000000	24.568022
1430.000000	25.281837
1420.000000	26.207437
1410.000000	27.659810
1400.000000	29.583990
1390.000000	31.576749
1380.000000	32.854443
1370.000000	33.486672
1360.000000	33.882201
1350.000000	34.218898
1340.000000	34.477844
1330.000000	34.791717
1320.000000	35.274904
1310.000000	35.804172
1300.000000	36.176007
1290.000000	36.300601
1280.000000	36.262121
1270.000000	36.174059
1260.000000	36.138595
1250.000000	36.102964
1240.000000	35.989764
1230.000000	35.822118
1220.000000	35.550771
1210.000000	35.245569
1200.000000	34.986272
1190.000000	34.902119
1180.000000	35.155074
1170.000000	35.750417
1160.000000	36.450787
1150.000000	37.023750
1140.000000	37.474377
1130.000000	37.836005
1120.000000	38.059040
1110.000000	38.130320
1100.000000	38.207650
1090.000000	38.221195
1080.000000	38.223563
1070.000000	38.222386
1060.000000	38.201987
1050.000000	38.168340
1040.000000	38.168488
1030.000000	38.237208
1020.000000	38.366692
1010.000000	38.677393
1000.000000	38.985974
990.000000	39.081579
980.000000	39.127828
970.000000	39.257336
960.000000	39.388792
950.000000	39.517522
940.000000	39.501516
930.000000	39.504530
920.000000	39.494217
910.000000	39.619184
900.000000	39.802703
890.000000	39.882509
880.000000	39.974876
870.000000	40.063110
860.000000	40.143149
850.000000	39.398001
840.000000	38.708022
830.000000	38.744811
820.000000	38.770822
810.000000	38.819996
800.000000	38.872282
790.000000	38.844559
780.000000	38.876229
770.000000	38.872632
760.000000	38.966448
750.000000	38.988833
740.000000	39.046874
730.000000	39.057840
720.000000	39.086291
710.000000	39.102451
700.000000	39.124201
690.000000	39.113736
680.000000	39.143588
670.000000	39.197444
660.000000	39.200399
650.000000	39.199234
640.000000	39.152481
630.000000	39.147560
620.000000	39.158109
610.000000	39.094277
600.000000	39.041464
590.000000	39.026315
580.000000	38.983702
570.000000	38.882897
560.000000	38.787327
550.000000	38.666822
540.000000	38.450135
530.000000	38.209025
520.000000	37.911880
510.000000	37.597747
500.000000	37.189059
490.000000	36.768748
480.000000	36.291982
470.000000	35.762946
460.000000	35.149905
450.000000	34.287087
440.000000	33.311198
430.000000	32.067018
420.000000	30.394939
410.000000	28.368626
400.000000	26.646456
390.000000	25.631160
380.000000	24.925970
370.000000	24.378121
360.000000	23.682157
350.000000	22.670140
340.000000	21.785847
330.000000	20.831377
320.000000	20.141311
310.000000	19.402044
300.000000	17.669411
290.000000	15.461538
280.000000	14.048401
270.000000	13.862207
260.000000	13.799924
250.000000	12.694895
