PE UV       SUBTECH     SPECTRUM    ASCII       PEDS        4.00        
   -1
3C-H10-F004.Sample.Raw.asc
22/02/28
15:09:16.00
22/02/28
15:09:16.00
Administrator

250.000000
1
Lambda 750
750N8071901
PerkinElmer UV WinLab 6.0.4.0738 / 1.61.00 Lambda 900

0
0
3350/servo 860.8/2
0
0
UV/VIS
1
1
1
CommonBeamDepol,150mm sphere / downward view
0
0
0
0
Program
Program
3350/servo 860.8/2
3350/0.2 860.8/0.2
3350/0.2 860.8/0.2
0
1
 
 
 
0
 
860.8
319.2
860.8
Front
100
on
 
 
0
0
0
 
0
 
 
 
0
 
 
0
0
0
0
0
 
 
 
 
0
0


0
0
#HDR
-1
-1
#GR
nm
%R
1.0
0.0
2500.000000
-10.000000
226
8
44.427535
5.329190
#DATA
2500.000000	12.987534
2490.000000	17.794080
2480.000000	11.098176
2470.000000	5.329190
2460.000000	12.587417
2450.000000	15.014673
2440.000000	8.892617
2430.000000	8.420970
2420.000000	12.955780
2410.000000	13.179830
2400.000000	19.490436
2390.000000	12.676894
2380.000000	20.775079
2370.000000	18.542866
2360.000000	18.788253
2350.000000	20.209599
2340.000000	11.838351
2330.000000	16.908620
2320.000000	16.003112
2310.000000	15.518614
2300.000000	15.948043
2290.000000	15.808292
2280.000000	15.098752
2270.000000	15.729818
2260.000000	13.285256
2250.000000	17.404324
2240.000000	18.022584
2230.000000	17.280820
2220.000000	19.050086
2210.000000	16.414524
2200.000000	16.206054
2190.000000	16.899654
2180.000000	17.261613
2170.000000	18.150328
2160.000000	18.095195
2150.000000	16.957455
2140.000000	17.817489
2130.000000	18.413882
2120.000000	16.891262
2110.000000	17.810758
2100.000000	20.032712
2090.000000	20.029157
2080.000000	19.490140
2070.000000	18.646788
2060.000000	18.978873
2050.000000	18.457290
2040.000000	17.466044
2030.000000	18.012344
2020.000000	17.944586
2010.000000	18.171572
2000.000000	17.865469
1990.000000	17.367388
1980.000000	17.126465
1970.000000	16.862387
1960.000000	16.320258
1950.000000	15.880339
1940.000000	16.408705
1930.000000	15.691975
1920.000000	17.790542
1910.000000	18.441360
1900.000000	20.494279
1890.000000	23.731434
1880.000000	26.284193
1870.000000	28.169429
1860.000000	30.038016
1850.000000	29.972182
1840.000000	29.823946
1830.000000	30.001402
1820.000000	29.691240
1810.000000	29.365268
1800.000000	29.245356
1790.000000	28.688059
1780.000000	28.508667
1770.000000	27.989137
1760.000000	27.791491
1750.000000	27.555218
1740.000000	27.074924
1730.000000	26.806044
1720.000000	27.387796
1710.000000	27.943604
1700.000000	28.223804
1690.000000	28.543542
1680.000000	29.756549
1670.000000	31.022715
1660.000000	32.078041
1650.000000	32.535284
1640.000000	32.441860
1630.000000	32.145372
1620.000000	31.796981
1610.000000	31.212213
1600.000000	30.664896
1590.000000	30.269787
1580.000000	29.844650
1570.000000	29.410704
1560.000000	29.128131
1550.000000	28.810178
1540.000000	28.400783
1530.000000	27.813237
1520.000000	27.311113
1510.000000	27.202059
1500.000000	27.001311
1490.000000	27.018360
1480.000000	27.188813
1470.000000	27.517695
1460.000000	27.824784
1450.000000	28.360402
1440.000000	28.906360
1430.000000	29.130438
1420.000000	29.610836
1410.000000	31.116298
1400.000000	33.754221
1390.000000	36.869619
1380.000000	38.761953
1370.000000	39.244718
1360.000000	39.289958
1350.000000	39.204054
1340.000000	39.258606
1330.000000	39.774373
1320.000000	41.087021
1310.000000	42.500487
1300.000000	43.347617
1290.000000	43.754368
1280.000000	43.428676
1270.000000	43.027844
1260.000000	42.852693
1250.000000	42.774153
1240.000000	42.717012
1230.000000	42.385528
1220.000000	41.883729
1210.000000	41.501241
1200.000000	41.118451
1190.000000	40.976132
1180.000000	41.291324
1170.000000	41.759333
1160.000000	42.514785
1150.000000	43.348544
1140.000000	44.081808
1130.000000	44.427535
1120.000000	44.172303
1110.000000	44.086890
1100.000000	43.911354
1090.000000	43.881277
1080.000000	43.871140
1070.000000	43.842243
1060.000000	43.676339
1050.000000	43.573358
1040.000000	43.367936
1030.000000	43.179343
1020.000000	43.282363
1010.000000	43.696642
1000.000000	44.262152
990.000000	44.372863
980.000000	44.172907
970.000000	44.066741
960.000000	43.992254
950.000000	43.825988
940.000000	43.914358
930.000000	43.702090
920.000000	43.597672
910.000000	43.805559
900.000000	43.976193
890.000000	43.803435
880.000000	43.314366
870.000000	43.217675
860.000000	43.584262
850.000000	43.696863
840.000000	44.348812
830.000000	44.252843
820.000000	44.197636
810.000000	44.114559
800.000000	44.099434
790.000000	43.944711
780.000000	43.924632
770.000000	43.825663
760.000000	43.780768
750.000000	43.766336
740.000000	43.517640
730.000000	43.601338
720.000000	43.676391
710.000000	43.541565
700.000000	43.482112
690.000000	43.296590
680.000000	43.281780
670.000000	43.324393
660.000000	43.151786
650.000000	42.947021
640.000000	42.865356
630.000000	42.803128
620.000000	42.636712
610.000000	42.500015
600.000000	42.307317
590.000000	42.143062
580.000000	41.943988
570.000000	41.743008
560.000000	41.544460
550.000000	41.252876
540.000000	40.985306
530.000000	40.703342
520.000000	40.404216
510.000000	40.162212
500.000000	39.841578
490.000000	39.364402
480.000000	38.719056
470.000000	38.078707
460.000000	37.349405
450.000000	36.482496
440.000000	35.478382
430.000000	34.256662
420.000000	32.774555
410.000000	30.977007
400.000000	29.504417
390.000000	28.595546
380.000000	27.831376
370.000000	27.116557
360.000000	26.210886
350.000000	25.250029
340.000000	24.407738
330.000000	23.615884
320.000000	22.482473
310.000000	21.787891
300.000000	20.503418
290.000000	18.186473
280.000000	16.529994
270.000000	16.195516
260.000000	16.055760
250.000000	14.944132
