PE UV       SUBTECH     SPECTRUM    ASCII       PEDS        4.00        
   -1
3C-H10-F022.Sample.Raw.asc
22/03/21
15:55:47.00
22/03/21
15:55:47.00
Administrator

250.000000
1
Lambda 750
750N8071901
PerkinElmer UV WinLab 6.0.4.0738 / 1.61.00 Lambda 900

0
0
3350/servo 860.8/2
0
0
UV/VIS
1
1
1
CommonBeamDepol,150mm sphere / downward view
0
0
0
0
Program
Program
3350/servo 860.8/2
3350/0.2 860.8/0.2
3350/0.2 860.8/0.2
0
1
 
 
 
0
 
860.8
319.2
860.8
Front
100
on
 
 
0
0
0
 
0
 
 
 
0
 
 
0
0
0
0
0
 
 
 
 
0
0


0
0
#HDR
-1
-1
#GR
nm
%R
1.0
0.0
2500.000000
-10.000000
226
8
43.711471
12.191314
#DATA
2500.000000	12.717627
2490.000000	12.683580
2480.000000	12.191314
2470.000000	15.978973
2460.000000	13.427081
2450.000000	13.491048
2440.000000	15.595048
2430.000000	15.639108
2420.000000	14.448055
2410.000000	17.042883
2400.000000	16.586217
2390.000000	14.640770
2380.000000	15.642425
2370.000000	15.611820
2360.000000	17.350054
2350.000000	14.903562
2340.000000	16.366053
2330.000000	14.881805
2320.000000	17.427546
2310.000000	16.200538
2300.000000	15.643448
2290.000000	16.672569
2280.000000	15.847413
2270.000000	16.367818
2260.000000	15.918205
2250.000000	16.846141
2240.000000	17.277326
2230.000000	18.050473
2220.000000	17.747816
2210.000000	17.978620
2200.000000	17.403369
2190.000000	17.164151
2180.000000	17.203016
2170.000000	17.306408
2160.000000	17.338926
2150.000000	17.538546
2140.000000	18.256846
2130.000000	19.016996
2120.000000	19.695736
2110.000000	19.142128
2100.000000	20.239477
2090.000000	19.618584
2080.000000	19.381284
2070.000000	18.583212
2060.000000	18.375840
2050.000000	17.852024
2040.000000	17.458336
2030.000000	17.647836
2020.000000	18.177993
2010.000000	18.248469
2000.000000	18.119388
1990.000000	17.636262
1980.000000	17.350588
1970.000000	16.906112
1960.000000	16.465822
1950.000000	15.987205
1940.000000	15.908768
1930.000000	16.416468
1920.000000	17.315197
1910.000000	18.480193
1900.000000	20.620857
1890.000000	23.282908
1880.000000	26.170105
1870.000000	28.196649
1860.000000	29.437948
1850.000000	29.900873
1840.000000	29.734557
1830.000000	29.586923
1820.000000	29.323061
1810.000000	29.002697
1800.000000	28.810791
1790.000000	28.597675
1780.000000	28.355737
1770.000000	27.977598
1760.000000	27.582557
1750.000000	27.236152
1740.000000	26.944630
1730.000000	26.779078
1720.000000	27.076474
1710.000000	27.781774
1700.000000	28.310161
1690.000000	28.540283
1680.000000	29.494174
1670.000000	30.910361
1660.000000	31.905951
1650.000000	32.270649
1640.000000	32.076482
1630.000000	31.892522
1620.000000	31.404583
1610.000000	30.889115
1600.000000	30.426236
1590.000000	29.953046
1580.000000	29.528973
1570.000000	29.196453
1560.000000	28.926362
1550.000000	28.664498
1540.000000	28.148520
1530.000000	27.540453
1520.000000	27.084718
1510.000000	26.884305
1500.000000	26.807328
1490.000000	26.833149
1480.000000	27.081732
1470.000000	27.333811
1460.000000	27.668162
1450.000000	28.159493
1440.000000	28.782922
1430.000000	29.550014
1420.000000	30.626642
1410.000000	32.275269
1400.000000	34.449007
1390.000000	36.542924
1380.000000	37.937524
1370.000000	38.683023
1360.000000	39.148867
1350.000000	39.566423
1340.000000	39.918104
1330.000000	40.319194
1320.000000	40.894672
1310.000000	41.413723
1300.000000	41.755216
1290.000000	41.849088
1280.000000	41.734448
1270.000000	41.632353
1260.000000	41.628092
1250.000000	41.628535
1240.000000	41.383683
1230.000000	41.118906
1220.000000	40.874970
1210.000000	40.488437
1200.000000	40.152944
1190.000000	39.996659
1180.000000	40.228185
1170.000000	40.852644
1160.000000	41.616770
1150.000000	42.282802
1140.000000	42.702800
1130.000000	43.067087
1120.000000	43.294759
1110.000000	43.403159
1100.000000	43.384445
1090.000000	43.324508
1080.000000	43.262327
1070.000000	43.165461
1060.000000	43.074801
1050.000000	42.979780
1040.000000	42.879516
1030.000000	42.856981
1020.000000	42.962965
1010.000000	43.189042
1000.000000	43.433052
990.000000	43.465782
980.000000	43.479155
970.000000	43.526515
960.000000	43.541843
950.000000	43.574194
940.000000	43.620067
930.000000	43.539104
920.000000	43.491532
910.000000	43.492428
900.000000	43.511804
890.000000	43.675332
880.000000	43.711471
870.000000	43.559138
860.000000	43.549838
850.000000	43.100015
840.000000	41.938369
830.000000	41.746442
820.000000	41.704358
810.000000	41.835393
800.000000	41.848234
790.000000	41.780176
780.000000	41.657592
770.000000	41.622524
760.000000	41.661311
750.000000	41.613300
740.000000	41.635884
730.000000	41.532705
720.000000	41.425178
710.000000	41.359232
700.000000	41.307602
690.000000	41.249016
680.000000	41.229821
670.000000	41.168929
660.000000	41.078762
650.000000	41.008710
640.000000	40.893150
630.000000	40.805544
620.000000	40.773693
610.000000	40.647750
600.000000	40.517566
590.000000	40.401606
580.000000	40.245670
570.000000	40.067521
560.000000	39.962434
550.000000	39.813118
540.000000	39.510842
530.000000	39.204714
520.000000	38.801986
510.000000	38.347003
500.000000	37.867465
490.000000	37.431119
480.000000	36.911830
470.000000	36.331456
460.000000	35.689191
450.000000	34.901181
440.000000	33.932281
430.000000	32.781897
420.000000	31.241285
410.000000	29.466512
400.000000	28.024218
390.000000	27.161179
380.000000	26.436265
370.000000	25.713486
360.000000	25.212293
350.000000	24.719888
340.000000	23.814880
330.000000	23.239449
320.000000	22.387096
310.000000	21.239825
300.000000	19.941001
290.000000	17.239503
280.000000	15.445730
270.000000	15.112786
260.000000	15.034082
250.000000	13.973643
