PE UV       SUBTECH     SPECTRUM    ASCII       PEDS        4.00        
   -1
3C-H10-F024.Sample.Raw.asc
22/03/21
16:01:31.00
22/03/21
16:01:31.00
Administrator

250.000000
1
Lambda 750
750N8071901
PerkinElmer UV WinLab 6.0.4.0738 / 1.61.00 Lambda 900

0
0
3350/servo 860.8/2
0
0
UV/VIS
1
1
1
CommonBeamDepol,150mm sphere / downward view
0
0
0
0
Program
Program
3350/servo 860.8/2
3350/0.2 860.8/0.2
3350/0.2 860.8/0.2
0
1
 
 
 
0
 
860.8
319.2
860.8
Front
100
on
 
 
0
0
0
 
0
 
 
 
0
 
 
0
0
0
0
0
 
 
 
 
0
0


0
0
#HDR
-1
-1
#GR
nm
%R
1.0
0.0
2500.000000
-10.000000
226
8
42.318410
10.814692
#DATA
2500.000000	11.196928
2490.000000	11.695383
2480.000000	10.814692
2470.000000	16.098944
2460.000000	13.117916
2450.000000	15.605071
2440.000000	14.596827
2430.000000	15.433611
2420.000000	14.696006
2410.000000	16.280718
2400.000000	16.268084
2390.000000	13.829382
2380.000000	15.218830
2370.000000	17.065427
2360.000000	16.694389
2350.000000	14.826909
2340.000000	16.179394
2330.000000	15.318650
2320.000000	16.009618
2310.000000	15.667457
2300.000000	15.312038
2290.000000	15.736131
2280.000000	15.134579
2270.000000	15.645245
2260.000000	14.937199
2250.000000	17.342548
2240.000000	16.415966
2230.000000	17.662326
2220.000000	17.532057
2210.000000	17.682314
2200.000000	16.763617
2190.000000	16.774775
2180.000000	16.376441
2170.000000	16.893974
2160.000000	17.484221
2150.000000	17.044920
2140.000000	17.649386
2130.000000	18.237403
2120.000000	18.770500
2110.000000	19.172734
2100.000000	19.512510
2090.000000	19.033851
2080.000000	19.064645
2070.000000	18.278155
2060.000000	17.825607
2050.000000	17.623265
2040.000000	16.953168
2030.000000	17.146893
2020.000000	17.555935
2010.000000	17.771343
2000.000000	17.616810
1990.000000	17.269869
1980.000000	16.776422
1970.000000	16.266209
1960.000000	15.956392
1950.000000	15.696614
1940.000000	15.388748
1930.000000	16.052192
1920.000000	16.786000
1910.000000	18.034470
1900.000000	19.989193
1890.000000	22.775314
1880.000000	25.359835
1870.000000	27.383495
1860.000000	28.687261
1850.000000	29.182694
1840.000000	29.148690
1830.000000	28.867146
1820.000000	28.601795
1810.000000	28.334736
1800.000000	28.108425
1790.000000	27.831401
1780.000000	27.650363
1770.000000	27.334666
1760.000000	27.030653
1750.000000	26.662196
1740.000000	26.222207
1730.000000	26.074599
1720.000000	26.515160
1710.000000	27.114821
1700.000000	27.452057
1690.000000	27.944403
1680.000000	28.827107
1670.000000	30.172376
1660.000000	31.110685
1650.000000	31.460004
1640.000000	31.295867
1630.000000	31.036721
1620.000000	30.626593
1610.000000	30.139993
1600.000000	29.663757
1590.000000	29.223020
1580.000000	28.828823
1570.000000	28.539651
1560.000000	28.289374
1550.000000	27.964173
1540.000000	27.497870
1530.000000	26.969832
1520.000000	26.548390
1510.000000	26.334531
1500.000000	26.220006
1490.000000	26.194648
1480.000000	26.434604
1470.000000	26.699243
1460.000000	27.003469
1450.000000	27.526195
1440.000000	28.117475
1430.000000	28.835577
1420.000000	29.851287
1410.000000	31.404870
1400.000000	33.590451
1390.000000	35.646149
1380.000000	36.977779
1370.000000	37.645935
1360.000000	38.129039
1350.000000	38.511752
1340.000000	38.819880
1330.000000	39.221921
1320.000000	39.824809
1310.000000	40.369932
1300.000000	40.739455
1290.000000	40.768210
1280.000000	40.671399
1270.000000	40.527337
1260.000000	40.510118
1250.000000	40.520633
1240.000000	40.403681
1230.000000	40.162387
1220.000000	39.807396
1210.000000	39.396337
1200.000000	39.112563
1190.000000	39.007207
1180.000000	39.224515
1170.000000	39.820822
1160.000000	40.562655
1150.000000	41.183192
1140.000000	41.642892
1130.000000	41.971601
1120.000000	42.113228
1110.000000	42.101405
1100.000000	42.109544
1090.000000	42.044424
1080.000000	42.027677
1070.000000	41.953168
1060.000000	41.808846
1050.000000	41.732867
1040.000000	41.678736
1030.000000	41.658091
1020.000000	41.685268
1010.000000	41.866337
1000.000000	42.105074
990.000000	42.159006
980.000000	42.168279
970.000000	42.184683
960.000000	42.207150
950.000000	42.275493
940.000000	42.306956
930.000000	42.168859
920.000000	42.119583
910.000000	42.204484
900.000000	42.264405
890.000000	42.318410
880.000000	42.191154
870.000000	42.133291
860.000000	42.254065
850.000000	41.935149
840.000000	41.051227
830.000000	40.923260
820.000000	40.868001
810.000000	40.892706
800.000000	40.857490
790.000000	40.810796
780.000000	40.743093
770.000000	40.723701
760.000000	40.747836
750.000000	40.754650
740.000000	40.661483
730.000000	40.559562
720.000000	40.514449
710.000000	40.468034
700.000000	40.441150
690.000000	40.339937
680.000000	40.306374
670.000000	40.235913
660.000000	40.138342
650.000000	40.029085
640.000000	39.913266
630.000000	39.840496
620.000000	39.772625
610.000000	39.681314
600.000000	39.592117
590.000000	39.474214
580.000000	39.306508
570.000000	39.184543
560.000000	39.101067
550.000000	38.944767
540.000000	38.633939
530.000000	38.344284
520.000000	38.013603
510.000000	37.556236
500.000000	37.082791
490.000000	36.645443
480.000000	36.150985
470.000000	35.600764
460.000000	34.978207
450.000000	34.256697
440.000000	33.359942
430.000000	32.217913
420.000000	30.810498
410.000000	29.215687
400.000000	27.840445
390.000000	26.969515
380.000000	26.351754
370.000000	25.814935
360.000000	25.366259
350.000000	24.561414
340.000000	23.732606
330.000000	23.335487
320.000000	22.536793
310.000000	21.597941
300.000000	20.331880
290.000000	17.770342
280.000000	16.051606
270.000000	15.677809
260.000000	15.554366
250.000000	14.522218
