PE UV       SUBTECH     SPECTRUM    ASCII       PEDS        4.00        
   -1
3C-H10-F010.Sample.Raw.asc
22/02/28
15:33:15.00
22/02/28
15:33:15.00
Administrator

250.000000
1
Lambda 750
750N8071901
PerkinElmer UV WinLab 6.0.4.0738 / 1.61.00 Lambda 900

0
0
3350/servo 860.8/2
0
0
UV/VIS
1
1
1
CommonBeamDepol,150mm sphere / downward view
0
0
0
0
Program
Program
3350/servo 860.8/2
3350/0.2 860.8/0.2
3350/0.2 860.8/0.2
0
1
 
 
 
0
 
860.8
319.2
860.8
Front
100
on
 
 
0
0
0
 
0
 
 
 
0
 
 
0
0
0
0
0
 
 
 
 
0
0


0
0
#HDR
-1
-1
#GR
nm
%R
1.0
0.0
2500.000000
-10.000000
226
8
48.034086
8.321637
#DATA
2500.000000	14.702050
2490.000000	13.500413
2480.000000	16.948112
2470.000000	12.409950
2460.000000	20.110916
2450.000000	14.666971
2440.000000	8.321637
2430.000000	8.498287
2420.000000	13.745709
2410.000000	18.070979
2400.000000	21.652070
2390.000000	18.521260
2380.000000	16.856539
2370.000000	14.434169
2360.000000	18.580244
2350.000000	19.121461
2340.000000	14.312218
2330.000000	16.279436
2320.000000	20.067839
2310.000000	15.138371
2300.000000	18.252080
2290.000000	19.150324
2280.000000	19.775368
2270.000000	17.392877
2260.000000	16.699467
2250.000000	18.222422
2240.000000	19.673166
2230.000000	21.042881
2220.000000	21.598496
2210.000000	18.449931
2200.000000	19.090533
2190.000000	18.499270
2180.000000	18.142083
2170.000000	19.724530
2160.000000	20.025196
2150.000000	18.745347
2140.000000	21.030335
2130.000000	20.282519
2120.000000	20.714495
2110.000000	20.220404
2100.000000	21.985485
2090.000000	21.373778
2080.000000	21.411462
2070.000000	21.321493
2060.000000	19.913053
2050.000000	19.847604
2040.000000	19.454677
2030.000000	19.672318
2020.000000	19.385882
2010.000000	19.611314
2000.000000	20.043562
1990.000000	19.395951
1980.000000	19.341250
1970.000000	18.514990
1960.000000	17.673047
1950.000000	17.710258
1940.000000	17.914186
1930.000000	18.447909
1920.000000	18.899864
1910.000000	20.170635
1900.000000	22.442014
1890.000000	25.617913
1880.000000	28.865379
1870.000000	30.890012
1860.000000	32.692087
1850.000000	32.520544
1840.000000	32.224681
1830.000000	32.388999
1820.000000	31.967150
1810.000000	31.810984
1800.000000	31.648133
1790.000000	31.131491
1780.000000	30.733746
1770.000000	30.207985
1760.000000	30.056826
1750.000000	29.714367
1740.000000	29.417983
1730.000000	29.176986
1720.000000	29.413650
1710.000000	30.117866
1700.000000	30.736109
1690.000000	31.310440
1680.000000	32.182061
1670.000000	33.505892
1660.000000	34.553733
1650.000000	34.990377
1640.000000	35.007278
1630.000000	34.718897
1620.000000	34.283850
1610.000000	33.702419
1600.000000	33.063217
1590.000000	32.542223
1580.000000	32.340549
1570.000000	31.696506
1560.000000	31.338676
1550.000000	31.169164
1540.000000	30.696107
1530.000000	29.999744
1520.000000	29.672203
1510.000000	29.358222
1500.000000	29.095138
1490.000000	29.371052
1480.000000	29.440824
1470.000000	29.760989
1460.000000	30.195290
1450.000000	30.632007
1440.000000	31.194955
1430.000000	31.765358
1420.000000	32.270685
1410.000000	33.873838
1400.000000	36.731097
1390.000000	39.620490
1380.000000	41.543120
1370.000000	42.292976
1360.000000	42.340570
1350.000000	42.370156
1340.000000	42.544898
1330.000000	43.102794
1320.000000	44.582307
1310.000000	45.847012
1300.000000	46.593748
1290.000000	46.902823
1280.000000	46.531937
1270.000000	46.143194
1260.000000	45.962729
1250.000000	45.857484
1240.000000	45.834852
1230.000000	45.474770
1220.000000	45.112626
1210.000000	44.739971
1200.000000	44.381193
1190.000000	44.257185
1180.000000	44.380913
1170.000000	44.947043
1160.000000	45.696154
1150.000000	46.594351
1140.000000	47.424541
1130.000000	47.824440
1120.000000	47.750821
1110.000000	47.574651
1100.000000	47.432738
1090.000000	47.453299
1080.000000	47.451639
1070.000000	47.340557
1060.000000	47.149297
1050.000000	47.127229
1040.000000	47.026157
1030.000000	46.767340
1020.000000	46.740127
1010.000000	47.086494
1000.000000	47.721829
990.000000	48.034086
980.000000	47.839594
970.000000	47.733060
960.000000	47.620570
950.000000	47.561648
940.000000	47.631410
930.000000	47.377291
920.000000	47.087760
910.000000	47.141812
900.000000	47.344631
890.000000	47.150614
880.000000	46.599988
870.000000	46.754593
860.000000	47.469047
850.000000	47.594931
840.000000	47.779163
830.000000	48.001745
820.000000	47.933933
810.000000	47.917060
800.000000	47.708441
790.000000	47.453139
780.000000	47.400442
770.000000	47.528169
760.000000	47.487994
750.000000	47.365339
740.000000	47.210012
730.000000	47.120981
720.000000	47.103112
710.000000	46.998415
700.000000	46.855129
690.000000	46.790136
680.000000	46.819201
670.000000	46.690060
660.000000	46.500223
650.000000	46.446150
640.000000	46.294144
630.000000	46.172436
620.000000	46.069038
610.000000	45.887007
600.000000	45.672103
590.000000	45.515068
580.000000	45.338813
570.000000	45.064297
560.000000	44.776682
550.000000	44.523841
540.000000	44.184472
530.000000	43.880793
520.000000	43.531487
510.000000	43.222035
500.000000	42.834278
490.000000	42.316592
480.000000	41.664708
470.000000	40.879560
460.000000	40.119365
450.000000	39.124974
440.000000	38.006453
430.000000	36.653624
420.000000	34.939744
410.000000	32.963071
400.000000	31.261043
390.000000	30.269266
380.000000	29.475623
370.000000	28.557391
360.000000	27.453765
350.000000	26.541748
340.000000	25.636806
330.000000	24.586958
320.000000	23.872587
310.000000	23.273096
300.000000	21.211673
290.000000	18.637174
280.000000	16.850692
270.000000	16.342897
260.000000	16.156221
250.000000	14.960511
