PE UV       SUBTECH     SPECTRUM    ASCII       PEDS        4.00        
   -1
3C-N10-F015.Sample.Raw.asc
22/03/25
15:30:36.00
22/03/25
15:30:36.00
Administrator

250.000000
1
Lambda 750
750N8071901
PerkinElmer UV WinLab 6.0.4.0738 / 1.61.00 Lambda 900

0
0
3350/servo 860.8/2
0
0
UV/VIS
1
1
1
CommonBeamDepol,150mm sphere / downward view
0
0
0
0
Program
Program
3350/servo 860.8/2
3350/0.2 860.8/0.2
3350/0.2 860.8/0.2
0
1
 
 
 
0
 
860.8
319.2
860.8
Front
100
on
 
 
0
0
0
 
0
 
 
 
0
 
 
0
0
0
0
0
 
 
 
 
0
0


0
0
#HDR
-1
-1
#GR
nm
%R
1.0
0.0
2500.000000
-10.000000
226
8
40.810449
6.908183
#DATA
2500.000000	6.908183
2490.000000	13.684608
2480.000000	10.864922
2470.000000	13.604536
2460.000000	12.211978
2450.000000	12.269992
2440.000000	12.938606
2430.000000	12.645765
2420.000000	12.739900
2410.000000	12.816636
2400.000000	14.005473
2390.000000	15.824127
2380.000000	15.109677
2370.000000	14.162799
2360.000000	14.083195
2350.000000	13.201538
2340.000000	12.483135
2330.000000	13.368433
2320.000000	13.788970
2310.000000	13.643456
2300.000000	12.664585
2290.000000	13.370766
2280.000000	13.403059
2270.000000	13.097762
2260.000000	13.282031
2250.000000	13.747826
2240.000000	14.594282
2230.000000	14.726502
2220.000000	15.208715
2210.000000	15.587623
2200.000000	14.679866
2190.000000	14.934830
2180.000000	14.144509
2170.000000	14.916103
2160.000000	15.628472
2150.000000	14.768375
2140.000000	15.323528
2130.000000	16.719221
2120.000000	16.468391
2110.000000	17.098256
2100.000000	16.753220
2090.000000	17.002561
2080.000000	17.036042
2070.000000	16.251099
2060.000000	15.567060
2050.000000	15.499045
2040.000000	14.741651
2030.000000	14.892060
2020.000000	15.052938
2010.000000	15.317326
2000.000000	15.315961
1990.000000	14.744482
1980.000000	14.526059
1970.000000	13.887843
1960.000000	13.578478
1950.000000	13.266259
1940.000000	13.034366
1930.000000	13.439232
1920.000000	14.151320
1910.000000	15.729691
1900.000000	17.695122
1890.000000	20.358061
1880.000000	22.999003
1870.000000	25.054392
1860.000000	25.885918
1850.000000	26.147678
1840.000000	26.380081
1830.000000	26.171515
1820.000000	25.901789
1810.000000	25.743596
1800.000000	25.410585
1790.000000	25.163205
1780.000000	24.970244
1770.000000	24.763980
1760.000000	24.436538
1750.000000	24.186922
1740.000000	23.901702
1730.000000	23.646025
1720.000000	23.949614
1710.000000	24.597539
1700.000000	25.018989
1690.000000	25.170029
1680.000000	26.040361
1670.000000	27.310995
1660.000000	28.117036
1650.000000	28.423856
1640.000000	28.333064
1630.000000	28.029952
1620.000000	27.714714
1610.000000	27.296323
1600.000000	26.739264
1590.000000	26.362819
1580.000000	26.031801
1570.000000	25.702334
1560.000000	25.407168
1550.000000	25.197090
1540.000000	24.778949
1530.000000	24.204356
1520.000000	23.813620
1510.000000	23.567464
1500.000000	23.498026
1490.000000	23.502002
1480.000000	23.661623
1470.000000	23.943236
1460.000000	24.226185
1450.000000	24.632843
1440.000000	25.219477
1430.000000	25.946747
1420.000000	26.844473
1410.000000	28.285675
1400.000000	30.231296
1390.000000	32.140398
1380.000000	33.398154
1370.000000	33.977679
1360.000000	34.369208
1350.000000	34.697676
1340.000000	34.943497
1330.000000	35.217359
1320.000000	35.706280
1310.000000	36.234195
1300.000000	36.601718
1290.000000	36.747500
1280.000000	36.706213
1270.000000	36.611135
1260.000000	36.580240
1250.000000	36.549768
1240.000000	36.475842
1230.000000	36.325792
1220.000000	36.057248
1210.000000	35.748885
1200.000000	35.464359
1190.000000	35.414874
1180.000000	35.660168
1170.000000	36.222780
1160.000000	36.906900
1150.000000	37.451832
1140.000000	37.875716
1130.000000	38.202515
1120.000000	38.446598
1110.000000	38.505813
1100.000000	38.582800
1090.000000	38.608815
1080.000000	38.625135
1070.000000	38.606758
1060.000000	38.581041
1050.000000	38.558857
1040.000000	38.566769
1030.000000	38.618100
1020.000000	38.763327
1010.000000	39.075272
1000.000000	39.368230
990.000000	39.501847
980.000000	39.525637
970.000000	39.585806
960.000000	39.726082
950.000000	39.829850
940.000000	39.853466
930.000000	39.896033
920.000000	39.901710
910.000000	39.973866
900.000000	40.136649
890.000000	40.330417
880.000000	40.378877
870.000000	40.575695
860.000000	40.810449
850.000000	40.041068
840.000000	39.039429
830.000000	39.075840
820.000000	39.158070
810.000000	39.212003
800.000000	39.287350
790.000000	39.299497
780.000000	39.311190
770.000000	39.210301
760.000000	39.241134
750.000000	39.243928
740.000000	39.363704
730.000000	39.430187
720.000000	39.425848
710.000000	39.403813
700.000000	39.475053
690.000000	39.470047
680.000000	39.472619
670.000000	39.472675
660.000000	39.511119
650.000000	39.583838
640.000000	39.584373
630.000000	39.529763
620.000000	39.527315
610.000000	39.480486
600.000000	39.443559
590.000000	39.434704
580.000000	39.386284
570.000000	39.339087
560.000000	39.279936
550.000000	39.161996
540.000000	39.010884
530.000000	38.750997
520.000000	38.461588
510.000000	38.117136
500.000000	37.702399
490.000000	37.358590
480.000000	36.953377
470.000000	36.464784
460.000000	35.832203
450.000000	35.048179
440.000000	34.114994
430.000000	32.822738
420.000000	31.105905
410.000000	29.189929
400.000000	27.528710
390.000000	26.543077
380.000000	25.823153
370.000000	25.119218
360.000000	24.449349
350.000000	23.696187
340.000000	22.634522
330.000000	21.538123
320.000000	20.582069
310.000000	19.789909
300.000000	17.929577
290.000000	15.611179
280.000000	14.268109
270.000000	14.059049
260.000000	14.031123
250.000000	13.066234
