PE UV       SUBTECH     SPECTRUM    ASCII       PEDS        4.00        
   -1
3C-H10-F009.Sample.Raw.asc
22/02/28
15:29:48.00
22/02/28
15:29:48.00
Administrator

250.000000
1
Lambda 750
750N8071901
PerkinElmer UV WinLab 6.0.4.0738 / 1.61.00 Lambda 900

0
0
3350/servo 860.8/2
0
0
UV/VIS
1
1
1
CommonBeamDepol,150mm sphere / downward view
0
0
0
0
Program
Program
3350/servo 860.8/2
3350/0.2 860.8/0.2
3350/0.2 860.8/0.2
0
1
 
 
 
0
 
860.8
319.2
860.8
Front
100
on
 
 
0
0
0
 
0
 
 
 
0
 
 
0
0
0
0
0
 
 
 
 
0
0


0
0
#HDR
-1
-1
#GR
nm
%R
1.0
0.0
2500.000000
-10.000000
226
8
47.628801
4.934249
#DATA
2500.000000	4.934249
2490.000000	12.764320
2480.000000	14.933598
2470.000000	10.002979
2460.000000	12.164151
2450.000000	14.065274
2440.000000	15.189986
2430.000000	15.861066
2420.000000	15.449226
2410.000000	11.524423
2400.000000	21.752378
2390.000000	17.457086
2380.000000	21.110222
2370.000000	17.886107
2360.000000	18.795817
2350.000000	19.156662
2340.000000	13.531098
2330.000000	21.504374
2320.000000	18.419169
2310.000000	14.572147
2300.000000	17.248863
2290.000000	18.110936
2280.000000	15.932548
2270.000000	15.701123
2260.000000	15.543917
2250.000000	17.241336
2240.000000	18.071818
2230.000000	18.979122
2220.000000	20.284322
2210.000000	19.796459
2200.000000	19.894828
2190.000000	18.369657
2180.000000	18.235161
2170.000000	19.578152
2160.000000	18.908635
2150.000000	19.133204
2140.000000	20.897248
2130.000000	21.335611
2120.000000	19.895869
2110.000000	20.653749
2100.000000	20.354235
2090.000000	19.982856
2080.000000	19.948292
2070.000000	20.221403
2060.000000	20.611646
2050.000000	19.291478
2040.000000	18.785048
2030.000000	18.875632
2020.000000	19.732459
2010.000000	20.166580
2000.000000	19.221508
1990.000000	18.963380
1980.000000	18.143405
1970.000000	18.597296
1960.000000	17.574508
1950.000000	17.257334
1940.000000	17.004652
1930.000000	17.624446
1920.000000	18.445786
1910.000000	20.178276
1900.000000	22.837767
1890.000000	25.285080
1880.000000	28.162001
1870.000000	30.216265
1860.000000	31.931138
1850.000000	32.013429
1840.000000	31.814037
1830.000000	31.867768
1820.000000	31.564808
1810.000000	31.497497
1800.000000	31.334448
1790.000000	30.908833
1780.000000	30.431384
1770.000000	29.984684
1760.000000	29.670485
1750.000000	29.198720
1740.000000	29.080972
1730.000000	28.655442
1720.000000	29.242532
1710.000000	29.618139
1700.000000	30.180385
1690.000000	30.646487
1680.000000	31.867143
1670.000000	33.254431
1660.000000	34.212723
1650.000000	34.637542
1640.000000	34.557159
1630.000000	34.307901
1620.000000	33.844313
1610.000000	33.336966
1600.000000	32.589071
1590.000000	32.114856
1580.000000	31.880609
1570.000000	31.249396
1560.000000	30.991369
1550.000000	30.800914
1540.000000	30.390577
1530.000000	29.614606
1520.000000	29.174355
1510.000000	29.044972
1500.000000	28.939016
1490.000000	29.012461
1480.000000	29.099903
1470.000000	29.367339
1460.000000	29.719395
1450.000000	30.327201
1440.000000	30.829165
1430.000000	31.294192
1420.000000	31.847175
1410.000000	33.514075
1400.000000	36.281478
1390.000000	39.435347
1380.000000	41.495212
1370.000000	41.971770
1360.000000	41.891443
1350.000000	41.897995
1340.000000	42.038028
1330.000000	42.802258
1320.000000	44.288239
1310.000000	45.444754
1300.000000	46.191976
1290.000000	46.568381
1280.000000	46.185098
1270.000000	45.740123
1260.000000	45.629858
1250.000000	45.495542
1240.000000	45.103234
1230.000000	44.958270
1220.000000	44.648395
1210.000000	44.151933
1200.000000	43.901302
1190.000000	43.972073
1180.000000	44.255510
1170.000000	44.598297
1160.000000	45.496875
1150.000000	46.301739
1140.000000	47.003809
1130.000000	47.197714
1120.000000	47.031392
1110.000000	47.058824
1100.000000	47.230455
1090.000000	47.263046
1080.000000	47.200209
1070.000000	47.079659
1060.000000	46.889998
1050.000000	46.611580
1040.000000	46.370492
1030.000000	46.373290
1020.000000	46.384551
1010.000000	46.757656
1000.000000	47.407426
990.000000	47.628801
980.000000	47.477567
970.000000	47.392079
960.000000	47.282452
950.000000	47.268727
940.000000	47.283834
930.000000	46.966028
920.000000	46.894136
910.000000	47.062034
900.000000	47.072590
890.000000	46.996993
880.000000	46.606441
870.000000	46.632430
860.000000	46.446975
850.000000	46.571717
840.000000	47.329029
830.000000	47.166363
820.000000	47.116342
810.000000	47.172605
800.000000	47.140652
790.000000	47.054143
780.000000	47.084622
770.000000	46.993848
760.000000	46.909041
750.000000	46.799109
740.000000	46.728136
730.000000	46.788378
720.000000	46.649665
710.000000	46.566309
700.000000	46.497181
690.000000	46.397816
680.000000	46.310617
670.000000	46.268739
660.000000	46.066076
650.000000	45.939898
640.000000	45.921663
630.000000	45.790659
620.000000	45.644433
610.000000	45.515905
600.000000	45.266839
590.000000	45.118182
580.000000	44.927245
570.000000	44.679854
560.000000	44.485940
550.000000	44.150121
540.000000	43.855711
530.000000	43.558746
520.000000	43.212238
510.000000	42.909027
500.000000	42.507893
490.000000	42.003707
480.000000	41.406762
470.000000	40.603070
460.000000	39.854589
450.000000	38.945459
440.000000	37.776517
430.000000	36.368228
420.000000	34.673428
410.000000	32.728167
400.000000	31.135181
390.000000	30.185460
380.000000	29.382316
370.000000	28.475700
360.000000	27.197826
350.000000	26.334450
340.000000	25.574388
330.000000	24.961867
320.000000	23.813935
310.000000	22.144821
300.000000	20.515740
290.000000	18.070537
280.000000	16.481057
270.000000	16.255872
260.000000	16.254378
250.000000	15.121211
