PE UV       SUBTECH     SPECTRUM    ASCII       PEDS        4.00        
   -1
3C-N10-F022.Sample.Raw.asc
22/03/25
15:52:40.00
22/03/25
15:52:40.00
Administrator

250.000000
1
Lambda 750
750N8071901
PerkinElmer UV WinLab 6.0.4.0738 / 1.61.00 Lambda 900

0
0
3350/servo 860.8/2
0
0
UV/VIS
1
1
1
CommonBeamDepol,150mm sphere / downward view
0
0
0
0
Program
Program
3350/servo 860.8/2
3350/0.2 860.8/0.2
3350/0.2 860.8/0.2
0
1
 
 
 
0
 
860.8
319.2
860.8
Front
100
on
 
 
0
0
0
 
0
 
 
 
0
 
 
0
0
0
0
0
 
 
 
 
0
0


0
0
#HDR
-1
-1
#GR
nm
%R
1.0
0.0
2500.000000
-10.000000
226
8
40.599148
7.156920
#DATA
2500.000000	7.156920
2490.000000	10.727453
2480.000000	13.389917
2470.000000	11.706466
2460.000000	10.667333
2450.000000	12.819368
2440.000000	11.944807
2430.000000	13.441339
2420.000000	13.819223
2410.000000	14.088229
2400.000000	12.529928
2390.000000	14.339831
2380.000000	14.149100
2370.000000	13.387845
2360.000000	13.035857
2350.000000	13.559681
2340.000000	13.387867
2330.000000	13.013748
2320.000000	13.449775
2310.000000	13.568308
2300.000000	12.309978
2290.000000	12.439454
2280.000000	12.830955
2270.000000	13.246062
2260.000000	12.922427
2250.000000	13.849837
2240.000000	14.329786
2230.000000	15.108234
2220.000000	15.242012
2210.000000	15.227662
2200.000000	14.799525
2190.000000	14.538045
2180.000000	14.199856
2170.000000	14.319331
2160.000000	14.991153
2150.000000	14.829194
2140.000000	15.481527
2130.000000	15.824798
2120.000000	16.259576
2110.000000	17.038321
2100.000000	16.819365
2090.000000	16.460813
2080.000000	16.708698
2070.000000	16.069034
2060.000000	15.241270
2050.000000	15.071466
2040.000000	14.467289
2030.000000	14.793171
2020.000000	15.076619
2010.000000	15.179508
2000.000000	15.147839
1990.000000	14.646215
1980.000000	14.322158
1970.000000	13.759568
1960.000000	13.426154
1950.000000	12.963490
1940.000000	12.831087
1930.000000	13.260741
1920.000000	14.185922
1910.000000	15.348756
1900.000000	17.463777
1890.000000	20.202423
1880.000000	22.458374
1870.000000	24.630065
1860.000000	25.899920
1850.000000	26.150672
1840.000000	26.122916
1830.000000	25.886927
1820.000000	25.650212
1810.000000	25.498937
1800.000000	25.177613
1790.000000	24.943364
1780.000000	24.760679
1770.000000	24.459543
1760.000000	24.093265
1750.000000	23.889258
1740.000000	23.643402
1730.000000	23.372364
1720.000000	23.756230
1710.000000	24.283237
1700.000000	24.713311
1690.000000	24.940323
1680.000000	25.823112
1670.000000	27.003593
1660.000000	27.859887
1650.000000	28.140674
1640.000000	28.056704
1630.000000	27.771971
1620.000000	27.456181
1610.000000	27.021315
1600.000000	26.528675
1590.000000	26.147634
1580.000000	25.761434
1570.000000	25.432090
1560.000000	25.169711
1550.000000	24.961390
1540.000000	24.552768
1530.000000	24.008728
1520.000000	23.546585
1510.000000	23.306122
1500.000000	23.238058
1490.000000	23.252624
1480.000000	23.349739
1470.000000	23.657251
1460.000000	23.996155
1450.000000	24.407963
1440.000000	24.989565
1430.000000	25.667854
1420.000000	26.564297
1410.000000	28.044461
1400.000000	29.966071
1390.000000	31.950603
1380.000000	33.290375
1370.000000	33.876906
1360.000000	34.257721
1350.000000	34.648559
1340.000000	34.893467
1330.000000	35.227674
1320.000000	35.779398
1310.000000	36.373024
1300.000000	36.731892
1290.000000	36.895161
1280.000000	36.859920
1270.000000	36.775641
1260.000000	36.757173
1250.000000	36.727847
1240.000000	36.636183
1230.000000	36.477858
1220.000000	36.222722
1210.000000	35.919241
1200.000000	35.588621
1190.000000	35.528870
1180.000000	35.815037
1170.000000	36.412045
1160.000000	37.104685
1150.000000	37.657348
1140.000000	38.096816
1130.000000	38.413666
1120.000000	38.597088
1110.000000	38.772891
1100.000000	38.818796
1090.000000	38.852914
1080.000000	38.814641
1070.000000	38.751095
1060.000000	38.718409
1050.000000	38.666361
1040.000000	38.655923
1030.000000	38.679159
1020.000000	38.789010
1010.000000	39.075272
1000.000000	39.401606
990.000000	39.545560
980.000000	39.548426
970.000000	39.627940
960.000000	39.791342
950.000000	39.882817
940.000000	39.953059
930.000000	39.979493
920.000000	39.873651
910.000000	39.910997
900.000000	40.163732
890.000000	40.321510
880.000000	40.378457
870.000000	40.405320
860.000000	40.599148
850.000000	40.124474
840.000000	39.317468
830.000000	39.367471
820.000000	39.451243
810.000000	39.529593
800.000000	39.576058
790.000000	39.531177
780.000000	39.521975
770.000000	39.620298
760.000000	39.651607
750.000000	39.607396
740.000000	39.688067
730.000000	39.743135
720.000000	39.746459
710.000000	39.792484
700.000000	39.799893
690.000000	39.802831
680.000000	39.831966
670.000000	39.880754
660.000000	39.947612
650.000000	39.976087
640.000000	39.921775
630.000000	39.915576
620.000000	39.881234
610.000000	39.822556
600.000000	39.868359
590.000000	39.837366
580.000000	39.797139
570.000000	39.705861
560.000000	39.618366
550.000000	39.501224
540.000000	39.333251
530.000000	39.050485
520.000000	38.737723
510.000000	38.396642
500.000000	38.027651
490.000000	37.631760
480.000000	37.139647
470.000000	36.650115
460.000000	36.016477
450.000000	35.171867
440.000000	34.224899
430.000000	32.972288
420.000000	31.254702
410.000000	29.236194
400.000000	27.565098
390.000000	26.547216
380.000000	25.850241
370.000000	25.213613
360.000000	24.553403
350.000000	23.780801
340.000000	22.848228
330.000000	21.752271
320.000000	20.959971
310.000000	19.901955
300.000000	18.036242
290.000000	15.867469
280.000000	14.515402
270.000000	14.396354
260.000000	14.293519
250.000000	13.222378
