PE UV       SUBTECH     SPECTRUM    ASCII       PEDS        4.00        
   -1
3C-N10-C027.Sample.Raw.asc
22/03/22
17:56:28.00
22/03/22
17:56:28.00
Administrator

250.000000
1
Lambda 750
750N8071901
PerkinElmer UV WinLab 6.0.4.0738 / 1.61.00 Lambda 900

0
0
3350/servo 860.8/2
0
0
UV/VIS
1
1
1
CommonBeamDepol,150mm sphere / downward view
0
0
0
0
Program
Program
3350/servo 860.8/2
3350/0.2 860.8/0.2
3350/0.2 860.8/0.2
0
1
 
 
 
0
 
860.8
319.2
860.8
Front
100
on
 
 
0
0
0
 
0
 
 
 
0
 
 
0
0
0
0
0
 
 
 
 
0
0


0
0
#HDR
-1
-1
#GR
nm
%R
1.0
0.0
2500.000000
-10.000000
226
8
49.242152
10.724994
#DATA
2500.000000	13.256106
2490.000000	15.104192
2480.000000	10.724994
2470.000000	13.891047
2460.000000	14.629967
2450.000000	14.444886
2440.000000	16.787777
2430.000000	16.850657
2420.000000	16.885241
2410.000000	16.289911
2400.000000	17.091746
2390.000000	16.858718
2380.000000	16.636063
2370.000000	17.882715
2360.000000	17.006302
2350.000000	18.535902
2340.000000	15.829013
2330.000000	17.277492
2320.000000	18.051538
2310.000000	16.463359
2300.000000	15.456996
2290.000000	16.305337
2280.000000	15.551695
2270.000000	16.246612
2260.000000	16.235837
2250.000000	16.914197
2240.000000	17.399792
2230.000000	17.890758
2220.000000	18.853011
2210.000000	18.390385
2200.000000	18.566623
2190.000000	17.922138
2180.000000	18.036215
2170.000000	17.266469
2160.000000	17.852851
2150.000000	18.551625
2140.000000	19.111226
2130.000000	19.878777
2120.000000	19.994238
2110.000000	20.020266
2100.000000	20.925192
2090.000000	20.594061
2080.000000	20.164093
2070.000000	19.441001
2060.000000	18.745300
2050.000000	18.809714
2040.000000	17.855723
2030.000000	17.936393
2020.000000	18.780618
2010.000000	18.983393
2000.000000	18.439256
1990.000000	17.986806
1980.000000	17.521448
1970.000000	16.702802
1960.000000	16.678714
1950.000000	15.970897
1940.000000	15.814769
1930.000000	16.275443
1920.000000	17.192964
1910.000000	18.832005
1900.000000	21.446157
1890.000000	24.621621
1880.000000	27.576495
1870.000000	30.065439
1860.000000	31.333265
1850.000000	31.740632
1840.000000	31.705903
1830.000000	31.547800
1820.000000	31.301817
1810.000000	31.087779
1800.000000	30.758992
1790.000000	30.417728
1780.000000	30.114652
1770.000000	29.718160
1760.000000	29.391592
1750.000000	29.015407
1740.000000	28.672983
1730.000000	28.464175
1720.000000	28.918541
1710.000000	29.644828
1700.000000	30.076279
1690.000000	30.508540
1680.000000	31.440061
1670.000000	32.793117
1660.000000	33.709141
1650.000000	34.289262
1640.000000	34.120474
1630.000000	33.843740
1620.000000	33.434693
1610.000000	32.875912
1600.000000	32.263543
1590.000000	31.731176
1580.000000	31.301905
1570.000000	30.888876
1560.000000	30.642902
1550.000000	30.451624
1540.000000	29.955303
1530.000000	29.272724
1520.000000	28.790116
1510.000000	28.462610
1500.000000	28.260686
1490.000000	28.284020
1480.000000	28.530643
1470.000000	28.851812
1460.000000	29.204479
1450.000000	29.688934
1440.000000	30.366289
1430.000000	31.198124
1420.000000	32.328090
1410.000000	33.991817
1400.000000	36.292827
1390.000000	38.610149
1380.000000	40.167795
1370.000000	40.849752
1360.000000	41.282622
1350.000000	41.796861
1340.000000	42.244224
1330.000000	42.796888
1320.000000	43.587484
1310.000000	44.291259
1300.000000	44.775689
1290.000000	45.025729
1280.000000	45.102798
1270.000000	45.036896
1260.000000	44.907952
1250.000000	44.744550
1240.000000	44.593394
1230.000000	44.438829
1220.000000	44.268789
1210.000000	43.920383
1200.000000	43.532021
1190.000000	43.415332
1180.000000	43.619741
1170.000000	44.106445
1160.000000	44.937509
1150.000000	45.687646
1140.000000	46.315063
1130.000000	46.727037
1120.000000	46.847733
1110.000000	46.779839
1100.000000	46.731565
1090.000000	46.746134
1080.000000	46.740639
1070.000000	46.695760
1060.000000	46.634816
1050.000000	46.569282
1040.000000	46.551256
1030.000000	46.392610
1020.000000	46.383258
1010.000000	46.620467
1000.000000	46.846004
990.000000	46.937187
980.000000	46.972210
970.000000	47.043861
960.000000	47.137548
950.000000	47.235816
940.000000	47.311704
930.000000	47.206375
920.000000	47.165321
910.000000	47.243846
900.000000	47.366678
890.000000	47.645767
880.000000	47.777230
870.000000	47.920069
860.000000	48.051426
850.000000	48.198746
840.000000	48.733220
830.000000	48.865732
820.000000	48.910014
810.000000	48.969320
800.000000	49.041454
790.000000	49.019195
780.000000	48.990902
770.000000	49.048395
760.000000	49.200926
750.000000	49.172241
740.000000	49.068183
730.000000	49.116769
720.000000	49.114460
710.000000	49.210357
700.000000	49.242152
690.000000	49.152861
680.000000	49.112329
670.000000	49.110480
660.000000	49.043055
650.000000	49.091866
640.000000	49.075920
630.000000	48.909029
620.000000	48.879078
610.000000	48.812236
600.000000	48.762297
590.000000	48.702946
580.000000	48.516493
570.000000	48.363929
560.000000	48.218944
550.000000	48.020344
540.000000	47.819886
530.000000	47.645752
520.000000	47.521821
510.000000	47.362579
500.000000	47.048554
490.000000	46.496018
480.000000	45.814712
470.000000	45.107834
460.000000	44.269918
450.000000	43.213891
440.000000	41.973009
430.000000	40.435600
420.000000	38.573277
410.000000	36.513537
400.000000	34.707004
390.000000	33.490258
380.000000	32.497987
370.000000	31.198830
360.000000	29.624119
350.000000	28.554479
340.000000	27.501028
330.000000	26.290154
320.000000	25.318639
310.000000	23.679724
300.000000	21.494693
290.000000	19.262218
280.000000	17.801723
270.000000	17.837510
260.000000	17.803781
250.000000	16.425627
