PE UV       SUBTECH     SPECTRUM    ASCII       PEDS        4.00        
   -1
3C-H10-F020.Sample.Raw.asc
22/03/21
15:49:58.00
22/03/21
15:49:58.00
Administrator

250.000000
1
Lambda 750
750N8071901
PerkinElmer UV WinLab 6.0.4.0738 / 1.61.00 Lambda 900

0
0
3350/servo 860.8/2
0
0
UV/VIS
1
1
1
CommonBeamDepol,150mm sphere / downward view
0
0
0
0
Program
Program
3350/servo 860.8/2
3350/0.2 860.8/0.2
3350/0.2 860.8/0.2
0
1
 
 
 
0
 
860.8
319.2
860.8
Front
100
on
 
 
0
0
0
 
0
 
 
 
0
 
 
0
0
0
0
0
 
 
 
 
0
0


0
0
#HDR
-1
-1
#GR
nm
%R
1.0
0.0
2500.000000
-10.000000
226
8
42.672183
11.315724
#DATA
2500.000000	13.420916
2490.000000	13.612673
2480.000000	11.315724
2470.000000	17.137696
2460.000000	14.918664
2450.000000	13.098824
2440.000000	13.762946
2430.000000	15.739531
2420.000000	14.404728
2410.000000	16.048560
2400.000000	15.529824
2390.000000	14.263260
2380.000000	17.003995
2370.000000	16.717760
2360.000000	17.668914
2350.000000	15.791991
2340.000000	15.490403
2330.000000	15.471569
2320.000000	16.672605
2310.000000	16.408423
2300.000000	15.556600
2290.000000	15.800242
2280.000000	16.037718
2270.000000	15.471616
2260.000000	15.356569
2250.000000	17.256217
2240.000000	17.252379
2230.000000	18.017858
2220.000000	18.223783
2210.000000	18.350570
2200.000000	17.549665
2190.000000	16.874210
2180.000000	17.227852
2170.000000	16.837913
2160.000000	17.423604
2150.000000	17.535996
2140.000000	18.058083
2130.000000	19.258381
2120.000000	19.489871
2110.000000	19.411546
2100.000000	19.602948
2090.000000	19.600109
2080.000000	19.496383
2070.000000	18.516966
2060.000000	18.124576
2050.000000	17.889996
2040.000000	17.481773
2030.000000	17.882770
2020.000000	18.042470
2010.000000	17.971233
2000.000000	18.026611
1990.000000	17.550107
1980.000000	17.126546
1970.000000	16.792690
1960.000000	16.215580
1950.000000	15.749298
1940.000000	15.720832
1930.000000	16.200731
1920.000000	16.825661
1910.000000	18.340349
1900.000000	20.635764
1890.000000	23.315070
1880.000000	25.819611
1870.000000	27.895360
1860.000000	29.056451
1850.000000	29.492975
1840.000000	29.453369
1830.000000	29.308337
1820.000000	29.010621
1810.000000	28.724418
1800.000000	28.549799
1790.000000	28.335073
1780.000000	27.988643
1770.000000	27.713027
1760.000000	27.351680
1750.000000	27.022325
1740.000000	26.575339
1730.000000	26.391778
1720.000000	26.839984
1710.000000	27.535403
1700.000000	27.926340
1690.000000	28.307539
1680.000000	29.272675
1670.000000	30.561219
1660.000000	31.488927
1650.000000	31.846371
1640.000000	31.676826
1630.000000	31.552770
1620.000000	31.135682
1610.000000	30.583675
1600.000000	30.069072
1590.000000	29.586864
1580.000000	29.202423
1570.000000	28.875193
1560.000000	28.631738
1550.000000	28.387593
1540.000000	27.916778
1530.000000	27.378384
1520.000000	26.904854
1510.000000	26.664022
1500.000000	26.545544
1490.000000	26.576627
1480.000000	26.785268
1470.000000	27.112249
1460.000000	27.432988
1450.000000	27.905008
1440.000000	28.508764
1430.000000	29.207392
1420.000000	30.255678
1410.000000	31.797238
1400.000000	33.956244
1390.000000	36.062368
1380.000000	37.431198
1370.000000	38.113578
1360.000000	38.623522
1350.000000	39.038623
1340.000000	39.310744
1330.000000	39.672769
1320.000000	40.214019
1310.000000	40.643206
1300.000000	40.953091
1290.000000	41.026006
1280.000000	40.909186
1270.000000	40.765323
1260.000000	40.735293
1250.000000	40.747096
1240.000000	40.611454
1230.000000	40.379028
1220.000000	40.060786
1210.000000	39.674453
1200.000000	39.355125
1190.000000	39.153165
1180.000000	39.423904
1170.000000	40.048141
1160.000000	40.785375
1150.000000	41.423019
1140.000000	41.894801
1130.000000	42.190606
1120.000000	42.369803
1110.000000	42.379714
1100.000000	42.368007
1090.000000	42.325910
1080.000000	42.314231
1070.000000	42.247576
1060.000000	42.154127
1050.000000	42.052943
1040.000000	41.991510
1030.000000	42.027189
1020.000000	42.109361
1010.000000	42.310317
1000.000000	42.536869
990.000000	42.599606
980.000000	42.570731
970.000000	42.556634
960.000000	42.610445
950.000000	42.672183
940.000000	42.630667
930.000000	42.539575
920.000000	42.463007
910.000000	42.528150
900.000000	42.530043
890.000000	42.609913
880.000000	42.571020
870.000000	42.507560
860.000000	42.489129
850.000000	42.033068
840.000000	40.915109
830.000000	40.723924
820.000000	40.799551
810.000000	40.694592
800.000000	40.698764
790.000000	40.606967
780.000000	40.633570
770.000000	40.648625
760.000000	40.587363
750.000000	40.564870
740.000000	40.536799
730.000000	40.446224
720.000000	40.434904
710.000000	40.357672
700.000000	40.284390
690.000000	40.219111
680.000000	40.165672
670.000000	40.111568
660.000000	40.015381
650.000000	39.945343
640.000000	39.891615
630.000000	39.813039
620.000000	39.765116
610.000000	39.657513
600.000000	39.519709
590.000000	39.439113
580.000000	39.300309
570.000000	39.158919
560.000000	39.073074
550.000000	38.888972
540.000000	38.610424
530.000000	38.318106
520.000000	37.938560
510.000000	37.472098
500.000000	37.005014
490.000000	36.626070
480.000000	36.198819
470.000000	35.631191
460.000000	34.983757
450.000000	34.235441
440.000000	33.311665
430.000000	32.215587
420.000000	30.808600
410.000000	29.169183
400.000000	27.814012
390.000000	26.973900
380.000000	26.357761
370.000000	25.659984
360.000000	25.087234
350.000000	24.566676
340.000000	23.698822
330.000000	23.012021
320.000000	22.232776
310.000000	21.322270
300.000000	20.213779
290.000000	17.769508
280.000000	16.076865
270.000000	15.815308
260.000000	15.683167
250.000000	14.553307
