PE UV       SUBTECH     SPECTRUM    ASCII       PEDS        4.00        
   -1
3C-H10-F014.Sample.Raw.asc
22/03/21
15:32:51.00
22/03/21
15:32:51.00
Administrator

250.000000
1
Lambda 750
750N8071901
PerkinElmer UV WinLab 6.0.4.0738 / 1.61.00 Lambda 900

0
0
3350/servo 860.8/2
0
0
UV/VIS
1
1
1
CommonBeamDepol,150mm sphere / downward view
0
0
0
0
Program
Program
3350/servo 860.8/2
3350/0.2 860.8/0.2
3350/0.2 860.8/0.2
0
1
 
 
 
0
 
860.8
319.2
860.8
Front
100
on
 
 
0
0
0
 
0
 
 
 
0
 
 
0
0
0
0
0
 
 
 
 
0
0


0
0
#HDR
-1
-1
#GR
nm
%R
1.0
0.0
2500.000000
-10.000000
226
8
44.752542
11.485399
#DATA
2500.000000	11.485399
2490.000000	12.625819
2480.000000	11.622644
2470.000000	15.732621
2460.000000	12.841531
2450.000000	14.616831
2440.000000	15.923268
2430.000000	15.055163
2420.000000	14.378591
2410.000000	15.470755
2400.000000	15.429892
2390.000000	14.207827
2380.000000	16.464561
2370.000000	16.642746
2360.000000	16.113262
2350.000000	17.209022
2340.000000	16.518171
2330.000000	14.900718
2320.000000	16.509847
2310.000000	15.634500
2300.000000	15.182345
2290.000000	16.078905
2280.000000	15.711746
2270.000000	15.858429
2260.000000	15.326399
2250.000000	16.785755
2240.000000	16.868937
2230.000000	17.708820
2220.000000	18.039045
2210.000000	18.214598
2200.000000	17.311180
2190.000000	17.441315
2180.000000	17.300041
2170.000000	16.778130
2160.000000	17.626277
2150.000000	17.067863
2140.000000	18.097417
2130.000000	18.876323
2120.000000	18.982841
2110.000000	19.319499
2100.000000	19.702384
2090.000000	19.500575
2080.000000	19.451776
2070.000000	18.652933
2060.000000	18.110913
2050.000000	17.770754
2040.000000	17.465761
2030.000000	17.744083
2020.000000	17.972035
2010.000000	18.160173
2000.000000	18.090483
1990.000000	17.679105
1980.000000	17.175526
1970.000000	16.610934
1960.000000	16.145663
1950.000000	15.814740
1940.000000	15.525795
1930.000000	16.094867
1920.000000	17.176973
1910.000000	18.128946
1900.000000	20.552613
1890.000000	23.547193
1880.000000	26.274483
1870.000000	28.379242
1860.000000	29.800869
1850.000000	30.274605
1840.000000	30.179481
1830.000000	30.085408
1820.000000	29.735846
1810.000000	29.505648
1800.000000	29.247492
1790.000000	28.934237
1780.000000	28.635919
1770.000000	28.372348
1760.000000	28.020428
1750.000000	27.650206
1740.000000	27.219549
1730.000000	27.064001
1720.000000	27.487761
1710.000000	28.026510
1700.000000	28.518434
1690.000000	28.863927
1680.000000	29.926891
1670.000000	31.341007
1660.000000	32.380681
1650.000000	32.734944
1640.000000	32.582712
1630.000000	32.386388
1620.000000	31.934913
1610.000000	31.336533
1600.000000	30.820565
1590.000000	30.299119
1580.000000	29.943773
1570.000000	29.537850
1560.000000	29.279257
1550.000000	28.987438
1540.000000	28.500683
1530.000000	27.868554
1520.000000	27.364431
1510.000000	27.098754
1500.000000	26.996485
1490.000000	27.042011
1480.000000	27.260218
1470.000000	27.586191
1460.000000	27.919668
1450.000000	28.499818
1440.000000	29.111913
1430.000000	29.883527
1420.000000	31.018878
1410.000000	32.744197
1400.000000	35.015488
1390.000000	37.201162
1380.000000	38.633199
1370.000000	39.403314
1360.000000	39.908575
1350.000000	40.383213
1340.000000	40.757526
1330.000000	41.193714
1320.000000	41.782238
1310.000000	42.268665
1300.000000	42.579706
1290.000000	42.605446
1280.000000	42.459232
1270.000000	42.314671
1260.000000	42.316862
1250.000000	42.348614
1240.000000	42.168476
1230.000000	41.905738
1220.000000	41.608941
1210.000000	41.203392
1200.000000	40.853321
1190.000000	40.660083
1180.000000	40.920947
1170.000000	41.607067
1160.000000	42.373694
1150.000000	43.044212
1140.000000	43.491686
1130.000000	43.864745
1120.000000	44.096128
1110.000000	44.224571
1100.000000	44.219639
1090.000000	44.143313
1080.000000	44.106907
1070.000000	44.018125
1060.000000	43.898059
1050.000000	43.844600
1040.000000	43.807413
1030.000000	43.779048
1020.000000	43.870059
1010.000000	44.105159
1000.000000	44.364749
990.000000	44.397656
980.000000	44.354712
970.000000	44.391652
960.000000	44.467689
950.000000	44.557844
940.000000	44.562593
930.000000	44.500290
920.000000	44.402674
910.000000	44.437628
900.000000	44.584696
890.000000	44.704581
880.000000	44.709711
870.000000	44.752542
860.000000	44.747077
850.000000	44.155965
840.000000	42.814357
830.000000	42.623149
820.000000	42.569818
810.000000	42.580582
800.000000	42.561364
790.000000	42.475434
780.000000	42.433000
770.000000	42.398590
760.000000	42.432797
750.000000	42.457189
740.000000	42.384201
730.000000	42.295725
720.000000	42.247853
710.000000	42.188219
700.000000	42.139670
690.000000	42.087953
680.000000	42.019634
670.000000	42.006543
660.000000	41.851234
650.000000	41.766239
640.000000	41.724689
630.000000	41.627305
620.000000	41.568584
610.000000	41.445858
600.000000	41.321551
590.000000	41.249165
580.000000	41.070696
570.000000	40.888785
560.000000	40.802005
550.000000	40.645556
540.000000	40.320405
530.000000	39.991760
520.000000	39.579587
510.000000	39.078073
500.000000	38.603746
490.000000	38.159107
480.000000	37.589448
470.000000	36.955651
460.000000	36.270613
450.000000	35.409413
440.000000	34.422887
430.000000	33.216251
420.000000	31.661523
410.000000	29.837700
400.000000	28.380224
390.000000	27.471642
380.000000	26.729566
370.000000	26.108170
360.000000	25.568403
350.000000	24.781011
340.000000	23.919809
330.000000	23.443505
320.000000	22.785710
310.000000	21.511657
300.000000	19.596097
290.000000	17.258861
280.000000	15.747356
270.000000	15.501856
260.000000	15.371886
250.000000	14.307352
