PE UV       SUBTECH     SPECTRUM    ASCII       PEDS        4.00        
   -1
3G-N10-C012.Sample.Raw.asc
22/04/20
11:18:01.00
22/04/20
11:18:01.00
Administrator

250.000000
1
Lambda 750
750N8071901
PerkinElmer UV WinLab 6.0.4.0738 / 1.61.00 Lambda 900

0
0
3350/servo 860.8/2
0
0
UV/VIS
1
1
1
CommonBeamDepol,150mm sphere / downward view
0
0
0
0
Program
Program
3350/servo 860.8/2
3350/0.2 860.8/0.2
3350/0.2 860.8/0.2
0
1
 
 
 
0
 
860.8
319.2
860.8
Front
100
on
 
 
0
0
0
 
0
 
 
 
0
 
 
0
0
0
0
0
 
 
 
 
0
0


0
0
#HDR
-1
-1
#GR
nm
%R
1.0
0.0
2500.000000
-10.000000
226
8
65.082338
19.341879
#DATA
2500.000000	26.587742
2490.000000	31.880907
2480.000000	24.627639
2470.000000	27.842017
2460.000000	27.577641
2450.000000	30.697172
2440.000000	28.156891
2430.000000	28.687611
2420.000000	29.323753
2410.000000	33.502173
2400.000000	33.304877
2390.000000	28.652911
2380.000000	29.217676
2370.000000	34.377958
2360.000000	28.739699
2350.000000	35.101097
2340.000000	29.623202
2330.000000	29.798664
2320.000000	30.192130
2310.000000	30.998420
2300.000000	28.800021
2290.000000	30.345517
2280.000000	29.774972
2270.000000	31.151105
2260.000000	31.447609
2250.000000	33.231730
2240.000000	31.282774
2230.000000	34.895186
2220.000000	35.002413
2210.000000	34.880848
2200.000000	35.154506
2190.000000	33.650113
2180.000000	32.148085
2170.000000	33.099521
2160.000000	33.328876
2150.000000	35.481244
2140.000000	36.909752
2130.000000	36.627024
2120.000000	37.530368
2110.000000	37.007015
2100.000000	37.779070
2090.000000	36.210581
2080.000000	37.686360
2070.000000	36.236303
2060.000000	35.253046
2050.000000	34.894158
2040.000000	33.888340
2030.000000	34.557827
2020.000000	34.762090
2010.000000	35.075216
2000.000000	34.380605
1990.000000	33.749702
1980.000000	33.076397
1970.000000	31.591982
1960.000000	31.065763
1950.000000	30.550725
1940.000000	30.159590
1930.000000	31.000358
1920.000000	32.773632
1910.000000	34.185154
1900.000000	39.111007
1890.000000	42.399805
1880.000000	46.015335
1870.000000	49.172967
1860.000000	50.236046
1850.000000	50.489662
1840.000000	50.406752
1830.000000	49.895286
1820.000000	49.657755
1810.000000	49.382130
1800.000000	49.232487
1790.000000	48.971656
1780.000000	48.687334
1770.000000	48.217606
1760.000000	47.845749
1750.000000	47.323494
1740.000000	47.009279
1730.000000	46.935162
1720.000000	47.314506
1710.000000	47.914624
1700.000000	48.370427
1690.000000	48.946939
1680.000000	50.072259
1670.000000	51.395456
1660.000000	52.302816
1650.000000	52.544291
1640.000000	52.736583
1630.000000	52.374806
1620.000000	52.032067
1610.000000	51.353833
1600.000000	50.653029
1590.000000	50.224088
1580.000000	49.887471
1570.000000	49.488450
1560.000000	49.205062
1550.000000	48.933284
1540.000000	48.277478
1530.000000	47.747730
1520.000000	47.111862
1510.000000	46.798356
1500.000000	46.555677
1490.000000	46.699752
1480.000000	46.910976
1470.000000	47.304646
1460.000000	47.811859
1450.000000	48.315409
1440.000000	49.143860
1430.000000	49.809416
1420.000000	50.606425
1410.000000	52.002453
1400.000000	54.372295
1390.000000	56.813069
1380.000000	58.381577
1370.000000	59.183425
1360.000000	59.284503
1350.000000	59.242035
1340.000000	59.290957
1330.000000	59.890801
1320.000000	61.219698
1310.000000	62.241062
1300.000000	62.772662
1290.000000	62.625056
1280.000000	62.127818
1270.000000	62.029502
1260.000000	62.121597
1250.000000	62.191354
1240.000000	62.197064
1230.000000	61.829168
1220.000000	61.481131
1210.000000	61.221204
1200.000000	60.854747
1190.000000	60.814478
1180.000000	61.059956
1170.000000	61.614183
1160.000000	62.277074
1150.000000	62.800181
1140.000000	63.027529
1130.000000	63.478311
1120.000000	63.777732
1110.000000	63.904506
1100.000000	63.950157
1090.000000	64.006226
1080.000000	63.826718
1070.000000	63.653111
1060.000000	63.682510
1050.000000	63.736306
1040.000000	63.628251
1030.000000	63.758156
1020.000000	63.820502
1010.000000	64.016545
1000.000000	64.528250
990.000000	64.674795
980.000000	64.563765
970.000000	64.650661
960.000000	64.860157
950.000000	64.774795
940.000000	64.922932
930.000000	64.932858
920.000000	64.627689
910.000000	64.708253
900.000000	64.794349
890.000000	64.956925
880.000000	65.082338
870.000000	64.815375
860.000000	64.843808
850.000000	64.616782
840.000000	64.376441
830.000000	64.428163
820.000000	64.201697
810.000000	64.519638
800.000000	64.490170
790.000000	64.342050
780.000000	64.309077
770.000000	64.393678
760.000000	64.364158
750.000000	64.425701
740.000000	64.412092
730.000000	64.459024
720.000000	64.412484
710.000000	64.360431
700.000000	64.329369
690.000000	64.223625
680.000000	64.178822
670.000000	64.069071
660.000000	63.984931
650.000000	63.803988
640.000000	63.693754
630.000000	63.568580
620.000000	63.447939
610.000000	63.207501
600.000000	63.028283
590.000000	62.835624
580.000000	62.625833
570.000000	62.403938
560.000000	62.080270
550.000000	61.817717
540.000000	61.500598
530.000000	61.106879
520.000000	60.753310
510.000000	60.248926
500.000000	59.726830
490.000000	59.127766
480.000000	58.375528
470.000000	57.673787
460.000000	56.835708
450.000000	55.786217
440.000000	54.541573
430.000000	53.142767
420.000000	51.592457
410.000000	49.945928
400.000000	48.634877
390.000000	47.282609
380.000000	45.715383
370.000000	44.151221
360.000000	42.694655
350.000000	41.518035
340.000000	39.573379
330.000000	37.727884
320.000000	36.918119
310.000000	34.436221
300.000000	31.009672
290.000000	26.345925
280.000000	22.490744
270.000000	21.679923
260.000000	21.207547
250.000000	19.341879
