PE UV       SUBTECH     SPECTRUM    ASCII       PEDS        4.00        
   -1
3G-H10-F024.Sample.Cycle1.Raw.asc
22/04/19
17:46:24.00
22/04/19
17:46:24.00
Administrator

250.000000
1
Lambda 750
750N8071901
PerkinElmer UV WinLab 6.0.4.0738 / 1.61.00 Lambda 900

0
0
3350/servo 860.8/2
0
0
UV/VIS
1
1
1
CommonBeamDepol,150mm sphere / downward view
0
0
0
0
Program
Program
3350/servo 860.8/2
3350/0.2 860.8/0.2
3350/0.2 860.8/0.2
0
1
 
 
 
0
 
860.8
319.2
860.8
Front
100
on
 
 
0
0
0
 
0
 
 
 
0
 
 
0
0
0
0
0
 
 
 
 
0
0


0
0
#HDR
-1
-1
#GR
nm
%R
1.0
0.0
2500.000000
-10.000000
226
8
66.995062
6.686609
#DATA
2500.000000	8.477128
2490.000000	6.686609
2480.000000	9.722049
2470.000000	14.647019
2460.000000	20.362814
2450.000000	20.648487
2440.000000	14.461090
2430.000000	18.101257
2420.000000	18.818898
2410.000000	21.181766
2400.000000	20.598965
2390.000000	18.489713
2380.000000	20.527143
2370.000000	19.055789
2360.000000	23.731977
2350.000000	18.645662
2340.000000	18.192424
2330.000000	14.428938
2320.000000	20.855635
2310.000000	16.233084
2300.000000	20.267561
2290.000000	18.215526
2280.000000	17.475766
2270.000000	19.517400
2260.000000	16.670712
2250.000000	20.205458
2240.000000	21.259126
2230.000000	18.316939
2220.000000	21.934148
2210.000000	20.500243
2200.000000	20.426824
2190.000000	20.160513
2180.000000	21.326405
2170.000000	19.366551
2160.000000	20.735162
2150.000000	20.367529
2140.000000	22.261769
2130.000000	22.360086
2120.000000	23.703765
2110.000000	23.434147
2100.000000	24.181648
2090.000000	23.846812
2080.000000	24.005559
2070.000000	23.070271
2060.000000	22.521588
2050.000000	21.138108
2040.000000	21.528376
2030.000000	21.840072
2020.000000	21.610229
2010.000000	22.050243
2000.000000	21.670980
1990.000000	21.233758
1980.000000	20.414090
1970.000000	19.596122
1960.000000	19.241298
1950.000000	18.802630
1940.000000	18.287578
1930.000000	18.705498
1920.000000	20.090671
1910.000000	21.969692
1900.000000	25.406974
1890.000000	29.630102
1880.000000	34.102273
1870.000000	38.012359
1860.000000	39.571189
1850.000000	40.145981
1840.000000	40.007937
1830.000000	39.635484
1820.000000	39.470386
1810.000000	39.268144
1800.000000	38.614904
1790.000000	37.882283
1780.000000	37.514421
1770.000000	37.025561
1760.000000	36.395678
1750.000000	35.747203
1740.000000	34.935349
1730.000000	34.645948
1720.000000	35.240622
1710.000000	36.387873
1700.000000	37.174991
1690.000000	38.018550
1680.000000	39.917269
1670.000000	41.917401
1660.000000	43.415942
1650.000000	44.195619
1640.000000	43.949835
1630.000000	43.409609
1620.000000	42.734018
1610.000000	41.937702
1600.000000	41.102759
1590.000000	40.255581
1580.000000	39.611055
1570.000000	38.962721
1560.000000	38.573914
1550.000000	38.109607
1540.000000	37.351936
1530.000000	36.243240
1520.000000	35.592839
1510.000000	35.190384
1500.000000	34.923142
1490.000000	35.056593
1480.000000	35.363630
1470.000000	35.893120
1460.000000	36.375158
1450.000000	37.184709
1440.000000	38.324189
1430.000000	39.480350
1420.000000	40.954537
1410.000000	43.449289
1400.000000	47.295895
1390.000000	51.454591
1380.000000	54.058630
1370.000000	55.377729
1360.000000	56.180371
1350.000000	56.908676
1340.000000	57.484223
1330.000000	58.481990
1320.000000	59.829937
1310.000000	61.168505
1300.000000	61.794096
1290.000000	61.964321
1280.000000	61.709707
1270.000000	61.464616
1260.000000	61.360202
1250.000000	61.219490
1240.000000	60.977704
1230.000000	60.571291
1220.000000	60.002073
1210.000000	59.262704
1200.000000	58.631629
1190.000000	58.363042
1180.000000	58.903976
1170.000000	60.063504
1160.000000	61.716078
1150.000000	62.783159
1140.000000	63.785200
1130.000000	64.656402
1120.000000	65.379014
1110.000000	65.538351
1100.000000	65.447045
1090.000000	65.432889
1080.000000	65.388892
1070.000000	65.242183
1060.000000	65.106029
1050.000000	65.035825
1040.000000	64.992961
1030.000000	64.936293
1020.000000	65.095338
1010.000000	65.440586
1000.000000	66.086434
990.000000	66.215794
980.000000	66.097359
970.000000	66.307140
960.000000	66.492396
950.000000	66.790413
940.000000	66.921978
930.000000	66.537996
920.000000	66.506083
910.000000	66.490188
900.000000	66.725114
890.000000	66.775980
880.000000	66.995062
870.000000	66.585048
860.000000	66.335922
850.000000	66.120362
840.000000	65.697759
830.000000	65.757043
820.000000	66.028061
810.000000	65.857617
800.000000	65.385736
790.000000	65.316132
780.000000	65.413565
770.000000	65.628238
760.000000	65.464335
750.000000	64.944156
740.000000	64.694895
730.000000	64.695358
720.000000	64.504963
710.000000	64.158592
700.000000	63.731231
690.000000	63.315854
680.000000	63.069454
670.000000	62.692520
660.000000	62.337442
650.000000	61.703857
640.000000	60.902251
630.000000	60.195053
620.000000	59.654875
610.000000	58.859727
600.000000	58.220008
590.000000	57.661784
580.000000	56.881367
570.000000	56.150292
560.000000	55.484531
550.000000	54.640936
540.000000	53.682555
530.000000	52.823605
520.000000	51.877522
510.000000	50.784563
500.000000	49.549303
490.000000	48.197716
480.000000	46.784105
470.000000	45.159260
460.000000	43.222161
450.000000	41.019764
440.000000	38.794714
430.000000	36.651982
420.000000	34.412604
410.000000	32.616010
400.000000	31.702824
390.000000	31.030248
380.000000	30.195457
370.000000	29.119327
360.000000	28.197778
350.000000	27.386259
340.000000	26.050840
330.000000	24.831358
320.000000	23.804305
310.000000	22.293383
300.000000	20.556754
290.000000	17.939625
280.000000	16.418070
270.000000	16.125056
260.000000	16.076440
250.000000	15.384440
