PE UV       SUBTECH     SPECTRUM    ASCII       PEDS        4.00        
   -1
3G-N10-F008.Sample.Raw.asc
22/03/09
17:05:10.00
22/03/09
17:05:10.00
Administrator

250.000000
1
Lambda 750
750N8071901
PerkinElmer UV WinLab 6.0.4.0738 / 1.61.00 Lambda 900

0
0
3350/servo 860.8/2
0
0
UV/VIS
1
1
1
CommonBeamDepol,150mm sphere / downward view
0
0
0
0
Program
Program
3350/servo 860.8/2
3350/0.2 860.8/0.2
3350/0.2 860.8/0.2
0
1
 
 
 
0
 
860.8
319.2
860.8
Front
100
on
 
 
0
0
0
 
0
 
 
 
0
 
 
0
0
0
0
0
 
 
 
 
0
0


0
0
#HDR
-1
-1
#GR
nm
%R
1.0
0.0
2500.000000
-10.000000
226
8
65.814657
12.499765
#DATA
2500.000000	14.358032
2490.000000	12.499765
2480.000000	21.098578
2470.000000	21.904339
2460.000000	14.302744
2450.000000	17.457483
2440.000000	16.029405
2430.000000	17.778752
2420.000000	21.576113
2410.000000	17.031008
2400.000000	17.545151
2390.000000	19.893996
2380.000000	20.179918
2370.000000	22.420944
2360.000000	17.782072
2350.000000	19.677383
2340.000000	19.573222
2330.000000	21.930761
2320.000000	18.227259
2310.000000	17.652081
2300.000000	19.392780
2290.000000	18.951623
2280.000000	18.741320
2270.000000	18.135217
2260.000000	16.734898
2250.000000	20.754425
2240.000000	21.954923
2230.000000	21.052458
2220.000000	22.326824
2210.000000	22.143372
2200.000000	21.926062
2190.000000	21.716062
2180.000000	22.126137
2170.000000	20.735855
2160.000000	19.118484
2150.000000	21.908548
2140.000000	23.323597
2130.000000	23.596724
2120.000000	24.817095
2110.000000	23.799940
2100.000000	23.524706
2090.000000	25.114931
2080.000000	24.533827
2070.000000	23.668418
2060.000000	23.028189
2050.000000	20.927400
2040.000000	20.447910
2030.000000	21.469016
2020.000000	22.165745
2010.000000	22.440216
2000.000000	23.349819
1990.000000	21.582610
1980.000000	20.237825
1970.000000	20.601462
1960.000000	19.511365
1950.000000	18.545688
1940.000000	18.496283
1930.000000	18.354161
1920.000000	19.546949
1910.000000	22.900227
1900.000000	26.824571
1890.000000	31.955690
1880.000000	37.078029
1870.000000	40.033187
1860.000000	41.353054
1850.000000	43.027215
1840.000000	43.108109
1830.000000	42.915932
1820.000000	42.597903
1810.000000	41.512901
1800.000000	40.917845
1790.000000	40.548585
1780.000000	40.039354
1770.000000	39.696442
1760.000000	38.940763
1750.000000	37.762552
1740.000000	37.006770
1730.000000	37.131959
1720.000000	38.114374
1710.000000	39.238857
1700.000000	39.620049
1690.000000	40.046197
1680.000000	41.912480
1670.000000	44.549894
1660.000000	46.005927
1650.000000	46.500145
1640.000000	46.480483
1630.000000	46.042878
1620.000000	45.367007
1610.000000	44.448241
1600.000000	43.639032
1590.000000	42.747452
1580.000000	42.018533
1570.000000	41.440100
1560.000000	40.954184
1550.000000	40.439422
1540.000000	39.675656
1530.000000	38.754189
1520.000000	37.997491
1510.000000	37.525229
1500.000000	37.307020
1490.000000	37.236936
1480.000000	37.723626
1470.000000	38.345246
1460.000000	38.921601
1450.000000	39.682561
1440.000000	40.617713
1430.000000	41.445959
1420.000000	42.702599
1410.000000	45.073181
1400.000000	48.692042
1390.000000	52.910212
1380.000000	55.533723
1370.000000	56.372108
1360.000000	56.774489
1350.000000	57.081464
1340.000000	58.074528
1330.000000	59.455520
1320.000000	60.709809
1310.000000	61.625625
1300.000000	62.083600
1290.000000	61.944943
1280.000000	61.489239
1270.000000	61.436068
1260.000000	61.495332
1250.000000	61.389195
1240.000000	61.371121
1230.000000	60.951379
1220.000000	60.433580
1210.000000	59.966944
1200.000000	59.361692
1190.000000	59.106224
1180.000000	59.486617
1170.000000	60.617886
1160.000000	61.874834
1150.000000	62.695541
1140.000000	63.371995
1130.000000	64.168359
1120.000000	64.510916
1110.000000	64.659762
1100.000000	64.735502
1090.000000	64.818554
1080.000000	64.791865
1070.000000	64.693238
1060.000000	64.417974
1050.000000	64.332236
1040.000000	64.225260
1030.000000	64.014040
1020.000000	63.794450
1010.000000	64.156468
1000.000000	65.095457
990.000000	65.492620
980.000000	65.469830
970.000000	65.522966
960.000000	65.663514
950.000000	65.741887
940.000000	65.636132
930.000000	65.618096
920.000000	65.502735
910.000000	65.441651
900.000000	65.814657
890.000000	65.707804
880.000000	65.722851
870.000000	65.481165
860.000000	65.246192
850.000000	65.115418
840.000000	65.771432
830.000000	65.628827
820.000000	65.604862
810.000000	65.420996
800.000000	65.344745
790.000000	65.244326
780.000000	65.358919
770.000000	65.402394
760.000000	64.978404
750.000000	64.812240
740.000000	64.680549
730.000000	64.512723
720.000000	64.424647
710.000000	64.292389
700.000000	64.100177
690.000000	63.937697
680.000000	63.671314
670.000000	63.401054
660.000000	62.971303
650.000000	62.661326
640.000000	62.290287
630.000000	61.911236
620.000000	61.455020
610.000000	60.865874
600.000000	60.387847
590.000000	59.936829
580.000000	59.379676
570.000000	58.732780
560.000000	58.090001
550.000000	57.331421
540.000000	56.552772
530.000000	55.707549
520.000000	54.800483
510.000000	53.813910
500.000000	52.676700
490.000000	51.472513
480.000000	49.938499
470.000000	48.331679
460.000000	46.564022
450.000000	44.453839
440.000000	42.204354
430.000000	39.691306
420.000000	37.290338
410.000000	35.252876
400.000000	33.646044
390.000000	32.246819
380.000000	30.868406
370.000000	29.400876
360.000000	27.827528
350.000000	26.319946
340.000000	24.932957
330.000000	23.653981
320.000000	22.350278
310.000000	21.563906
300.000000	20.041781
290.000000	17.661127
280.000000	16.244236
270.000000	15.997133
260.000000	15.984939
250.000000	15.409263
