PE UV       SUBTECH     SPECTRUM    ASCII       PEDS        4.00        
   -1
3G-N10-F006.Sample.Raw.asc
22/03/09
16:57:46.00
22/03/09
16:57:46.00
Administrator

250.000000
1
Lambda 750
750N8071901
PerkinElmer UV WinLab 6.0.4.0738 / 1.61.00 Lambda 900

0
0
3350/servo 860.8/2
0
0
UV/VIS
1
1
1
CommonBeamDepol,150mm sphere / downward view
0
0
0
0
Program
Program
3350/servo 860.8/2
3350/0.2 860.8/0.2
3350/0.2 860.8/0.2
0
1
 
 
 
0
 
860.8
319.2
860.8
Front
100
on
 
 
0
0
0
 
0
 
 
 
0
 
 
0
0
0
0
0
 
 
 
 
0
0


0
0
#HDR
-1
-1
#GR
nm
%R
1.0
0.0
2500.000000
-10.000000
226
8
64.770173
9.301107
#DATA
2500.000000	9.301107
2490.000000	18.060504
2480.000000	18.433088
2470.000000	20.179381
2460.000000	13.405701
2450.000000	15.735109
2440.000000	17.248667
2430.000000	15.696567
2420.000000	17.132718
2410.000000	14.947118
2400.000000	19.465102
2390.000000	16.762470
2380.000000	16.868418
2370.000000	18.326786
2360.000000	15.201261
2350.000000	19.669456
2340.000000	20.258929
2330.000000	22.310369
2320.000000	17.750750
2310.000000	16.680022
2300.000000	20.021223
2290.000000	18.033171
2280.000000	18.151576
2270.000000	17.672959
2260.000000	17.072001
2250.000000	18.527143
2240.000000	21.086127
2230.000000	20.459394
2220.000000	21.609711
2210.000000	23.593213
2200.000000	22.322637
2190.000000	19.359821
2180.000000	19.778275
2170.000000	19.248269
2160.000000	20.613831
2150.000000	22.245220
2140.000000	21.818333
2130.000000	24.066821
2120.000000	23.968870
2110.000000	24.976803
2100.000000	24.605038
2090.000000	24.113135
2080.000000	23.792546
2070.000000	23.361470
2060.000000	22.403152
2050.000000	21.580517
2040.000000	21.513838
2030.000000	21.021690
2020.000000	21.962690
2010.000000	21.367369
2000.000000	21.630984
1990.000000	20.890740
1980.000000	20.173097
1970.000000	19.574820
1960.000000	18.323153
1950.000000	17.539022
1940.000000	17.938707
1930.000000	18.384738
1920.000000	19.526518
1910.000000	22.258044
1900.000000	26.176937
1890.000000	31.751304
1880.000000	35.932986
1870.000000	39.707199
1860.000000	41.956185
1850.000000	42.327841
1840.000000	42.510145
1830.000000	41.798289
1820.000000	41.701036
1810.000000	41.362634
1800.000000	40.569479
1790.000000	39.888484
1780.000000	39.467533
1770.000000	38.803432
1760.000000	38.051906
1750.000000	37.526016
1740.000000	36.762664
1730.000000	36.570978
1720.000000	37.354731
1710.000000	38.352568
1700.000000	39.050781
1690.000000	39.655955
1680.000000	41.561506
1670.000000	43.952469
1660.000000	45.274942
1650.000000	45.847507
1640.000000	45.803312
1630.000000	45.413097
1620.000000	44.664193
1610.000000	43.807578
1600.000000	42.826965
1590.000000	42.006021
1580.000000	41.329162
1570.000000	40.658948
1560.000000	40.247088
1550.000000	39.885214
1540.000000	39.117778
1530.000000	38.085245
1520.000000	37.266403
1510.000000	36.801003
1500.000000	36.443022
1490.000000	36.582741
1480.000000	36.981344
1470.000000	37.439478
1460.000000	38.179010
1450.000000	38.933672
1440.000000	39.894479
1430.000000	40.645285
1420.000000	41.806474
1410.000000	44.178053
1400.000000	47.975039
1390.000000	52.056210
1380.000000	54.766692
1370.000000	55.623298
1360.000000	55.897721
1350.000000	56.286058
1340.000000	57.187849
1330.000000	58.429415
1320.000000	59.851284
1310.000000	60.760185
1300.000000	61.063085
1290.000000	61.054625
1280.000000	60.909603
1270.000000	60.623803
1260.000000	60.570890
1250.000000	60.548390
1240.000000	60.277504
1230.000000	60.008235
1220.000000	59.669165
1210.000000	59.178792
1200.000000	58.500907
1190.000000	58.312221
1180.000000	58.579147
1170.000000	59.564228
1160.000000	60.893786
1150.000000	61.910136
1140.000000	62.705242
1130.000000	63.471067
1120.000000	63.771358
1110.000000	63.658358
1100.000000	63.628255
1090.000000	63.826973
1080.000000	63.776984
1070.000000	63.757474
1060.000000	63.620652
1050.000000	63.419768
1040.000000	63.095498
1030.000000	62.968063
1020.000000	62.880495
1010.000000	63.418979
1000.000000	64.316044
990.000000	64.660870
980.000000	64.546192
970.000000	64.619074
960.000000	64.749962
950.000000	64.770173
940.000000	64.575022
930.000000	64.542820
920.000000	64.405598
910.000000	64.231513
900.000000	64.470836
890.000000	64.529195
880.000000	64.413765
870.000000	64.407379
860.000000	64.386766
850.000000	64.325592
840.000000	64.182649
830.000000	64.084544
820.000000	64.140572
810.000000	64.103146
800.000000	64.105699
790.000000	63.972346
780.000000	64.131202
770.000000	64.046666
760.000000	63.677259
750.000000	63.391905
740.000000	63.277275
730.000000	63.175835
720.000000	63.080161
710.000000	62.945860
700.000000	62.680028
690.000000	62.389877
680.000000	62.191566
670.000000	61.996528
660.000000	61.628832
650.000000	61.292202
640.000000	60.975775
630.000000	60.542991
620.000000	60.131547
610.000000	59.592530
600.000000	59.142426
590.000000	58.654320
580.000000	58.093954
570.000000	57.550460
560.000000	56.911758
550.000000	56.208694
540.000000	55.396254
530.000000	54.581634
520.000000	53.828058
510.000000	52.904135
500.000000	51.784781
490.000000	50.630899
480.000000	49.275029
470.000000	47.767977
460.000000	45.988667
450.000000	44.001481
440.000000	41.914372
430.000000	39.549087
420.000000	37.057585
410.000000	34.891845
400.000000	33.241263
390.000000	31.993162
380.000000	30.603611
370.000000	28.939639
360.000000	27.186591
350.000000	25.595352
340.000000	24.767199
330.000000	23.589421
320.000000	22.106070
310.000000	21.331440
300.000000	19.283843
290.000000	17.130965
280.000000	15.760930
270.000000	15.745249
260.000000	15.779565
250.000000	15.148217
