PE UV       SUBTECH     SPECTRUM    ASCII       PEDS        4.00        
   -1
3G-H10-F001.Sample.Raw.asc
22/03/09
15:26:38.00
22/03/09
15:26:38.00
Administrator

250.000000
1
Lambda 750
750N8071901
PerkinElmer UV WinLab 6.0.4.0738 / 1.61.00 Lambda 900

0
0
3350/servo 860.8/2
0
0
UV/VIS
1
1
1
CommonBeamDepol,150mm sphere / downward view
0
0
0
0
Program
Program
3350/servo 860.8/2
3350/0.2 860.8/0.2
3350/0.2 860.8/0.2
0
1
 
 
 
0
 
860.8
319.2
860.8
Front
100
on
 
 
0
0
0
 
0
 
 
 
0
 
 
0
0
0
0
0
 
 
 
 
0
0


0
0
#HDR
-1
-1
#GR
nm
%R
1.0
0.0
2500.000000
-10.000000
226
8
66.707337
5.157772
#DATA
2500.000000	5.157772
2490.000000	20.085039
2480.000000	15.770014
2470.000000	18.115815
2460.000000	13.487613
2450.000000	16.038912
2440.000000	13.939618
2430.000000	17.702330
2420.000000	20.186814
2410.000000	16.402703
2400.000000	21.811922
2390.000000	23.018582
2380.000000	19.407169
2370.000000	19.920139
2360.000000	17.246519
2350.000000	19.977937
2340.000000	17.480320
2330.000000	21.272604
2320.000000	16.783471
2310.000000	16.357534
2300.000000	19.757519
2290.000000	19.065535
2280.000000	19.072042
2270.000000	19.302482
2260.000000	17.631211
2250.000000	20.163579
2240.000000	19.609966
2230.000000	20.117292
2220.000000	21.923737
2210.000000	22.393569
2200.000000	21.504064
2190.000000	20.335018
2180.000000	22.220077
2170.000000	19.821361
2160.000000	20.127369
2150.000000	22.550452
2140.000000	22.292603
2130.000000	23.425142
2120.000000	22.933408
2110.000000	23.792098
2100.000000	23.918855
2090.000000	25.339281
2080.000000	23.751838
2070.000000	22.607219
2060.000000	21.966608
2050.000000	21.546940
2040.000000	20.857284
2030.000000	21.396103
2020.000000	21.957450
2010.000000	22.339452
2000.000000	22.450888
1990.000000	21.227720
1980.000000	20.968517
1970.000000	20.977875
1960.000000	20.187577
1950.000000	19.120639
1940.000000	19.410199
1930.000000	19.605158
1920.000000	20.053122
1910.000000	22.731232
1900.000000	26.255933
1890.000000	30.241988
1880.000000	34.593365
1870.000000	37.147635
1860.000000	39.294429
1850.000000	40.427483
1840.000000	40.443327
1830.000000	40.114312
1820.000000	39.814342
1810.000000	38.943936
1800.000000	38.458909
1790.000000	37.980276
1780.000000	37.650384
1770.000000	37.217763
1760.000000	36.509110
1750.000000	35.625797
1740.000000	34.668351
1730.000000	34.863043
1720.000000	35.850571
1710.000000	36.722770
1700.000000	37.315366
1690.000000	37.721856
1680.000000	39.370876
1670.000000	42.083955
1660.000000	43.575897
1650.000000	44.091976
1640.000000	43.930746
1630.000000	43.433224
1620.000000	42.737693
1610.000000	42.041975
1600.000000	41.191645
1590.000000	40.205593
1580.000000	39.681961
1570.000000	39.046995
1560.000000	38.624461
1550.000000	38.075985
1540.000000	37.348867
1530.000000	36.557165
1520.000000	35.875827
1510.000000	35.423125
1500.000000	35.109072
1490.000000	35.177973
1480.000000	35.681691
1470.000000	36.174039
1460.000000	36.833147
1450.000000	37.611446
1440.000000	38.397950
1430.000000	39.221204
1420.000000	40.456688
1410.000000	42.956946
1400.000000	46.661516
1390.000000	51.040039
1380.000000	53.945479
1370.000000	54.965710
1360.000000	55.572289
1350.000000	56.010021
1340.000000	56.919297
1330.000000	58.459997
1320.000000	60.113647
1310.000000	60.966799
1300.000000	61.414356
1290.000000	61.513869
1280.000000	61.084476
1270.000000	60.950539
1260.000000	60.982407
1250.000000	60.805940
1240.000000	60.479564
1230.000000	60.020000
1220.000000	59.691896
1210.000000	59.003144
1200.000000	58.257104
1190.000000	58.004022
1180.000000	58.478535
1170.000000	60.094309
1160.000000	61.539161
1150.000000	62.570369
1140.000000	63.232683
1130.000000	64.161244
1120.000000	64.951806
1110.000000	65.227742
1100.000000	64.950746
1090.000000	64.930164
1080.000000	64.894385
1070.000000	64.778190
1060.000000	64.730221
1050.000000	64.645376
1040.000000	64.506739
1030.000000	64.274734
1020.000000	64.143903
1010.000000	64.571667
1000.000000	65.354195
990.000000	65.836836
980.000000	65.946012
970.000000	65.947242
960.000000	66.187174
950.000000	66.323399
940.000000	66.365527
930.000000	65.956701
920.000000	65.774063
910.000000	65.742325
900.000000	65.593865
890.000000	65.804502
880.000000	66.162017
870.000000	66.357101
860.000000	66.707337
850.000000	66.444724
840.000000	66.165273
830.000000	65.688021
820.000000	65.711198
810.000000	65.770832
800.000000	65.707449
790.000000	65.607665
780.000000	65.619164
770.000000	65.611151
760.000000	65.437210
750.000000	65.162230
740.000000	64.868214
730.000000	64.624332
720.000000	64.412551
710.000000	64.320303
700.000000	64.114780
690.000000	63.594821
680.000000	63.085160
670.000000	62.789859
660.000000	62.340452
650.000000	61.918491
640.000000	61.253549
630.000000	60.523304
620.000000	59.815908
610.000000	59.097955
600.000000	58.486164
590.000000	57.836051
580.000000	57.125352
570.000000	56.345343
560.000000	55.607606
550.000000	54.728005
540.000000	53.835421
530.000000	52.902429
520.000000	51.891385
510.000000	50.886066
500.000000	49.684965
490.000000	48.304303
480.000000	46.733593
470.000000	45.149852
460.000000	43.318794
450.000000	41.267588
440.000000	38.957913
430.000000	36.557571
420.000000	34.374153
410.000000	32.776179
400.000000	31.939566
390.000000	31.188692
380.000000	30.310206
370.000000	29.241871
360.000000	28.033716
350.000000	26.987100
340.000000	26.118718
330.000000	25.142352
320.000000	24.461762
310.000000	23.493545
300.000000	21.255321
290.000000	18.484855
280.000000	16.838027
270.000000	16.742331
260.000000	16.774162
250.000000	15.850308
