PE UV       SUBTECH     SPECTRUM    ASCII       PEDS        4.00        
   -1
3G-N10-F022.Sample.Raw.asc
22/04/20
16:29:31.00
22/04/20
16:29:31.00
Administrator

250.000000
1
Lambda 750
750N8071901
PerkinElmer UV WinLab 6.0.4.0738 / 1.61.00 Lambda 900

0
0
3350/servo 860.8/2
0
0
UV/VIS
1
1
1
CommonBeamDepol,150mm sphere / downward view
0
0
0
0
Program
Program
3350/servo 860.8/2
3350/0.2 860.8/0.2
3350/0.2 860.8/0.2
0
1
 
 
 
0
 
860.8
319.2
860.8
Front
100
on
 
 
0
0
0
 
0
 
 
 
0
 
 
0
0
0
0
0
 
 
 
 
0
0


0
0
#HDR
-1
-1
#GR
nm
%R
1.0
0.0
2500.000000
-10.000000
226
8
65.933363
10.816722
#DATA
2500.000000	12.347749
2490.000000	11.784821
2480.000000	14.294576
2470.000000	10.816722
2460.000000	16.946628
2450.000000	21.036284
2440.000000	19.787052
2430.000000	15.427850
2420.000000	14.871843
2410.000000	20.931814
2400.000000	19.910266
2390.000000	19.804788
2380.000000	18.245769
2370.000000	19.699555
2360.000000	15.812305
2350.000000	21.250749
2340.000000	19.204551
2330.000000	22.289224
2320.000000	16.708072
2310.000000	18.175011
2300.000000	17.805645
2290.000000	18.035956
2280.000000	17.409298
2270.000000	20.344621
2260.000000	19.579495
2250.000000	17.509057
2240.000000	19.332202
2230.000000	23.061639
2220.000000	23.524876
2210.000000	20.959548
2200.000000	21.209661
2190.000000	21.468267
2180.000000	19.667642
2170.000000	18.678207
2160.000000	20.171401
2150.000000	21.951313
2140.000000	22.070224
2130.000000	23.275341
2120.000000	24.400590
2110.000000	24.278974
2100.000000	25.350264
2090.000000	25.070809
2080.000000	24.452251
2070.000000	23.875775
2060.000000	23.592224
2050.000000	22.543236
2040.000000	22.003852
2030.000000	21.705083
2020.000000	22.331974
2010.000000	22.640441
2000.000000	22.381448
1990.000000	22.006168
1980.000000	20.636919
1970.000000	19.473834
1960.000000	19.239429
1950.000000	18.792249
1940.000000	18.806728
1930.000000	19.975276
1920.000000	21.176335
1910.000000	22.293332
1900.000000	27.162197
1890.000000	31.446517
1880.000000	36.319852
1870.000000	39.970705
1860.000000	42.381035
1850.000000	43.045016
1840.000000	42.597748
1830.000000	42.537955
1820.000000	41.866177
1810.000000	41.674144
1800.000000	41.260542
1790.000000	40.728755
1780.000000	40.123720
1770.000000	39.377368
1760.000000	38.702425
1750.000000	38.260077
1740.000000	37.406389
1730.000000	37.377503
1720.000000	37.916723
1710.000000	38.927667
1700.000000	39.819742
1690.000000	40.424054
1680.000000	42.375505
1670.000000	44.438734
1660.000000	45.874993
1650.000000	46.475033
1640.000000	46.409297
1630.000000	45.865603
1620.000000	45.282027
1610.000000	44.236338
1600.000000	43.450078
1590.000000	42.621217
1580.000000	42.050416
1570.000000	41.321022
1560.000000	40.858057
1550.000000	40.497930
1540.000000	39.699850
1530.000000	38.863207
1520.000000	38.039357
1510.000000	37.359054
1500.000000	37.086366
1490.000000	37.278850
1480.000000	37.630398
1470.000000	38.236996
1460.000000	38.961573
1450.000000	39.506522
1440.000000	40.585029
1430.000000	41.798444
1420.000000	43.380995
1410.000000	45.711980
1400.000000	49.299402
1390.000000	52.972807
1380.000000	55.363364
1370.000000	56.574439
1360.000000	57.212889
1350.000000	57.771711
1340.000000	58.324257
1330.000000	59.044408
1320.000000	60.536569
1310.000000	61.854113
1300.000000	62.399228
1290.000000	62.319437
1280.000000	61.983579
1270.000000	61.752354
1260.000000	61.704564
1250.000000	61.641201
1240.000000	61.526264
1230.000000	61.064736
1220.000000	60.483082
1210.000000	60.005690
1200.000000	59.451334
1190.000000	59.458967
1180.000000	59.844583
1170.000000	60.794617
1160.000000	62.019256
1150.000000	62.991806
1140.000000	63.598736
1130.000000	64.333117
1120.000000	64.910782
1110.000000	65.113566
1100.000000	64.967406
1090.000000	65.000929
1080.000000	64.814933
1070.000000	64.662800
1060.000000	64.686912
1050.000000	64.672446
1040.000000	64.473767
1030.000000	64.551501
1020.000000	64.604046
1010.000000	64.905838
1000.000000	65.493570
990.000000	65.640677
980.000000	65.453279
970.000000	65.601825
960.000000	65.806444
950.000000	65.728721
940.000000	65.806416
930.000000	65.691057
920.000000	65.401999
910.000000	65.474615
900.000000	65.478167
890.000000	65.830868
880.000000	65.842109
870.000000	65.933363
860.000000	65.618293
850.000000	65.090055
840.000000	65.206601
830.000000	65.286356
820.000000	65.091744
810.000000	65.022574
800.000000	65.085202
790.000000	65.025159
780.000000	64.841989
770.000000	64.902467
760.000000	64.737989
750.000000	64.744240
740.000000	64.467439
730.000000	64.291836
720.000000	64.223627
710.000000	64.104384
700.000000	63.922741
690.000000	63.689267
680.000000	63.511749
670.000000	63.218783
660.000000	62.871842
650.000000	62.502364
640.000000	62.186947
630.000000	61.735376
620.000000	61.223954
610.000000	60.692280
600.000000	60.155618
590.000000	59.656428
580.000000	59.165386
570.000000	58.523838
560.000000	57.862784
550.000000	57.189507
540.000000	56.408129
530.000000	55.620407
520.000000	54.757909
510.000000	53.801925
500.000000	52.641712
490.000000	51.304499
480.000000	49.941577
470.000000	48.394593
460.000000	46.582917
450.000000	44.573966
440.000000	42.323763
430.000000	39.927608
420.000000	37.496959
410.000000	35.389504
400.000000	33.973634
390.000000	32.662619
380.000000	31.154467
370.000000	29.553599
360.000000	28.169155
350.000000	27.034099
340.000000	25.548517
330.000000	24.331161
320.000000	23.266295
310.000000	21.297132
300.000000	19.638542
290.000000	17.174552
280.000000	15.629743
270.000000	15.533445
260.000000	15.649830
250.000000	15.115199
