PE UV       SUBTECH     SPECTRUM    ASCII       PEDS        4.00        
   -1
3G-N10-C020.Sample.Raw.asc
22/04/20
11:41:39.00
22/04/20
11:41:39.00
Administrator

250.000000
1
Lambda 750
750N8071901
PerkinElmer UV WinLab 6.0.4.0738 / 1.61.00 Lambda 900

0
0
3350/servo 860.8/2
0
0
UV/VIS
1
1
1
CommonBeamDepol,150mm sphere / downward view
0
0
0
0
Program
Program
3350/servo 860.8/2
3350/0.2 860.8/0.2
3350/0.2 860.8/0.2
0
1
 
 
 
0
 
860.8
319.2
860.8
Front
100
on
 
 
0
0
0
 
0
 
 
 
0
 
 
0
0
0
0
0
 
 
 
 
0
0


0
0
#HDR
-1
-1
#GR
nm
%R
1.0
0.0
2500.000000
-10.000000
226
8
63.728153
18.673645
#DATA
2500.000000	30.089979
2490.000000	32.553266
2480.000000	19.719481
2470.000000	25.681109
2460.000000	28.676937
2450.000000	33.580778
2440.000000	29.431750
2430.000000	22.956882
2420.000000	27.598606
2410.000000	28.870954
2400.000000	34.119414
2390.000000	34.205322
2380.000000	30.865803
2370.000000	33.116553
2360.000000	29.603445
2350.000000	34.943750
2340.000000	31.910055
2330.000000	29.347799
2320.000000	31.676487
2310.000000	31.628580
2300.000000	29.090604
2290.000000	29.048605
2280.000000	26.537074
2270.000000	31.035235
2260.000000	30.214830
2250.000000	32.081824
2240.000000	32.268144
2230.000000	34.146021
2220.000000	36.259865
2210.000000	34.408296
2200.000000	33.704587
2190.000000	32.347679
2180.000000	31.590370
2170.000000	31.779015
2160.000000	32.868540
2150.000000	32.686840
2140.000000	35.409828
2130.000000	35.502571
2120.000000	36.446660
2110.000000	35.857662
2100.000000	37.079481
2090.000000	36.354096
2080.000000	35.595472
2070.000000	35.652746
2060.000000	34.281101
2050.000000	34.152255
2040.000000	33.619073
2030.000000	33.177896
2020.000000	34.266615
2010.000000	34.456054
2000.000000	34.116979
1990.000000	33.667931
1980.000000	32.311397
1970.000000	31.146595
1960.000000	30.366881
1950.000000	29.363502
1940.000000	29.259119
1930.000000	30.597612
1920.000000	32.379982
1910.000000	33.432006
1900.000000	37.988215
1890.000000	41.644693
1880.000000	44.773378
1870.000000	47.329572
1860.000000	48.839571
1850.000000	49.400745
1840.000000	49.115314
1830.000000	49.006652
1820.000000	48.794009
1810.000000	48.529676
1800.000000	48.111704
1790.000000	47.694623
1780.000000	47.635266
1770.000000	47.166376
1760.000000	46.655887
1750.000000	46.295411
1740.000000	46.110356
1730.000000	45.660936
1720.000000	46.052674
1710.000000	46.691664
1700.000000	47.260507
1690.000000	47.763651
1680.000000	48.897482
1670.000000	50.219084
1660.000000	51.168607
1650.000000	51.571332
1640.000000	51.375511
1630.000000	51.133459
1620.000000	50.678852
1610.000000	50.038204
1600.000000	49.419065
1590.000000	49.104615
1580.000000	48.655132
1570.000000	48.289042
1560.000000	48.138926
1550.000000	47.734755
1540.000000	47.224772
1530.000000	46.658834
1520.000000	46.161360
1510.000000	45.791711
1500.000000	45.542603
1490.000000	45.709774
1480.000000	45.944973
1470.000000	46.403410
1460.000000	46.725986
1450.000000	47.200067
1440.000000	47.934208
1430.000000	48.544865
1420.000000	49.218558
1410.000000	50.593666
1400.000000	52.938904
1390.000000	55.615230
1380.000000	57.185307
1370.000000	57.699267
1360.000000	57.908547
1350.000000	57.851362
1340.000000	58.025869
1330.000000	58.504213
1320.000000	59.808285
1310.000000	60.815768
1300.000000	61.338234
1290.000000	61.298749
1280.000000	60.768317
1270.000000	60.618984
1260.000000	60.630428
1250.000000	60.666701
1240.000000	60.623165
1230.000000	60.306815
1220.000000	60.043681
1210.000000	59.774225
1200.000000	59.523902
1190.000000	59.444000
1180.000000	59.683964
1170.000000	60.177357
1160.000000	60.914319
1150.000000	61.513646
1140.000000	61.909613
1130.000000	62.227000
1120.000000	62.296546
1110.000000	62.433248
1100.000000	62.583569
1090.000000	62.540112
1080.000000	62.456750
1070.000000	62.341917
1060.000000	62.352425
1050.000000	62.356864
1040.000000	62.109360
1030.000000	62.172098
1020.000000	62.355286
1010.000000	62.741203
1000.000000	63.304720
990.000000	63.432501
980.000000	63.372563
970.000000	63.450234
960.000000	63.368459
950.000000	63.453312
940.000000	63.452497
930.000000	63.328766
920.000000	63.029991
910.000000	62.972209
900.000000	63.050581
890.000000	63.216748
880.000000	63.546894
870.000000	63.633402
860.000000	63.187240
850.000000	63.368800
840.000000	63.728153
830.000000	63.359799
820.000000	63.218974
810.000000	63.379260
800.000000	63.467514
790.000000	63.377556
780.000000	63.427791
770.000000	63.448103
760.000000	63.473172
750.000000	63.579266
740.000000	63.433298
730.000000	63.431755
720.000000	63.450038
710.000000	63.317437
700.000000	63.306103
690.000000	63.218959
680.000000	63.162649
670.000000	63.107849
660.000000	63.044353
650.000000	62.899438
640.000000	62.771842
630.000000	62.673962
620.000000	62.457061
610.000000	62.120068
600.000000	61.914380
590.000000	61.744485
580.000000	61.599728
570.000000	61.337396
560.000000	61.044567
550.000000	60.709160
540.000000	60.309976
530.000000	59.865204
520.000000	59.387780
510.000000	58.957896
500.000000	58.392334
490.000000	57.767036
480.000000	57.152042
470.000000	56.390330
460.000000	55.504873
450.000000	54.447167
440.000000	53.247815
430.000000	51.900894
420.000000	50.248175
410.000000	48.653049
400.000000	47.284955
390.000000	45.971475
380.000000	44.544533
370.000000	42.863161
360.000000	41.286991
350.000000	40.362817
340.000000	38.405801
330.000000	36.352605
320.000000	35.515741
310.000000	33.410493
300.000000	30.396734
290.000000	25.674250
280.000000	21.720301
270.000000	20.751965
260.000000	20.367046
250.000000	18.673645
