PE UV       SUBTECH     SPECTRUM    ASCII       PEDS        4.00        
   -1
3G-N10-F023.Sample.Raw.asc
22/04/20
16:32:35.00
22/04/20
16:32:35.00
Administrator

250.000000
1
Lambda 750
750N8071901
PerkinElmer UV WinLab 6.0.4.0738 / 1.61.00 Lambda 900

0
0
3350/servo 860.8/2
0
0
UV/VIS
1
1
1
CommonBeamDepol,150mm sphere / downward view
0
0
0
0
Program
Program
3350/servo 860.8/2
3350/0.2 860.8/0.2
3350/0.2 860.8/0.2
0
1
 
 
 
0
 
860.8
319.2
860.8
Front
100
on
 
 
0
0
0
 
0
 
 
 
0
 
 
0
0
0
0
0
 
 
 
 
0
0


0
0
#HDR
-1
-1
#GR
nm
%R
1.0
0.0
2500.000000
-10.000000
226
8
65.475033
11.869853
#DATA
2500.000000	15.625038
2490.000000	11.869853
2480.000000	13.413689
2470.000000	17.565674
2460.000000	16.064627
2450.000000	19.673374
2440.000000	15.991964
2430.000000	15.188162
2420.000000	19.405251
2410.000000	22.048489
2400.000000	20.400657
2390.000000	21.008489
2380.000000	18.485024
2370.000000	16.501935
2360.000000	15.636357
2350.000000	22.131127
2340.000000	18.740915
2330.000000	19.515103
2320.000000	20.247310
2310.000000	20.595384
2300.000000	18.876283
2290.000000	16.836345
2280.000000	19.274511
2270.000000	21.206175
2260.000000	18.624553
2250.000000	19.519051
2240.000000	19.309153
2230.000000	23.484020
2220.000000	25.557736
2210.000000	21.013391
2200.000000	22.008829
2190.000000	20.993732
2180.000000	19.375536
2170.000000	19.462016
2160.000000	19.023424
2150.000000	19.912599
2140.000000	22.072118
2130.000000	21.900446
2120.000000	24.540505
2110.000000	23.793873
2100.000000	24.971397
2090.000000	23.922060
2080.000000	24.813010
2070.000000	24.156283
2060.000000	22.813281
2050.000000	21.485453
2040.000000	21.296789
2030.000000	21.480796
2020.000000	21.910280
2010.000000	22.569170
2000.000000	22.296551
1990.000000	21.907012
1980.000000	20.323172
1970.000000	19.498470
1960.000000	19.063082
1950.000000	18.429414
1940.000000	18.202714
1930.000000	18.869189
1920.000000	20.186439
1910.000000	22.197430
1900.000000	27.126754
1890.000000	31.188611
1880.000000	35.797126
1870.000000	39.931049
1860.000000	41.795869
1850.000000	42.201408
1840.000000	42.288235
1830.000000	41.944683
1820.000000	41.539561
1810.000000	41.055634
1800.000000	40.543680
1790.000000	40.273364
1780.000000	39.906339
1770.000000	38.934745
1760.000000	38.210246
1750.000000	37.569304
1740.000000	37.292414
1730.000000	36.971219
1720.000000	37.718536
1710.000000	38.463609
1700.000000	39.371666
1690.000000	40.274214
1680.000000	41.801926
1670.000000	43.957520
1660.000000	45.453201
1650.000000	46.063471
1640.000000	45.916462
1630.000000	45.480291
1620.000000	44.802950
1610.000000	43.912728
1600.000000	42.956364
1590.000000	42.276863
1580.000000	41.545486
1570.000000	41.014735
1560.000000	40.577528
1550.000000	40.040122
1540.000000	39.184410
1530.000000	38.304634
1520.000000	37.620339
1510.000000	36.966687
1500.000000	36.773363
1490.000000	36.888918
1480.000000	37.249013
1470.000000	37.747165
1460.000000	38.362382
1450.000000	39.142460
1440.000000	40.250800
1430.000000	41.359328
1420.000000	42.981232
1410.000000	45.277464
1400.000000	48.777174
1390.000000	52.508155
1380.000000	54.997054
1370.000000	56.029029
1360.000000	56.734824
1350.000000	57.240493
1340.000000	57.536719
1330.000000	58.291486
1320.000000	59.843119
1310.000000	61.196884
1300.000000	61.851135
1290.000000	61.928924
1280.000000	61.584801
1270.000000	61.308266
1260.000000	61.183436
1250.000000	61.096264
1240.000000	60.904405
1230.000000	60.587454
1220.000000	60.055346
1210.000000	59.427674
1200.000000	58.946598
1190.000000	58.847913
1180.000000	59.356223
1170.000000	60.282065
1160.000000	61.464849
1150.000000	62.353700
1140.000000	62.958546
1130.000000	63.761530
1120.000000	64.274244
1110.000000	64.339793
1100.000000	64.450128
1090.000000	64.449455
1080.000000	64.231452
1070.000000	64.103774
1060.000000	64.096611
1050.000000	64.145946
1040.000000	63.963673
1030.000000	63.909119
1020.000000	63.953817
1010.000000	64.311096
1000.000000	64.970271
990.000000	65.127162
980.000000	65.030293
970.000000	65.110742
960.000000	65.353684
950.000000	65.423243
940.000000	65.475033
930.000000	65.370117
920.000000	65.005150
910.000000	65.200313
900.000000	65.233564
890.000000	64.854946
880.000000	65.071148
870.000000	64.799088
860.000000	64.057241
850.000000	64.328074
840.000000	64.989528
830.000000	65.010800
820.000000	64.930288
810.000000	64.824323
800.000000	64.719842
790.000000	64.539668
780.000000	64.592390
770.000000	64.683480
760.000000	64.368935
750.000000	64.369912
740.000000	64.203940
730.000000	64.009367
720.000000	63.815646
710.000000	63.660247
700.000000	63.464371
690.000000	63.147589
680.000000	62.938053
670.000000	62.704953
660.000000	62.342119
650.000000	62.025996
640.000000	61.655779
630.000000	61.191277
620.000000	60.747430
610.000000	60.140648
600.000000	59.504675
590.000000	58.979861
580.000000	58.517159
570.000000	57.883427
560.000000	57.196195
550.000000	56.497495
540.000000	55.646302
530.000000	54.841980
520.000000	53.970415
510.000000	53.024422
500.000000	51.966312
490.000000	50.607979
480.000000	49.105724
470.000000	47.625511
460.000000	45.785895
450.000000	43.607351
440.000000	41.367321
430.000000	38.967259
420.000000	36.464112
410.000000	34.405871
400.000000	33.089496
390.000000	31.844070
380.000000	30.364098
370.000000	28.806631
360.000000	27.296708
350.000000	26.162259
340.000000	24.891284
330.000000	23.544961
320.000000	22.296192
310.000000	20.924960
300.000000	19.220242
290.000000	16.803144
280.000000	15.535492
270.000000	15.539622
260.000000	15.583265
250.000000	14.969435
