PE UV       SUBTECH     SPECTRUM    ASCII       PEDS        4.00        
   -1
3G-N10-C018.Sample.Raw.asc
22/04/20
11:35:59.00
22/04/20
11:35:59.00
Administrator

250.000000
1
Lambda 750
750N8071901
PerkinElmer UV WinLab 6.0.4.0738 / 1.61.00 Lambda 900

0
0
3350/servo 860.8/2
0
0
UV/VIS
1
1
1
CommonBeamDepol,150mm sphere / downward view
0
0
0
0
Program
Program
3350/servo 860.8/2
3350/0.2 860.8/0.2
3350/0.2 860.8/0.2
0
1
 
 
 
0
 
860.8
319.2
860.8
Front
100
on
 
 
0
0
0
 
0
 
 
 
0
 
 
0
0
0
0
0
 
 
 
 
0
0


0
0
#HDR
-1
-1
#GR
nm
%R
1.0
0.0
2500.000000
-10.000000
226
8
64.319622
18.962894
#DATA
2500.000000	29.548032
2490.000000	24.513496
2480.000000	26.203311
2470.000000	25.288162
2460.000000	25.955247
2450.000000	27.583722
2440.000000	26.308190
2430.000000	29.747622
2420.000000	28.450292
2410.000000	31.061553
2400.000000	29.942745
2390.000000	29.990144
2380.000000	32.147896
2370.000000	33.812611
2360.000000	28.248964
2350.000000	35.987208
2340.000000	33.668738
2330.000000	29.772580
2320.000000	29.901875
2310.000000	30.399990
2300.000000	30.570641
2290.000000	30.428451
2280.000000	29.477536
2270.000000	32.506043
2260.000000	31.932073
2250.000000	31.440350
2240.000000	31.575375
2230.000000	34.157893
2220.000000	36.321923
2210.000000	34.398160
2200.000000	33.024660
2190.000000	33.751618
2180.000000	32.062913
2170.000000	31.421860
2160.000000	33.095206
2150.000000	31.774667
2140.000000	34.261527
2130.000000	36.174446
2120.000000	36.318829
2110.000000	36.864450
2100.000000	36.394271
2090.000000	36.990744
2080.000000	36.366098
2070.000000	36.421013
2060.000000	35.259984
2050.000000	35.009369
2040.000000	33.907347
2030.000000	33.636606
2020.000000	34.849227
2010.000000	35.006491
2000.000000	34.023784
1990.000000	34.041375
1980.000000	33.053802
1970.000000	31.575774
1960.000000	30.893970
1950.000000	30.187236
1940.000000	29.509867
1930.000000	30.455773
1920.000000	32.155588
1910.000000	34.336679
1900.000000	38.333154
1890.000000	41.966113
1880.000000	45.358395
1870.000000	48.364483
1860.000000	50.014374
1850.000000	49.960177
1840.000000	49.822682
1830.000000	49.471976
1820.000000	49.162090
1810.000000	48.853993
1800.000000	48.667256
1790.000000	48.182311
1780.000000	48.173878
1770.000000	47.405701
1760.000000	47.046280
1750.000000	46.792975
1740.000000	46.387245
1730.000000	46.305454
1720.000000	46.774640
1710.000000	47.350575
1700.000000	47.834404
1690.000000	48.497418
1680.000000	49.301492
1670.000000	50.855135
1660.000000	51.680416
1650.000000	52.091573
1640.000000	52.055726
1630.000000	51.669685
1620.000000	51.409331
1610.000000	50.816409
1600.000000	50.165752
1590.000000	49.697239
1580.000000	49.233577
1570.000000	48.777427
1560.000000	48.570656
1550.000000	48.255575
1540.000000	47.618253
1530.000000	47.194936
1520.000000	46.626650
1510.000000	46.290853
1500.000000	46.052682
1490.000000	46.112597
1480.000000	46.403535
1470.000000	46.831529
1460.000000	47.260243
1450.000000	47.775105
1440.000000	48.529393
1430.000000	49.250541
1420.000000	50.081373
1410.000000	51.411047
1400.000000	53.732227
1390.000000	56.255488
1380.000000	57.806496
1370.000000	58.429475
1360.000000	58.634924
1350.000000	58.699255
1340.000000	58.616201
1330.000000	59.195250
1320.000000	60.606882
1310.000000	61.532628
1300.000000	61.906531
1290.000000	61.783951
1280.000000	61.268258
1270.000000	61.212406
1260.000000	61.310302
1250.000000	61.317889
1240.000000	61.260685
1230.000000	60.910417
1220.000000	60.671026
1210.000000	60.442758
1200.000000	60.114813
1190.000000	59.952886
1180.000000	60.164521
1170.000000	60.731922
1160.000000	61.473249
1150.000000	62.029808
1140.000000	62.226807
1130.000000	62.705897
1120.000000	63.156610
1110.000000	63.181378
1100.000000	63.270068
1090.000000	63.221608
1080.000000	63.052360
1070.000000	62.974248
1060.000000	62.961809
1050.000000	63.050395
1040.000000	62.927663
1030.000000	63.014079
1020.000000	63.130656
1010.000000	63.398615
1000.000000	63.963688
990.000000	64.079542
980.000000	63.896941
970.000000	63.972941
960.000000	64.104734
950.000000	64.181664
940.000000	64.187409
930.000000	64.228860
920.000000	63.997576
910.000000	64.039942
900.000000	63.987931
890.000000	64.170733
880.000000	64.319622
870.000000	63.923079
860.000000	63.596347
850.000000	63.549315
840.000000	63.988055
830.000000	63.824508
820.000000	63.968548
810.000000	64.110272
800.000000	63.755338
790.000000	63.480200
780.000000	63.423059
770.000000	63.557002
760.000000	63.522140
750.000000	63.609260
740.000000	63.510302
730.000000	63.453483
720.000000	63.504516
710.000000	63.569842
700.000000	63.419326
690.000000	63.343398
680.000000	63.411047
670.000000	63.389450
660.000000	63.233932
650.000000	63.156225
640.000000	63.027047
630.000000	62.870595
620.000000	62.635224
610.000000	62.370312
600.000000	62.151639
590.000000	62.004656
580.000000	61.836662
570.000000	61.614807
560.000000	61.297118
550.000000	60.999830
540.000000	60.659477
530.000000	60.188985
520.000000	59.740195
510.000000	59.319685
500.000000	58.796822
490.000000	58.147294
480.000000	57.529783
470.000000	56.865661
460.000000	55.986291
450.000000	54.897397
440.000000	53.730915
430.000000	52.376194
420.000000	50.832725
410.000000	49.098995
400.000000	47.621219
390.000000	46.420435
380.000000	45.096051
370.000000	43.307544
360.000000	41.587206
350.000000	40.603952
340.000000	39.139093
330.000000	37.541019
320.000000	35.886023
310.000000	33.697718
300.000000	30.783010
290.000000	26.296371
280.000000	22.222974
270.000000	21.152512
260.000000	20.810969
250.000000	18.962894
