PE UV       SUBTECH     SPECTRUM    ASCII       PEDS        4.00        
   -1
3G-N10-F014.Sample.Raw.asc
22/04/20
16:03:50.00
22/04/20
16:03:50.00
Administrator

250.000000
1
Lambda 750
750N8071901
PerkinElmer UV WinLab 6.0.4.0738 / 1.61.00 Lambda 900

0
0
3350/servo 860.8/2
0
0
UV/VIS
1
1
1
CommonBeamDepol,150mm sphere / downward view
0
0
0
0
Program
Program
3350/servo 860.8/2
3350/0.2 860.8/0.2
3350/0.2 860.8/0.2
0
1
 
 
 
0
 
860.8
319.2
860.8
Front
100
on
 
 
0
0
0
 
0
 
 
 
0
 
 
0
0
0
0
0
 
 
 
 
0
0


0
0
#HDR
-1
-1
#GR
nm
%R
1.0
0.0
2500.000000
-10.000000
226
8
65.917497
11.840213
#DATA
2500.000000	20.093515
2490.000000	14.688662
2480.000000	12.400667
2470.000000	11.840213
2460.000000	16.218443
2450.000000	20.045472
2440.000000	16.779612
2430.000000	12.513779
2420.000000	12.928331
2410.000000	19.600744
2400.000000	18.850533
2390.000000	19.899533
2380.000000	16.876556
2370.000000	20.408492
2360.000000	15.628039
2350.000000	19.583636
2340.000000	22.681194
2330.000000	19.704516
2320.000000	20.049437
2310.000000	18.620501
2300.000000	17.843098
2290.000000	19.483064
2280.000000	18.496060
2270.000000	19.187162
2260.000000	18.585770
2250.000000	18.582136
2240.000000	19.663860
2230.000000	23.513387
2220.000000	25.654270
2210.000000	21.018459
2200.000000	20.151081
2190.000000	21.712513
2180.000000	20.535759
2170.000000	20.956916
2160.000000	22.017840
2150.000000	21.635805
2140.000000	22.281703
2130.000000	23.548032
2120.000000	24.394866
2110.000000	23.699251
2100.000000	24.062994
2090.000000	23.280985
2080.000000	24.657500
2070.000000	24.181955
2060.000000	22.499180
2050.000000	22.478034
2040.000000	22.072911
2030.000000	21.824829
2020.000000	21.956075
2010.000000	22.612442
2000.000000	22.548688
1990.000000	21.391273
1980.000000	20.885463
1970.000000	20.014522
1960.000000	19.557635
1950.000000	18.771983
1940.000000	17.876219
1930.000000	18.978496
1920.000000	20.830769
1910.000000	22.643693
1900.000000	26.997006
1890.000000	31.196310
1880.000000	36.147750
1870.000000	40.586663
1860.000000	41.879556
1850.000000	42.526363
1840.000000	42.536099
1830.000000	42.418282
1820.000000	41.885952
1810.000000	41.482502
1800.000000	40.845652
1790.000000	40.513009
1780.000000	39.906985
1770.000000	39.321397
1760.000000	38.811297
1750.000000	38.095300
1740.000000	37.251203
1730.000000	37.161162
1720.000000	37.778378
1710.000000	38.673845
1700.000000	39.709328
1690.000000	40.289005
1680.000000	42.101240
1670.000000	44.152190
1660.000000	45.592084
1650.000000	46.246101
1640.000000	46.105125
1630.000000	45.689644
1620.000000	45.042809
1610.000000	44.095080
1600.000000	43.119863
1590.000000	42.457423
1580.000000	41.904031
1570.000000	41.229007
1560.000000	40.683691
1550.000000	40.365474
1540.000000	39.462350
1530.000000	38.590983
1520.000000	37.689104
1510.000000	37.270932
1500.000000	37.014233
1490.000000	37.032000
1480.000000	37.351916
1470.000000	37.867373
1460.000000	38.638190
1450.000000	39.361155
1440.000000	40.409559
1430.000000	41.459127
1420.000000	43.044523
1410.000000	45.394970
1400.000000	48.912400
1390.000000	52.700425
1380.000000	55.127056
1370.000000	56.224735
1360.000000	56.851301
1350.000000	57.417138
1340.000000	57.753904
1330.000000	58.443618
1320.000000	60.030834
1310.000000	61.469757
1300.000000	62.104653
1290.000000	62.177729
1280.000000	61.935282
1270.000000	61.556721
1260.000000	61.333724
1250.000000	61.257920
1240.000000	61.160848
1230.000000	60.791259
1220.000000	60.221904
1210.000000	59.698578
1200.000000	59.172077
1190.000000	59.090643
1180.000000	59.617636
1170.000000	60.501823
1160.000000	61.727837
1150.000000	62.676947
1140.000000	63.202244
1130.000000	64.002266
1120.000000	64.543376
1110.000000	64.720589
1100.000000	64.601401
1090.000000	64.648651
1080.000000	64.487443
1070.000000	64.339623
1060.000000	64.261361
1050.000000	64.246928
1040.000000	64.127587
1030.000000	64.103034
1020.000000	64.108514
1010.000000	64.478426
1000.000000	65.109067
990.000000	65.295006
980.000000	65.207574
970.000000	65.200030
960.000000	65.306122
950.000000	65.353174
940.000000	65.564910
930.000000	65.480345
920.000000	65.305059
910.000000	65.445741
900.000000	65.120487
890.000000	65.223140
880.000000	65.917497
870.000000	65.783290
860.000000	64.881209
850.000000	64.383617
840.000000	65.284044
830.000000	65.267091
820.000000	65.105150
810.000000	65.038948
800.000000	65.099299
790.000000	64.999794
780.000000	64.938990
770.000000	64.947098
760.000000	64.850258
750.000000	64.866016
740.000000	64.630471
730.000000	64.442728
720.000000	64.230890
710.000000	64.094676
700.000000	63.992135
690.000000	63.748437
680.000000	63.442173
670.000000	63.092611
660.000000	62.798693
650.000000	62.527371
640.000000	62.095366
630.000000	61.712171
620.000000	61.207480
610.000000	60.594861
600.000000	60.128242
590.000000	59.701411
580.000000	59.237681
570.000000	58.623997
560.000000	57.964169
550.000000	57.352476
540.000000	56.601483
530.000000	55.737755
520.000000	54.900864
510.000000	53.996301
500.000000	52.878133
490.000000	51.572917
480.000000	50.197526
470.000000	48.622034
460.000000	46.828865
450.000000	44.750383
440.000000	42.492116
430.000000	40.146977
420.000000	37.590633
410.000000	35.406515
400.000000	34.012551
390.000000	32.776526
380.000000	31.279294
370.000000	29.615302
360.000000	28.213218
350.000000	27.137359
340.000000	25.787142
330.000000	24.442254
320.000000	23.099864
310.000000	21.303503
300.000000	19.327319
290.000000	16.933652
280.000000	15.662126
270.000000	15.594264
260.000000	15.696238
250.000000	15.071925
