PE UV       SUBTECH     SPECTRUM    ASCII       PEDS        4.00        
   -1
3G-H10-F027.Sample.Cycle1.Raw.asc
22/04/19
17:55:06.00
22/04/19
17:55:06.00
Administrator

250.000000
1
Lambda 750
750N8071901
PerkinElmer UV WinLab 6.0.4.0738 / 1.61.00 Lambda 900

0
0
3350/servo 860.8/2
0
0
UV/VIS
1
1
1
CommonBeamDepol,150mm sphere / downward view
0
0
0
0
Program
Program
3350/servo 860.8/2
3350/0.2 860.8/0.2
3350/0.2 860.8/0.2
0
1
 
 
 
0
 
860.8
319.2
860.8
Front
100
on
 
 
0
0
0
 
0
 
 
 
0
 
 
0
0
0
0
0
 
 
 
 
0
0


0
0
#HDR
-1
-1
#GR
nm
%R
1.0
0.0
2500.000000
-10.000000
226
8
62.398701
5.501181
#DATA
2500.000000	7.504222
2490.000000	7.141600
2480.000000	5.501181
2470.000000	12.682207
2460.000000	10.693059
2450.000000	16.105348
2440.000000	12.165897
2430.000000	12.841637
2420.000000	17.587091
2410.000000	14.907486
2400.000000	20.864464
2390.000000	16.422143
2380.000000	15.215242
2370.000000	12.834400
2360.000000	18.388370
2350.000000	16.553919
2340.000000	15.075336
2330.000000	15.714008
2320.000000	15.973801
2310.000000	12.418419
2300.000000	12.775862
2290.000000	12.542758
2280.000000	13.466856
2270.000000	14.345884
2260.000000	13.148281
2250.000000	16.099458
2240.000000	19.582030
2230.000000	15.634795
2220.000000	16.728946
2210.000000	15.541301
2200.000000	15.588610
2190.000000	16.479232
2180.000000	16.234153
2170.000000	15.192560
2160.000000	18.170379
2150.000000	16.701046
2140.000000	18.249034
2130.000000	18.675445
2120.000000	17.812685
2110.000000	18.018924
2100.000000	18.672909
2090.000000	18.772469
2080.000000	18.709453
2070.000000	17.817645
2060.000000	18.333396
2050.000000	18.141179
2040.000000	17.163669
2030.000000	17.072080
2020.000000	17.430475
2010.000000	17.925297
2000.000000	17.334739
1990.000000	17.258966
1980.000000	16.402188
1970.000000	15.823089
1960.000000	15.172077
1950.000000	14.822090
1940.000000	14.600979
1930.000000	15.005797
1920.000000	15.452867
1910.000000	17.587769
1900.000000	20.614080
1890.000000	24.624173
1880.000000	29.391335
1870.000000	32.477531
1860.000000	34.373224
1850.000000	35.080834
1840.000000	34.822291
1830.000000	34.523080
1820.000000	34.304698
1810.000000	34.192617
1800.000000	33.637961
1790.000000	33.008777
1780.000000	32.548936
1770.000000	31.956505
1760.000000	31.144110
1750.000000	30.823374
1740.000000	30.094320
1730.000000	29.750388
1720.000000	30.240751
1710.000000	31.212458
1700.000000	32.068624
1690.000000	32.948423
1680.000000	34.746275
1670.000000	36.663695
1660.000000	38.222131
1650.000000	38.978429
1640.000000	38.838821
1630.000000	38.307391
1620.000000	37.553787
1610.000000	36.705932
1600.000000	35.904978
1590.000000	35.154921
1580.000000	34.537242
1570.000000	33.936727
1560.000000	33.459209
1550.000000	32.869238
1540.000000	32.184794
1530.000000	31.220054
1520.000000	30.433581
1510.000000	30.084086
1500.000000	29.814562
1490.000000	29.921641
1480.000000	30.140014
1470.000000	30.652550
1460.000000	31.157476
1450.000000	31.960167
1440.000000	32.990719
1430.000000	34.155585
1420.000000	35.659316
1410.000000	38.090586
1400.000000	41.946981
1390.000000	46.130397
1380.000000	48.831355
1370.000000	50.053390
1360.000000	50.879625
1350.000000	51.673917
1340.000000	52.214551
1330.000000	52.964419
1320.000000	54.323881
1310.000000	55.691745
1300.000000	56.527683
1290.000000	56.879043
1280.000000	56.833218
1270.000000	56.539881
1260.000000	56.363542
1250.000000	56.108497
1240.000000	55.644180
1230.000000	55.284347
1220.000000	54.862555
1210.000000	54.083419
1200.000000	53.441969
1190.000000	53.211510
1180.000000	53.686083
1170.000000	54.933495
1160.000000	56.521122
1150.000000	57.820183
1140.000000	59.184554
1130.000000	60.104230
1120.000000	60.419594
1110.000000	60.516437
1100.000000	60.416106
1090.000000	60.516114
1080.000000	60.555541
1070.000000	60.338058
1060.000000	60.250735
1050.000000	60.218122
1040.000000	60.167539
1030.000000	60.145508
1020.000000	60.259817
1010.000000	60.683793
1000.000000	61.353362
990.000000	61.470394
980.000000	61.280444
970.000000	61.569586
960.000000	61.839609
950.000000	62.166239
940.000000	62.065751
930.000000	61.892993
920.000000	61.782847
910.000000	61.767434
900.000000	61.936422
890.000000	62.184809
880.000000	62.398701
870.000000	62.207444
860.000000	61.702979
850.000000	61.487836
840.000000	60.743211
830.000000	60.993448
820.000000	61.162774
810.000000	60.686257
800.000000	60.437179
790.000000	60.545259
780.000000	60.618286
770.000000	60.509720
760.000000	60.375471
750.000000	60.234725
740.000000	59.961327
730.000000	59.688033
720.000000	59.599821
710.000000	59.295484
700.000000	58.974591
690.000000	58.428582
680.000000	58.174840
670.000000	57.944758
660.000000	57.344235
650.000000	56.677345
640.000000	55.960456
630.000000	55.130602
620.000000	54.527791
610.000000	53.713707
600.000000	53.004630
590.000000	52.353604
580.000000	51.590288
570.000000	50.839996
560.000000	50.134684
550.000000	49.225299
540.000000	48.290622
530.000000	47.322702
520.000000	46.348920
510.000000	45.293245
500.000000	43.942839
490.000000	42.457362
480.000000	40.883063
470.000000	39.209164
460.000000	37.250169
450.000000	34.966898
440.000000	32.500728
430.000000	30.015292
420.000000	27.669635
410.000000	25.934981
400.000000	25.131665
390.000000	24.629130
380.000000	23.918709
370.000000	22.926832
360.000000	21.963918
350.000000	21.069025
340.000000	20.354126
330.000000	20.069453
320.000000	19.362631
310.000000	18.178825
300.000000	16.642786
290.000000	14.991307
280.000000	14.062508
270.000000	13.894914
260.000000	13.810498
250.000000	13.391809
