PE UV       SUBTECH     SPECTRUM    ASCII       PEDS        4.00        
   -1
3G-N10-F027.Sample.Raw.asc
22/04/20
16:46:37.00
22/04/20
16:46:37.00
Administrator

250.000000
1
Lambda 750
750N8071901
PerkinElmer UV WinLab 6.0.4.0738 / 1.61.00 Lambda 900

0
0
3350/servo 860.8/2
0
0
UV/VIS
1
1
1
CommonBeamDepol,150mm sphere / downward view
0
0
0
0
Program
Program
3350/servo 860.8/2
3350/0.2 860.8/0.2
3350/0.2 860.8/0.2
0
1
 
 
 
0
 
860.8
319.2
860.8
Front
100
on
 
 
0
0
0
 
0
 
 
 
0
 
 
0
0
0
0
0
 
 
 
 
0
0


0
0
#HDR
-1
-1
#GR
nm
%R
1.0
0.0
2500.000000
-10.000000
226
8
64.156434
9.410607
#DATA
2500.000000	17.189919
2490.000000	9.410607
2480.000000	14.328695
2470.000000	14.180841
2460.000000	19.656111
2450.000000	18.042105
2440.000000	17.941424
2430.000000	14.711990
2420.000000	18.345776
2410.000000	16.908159
2400.000000	20.768451
2390.000000	18.119734
2380.000000	19.935505
2370.000000	21.253292
2360.000000	13.624789
2350.000000	20.470384
2340.000000	18.137562
2330.000000	17.385607
2320.000000	16.371626
2310.000000	16.565659
2300.000000	17.529268
2290.000000	15.220756
2280.000000	15.631077
2270.000000	19.093718
2260.000000	16.760444
2250.000000	18.479076
2240.000000	18.991580
2230.000000	20.801025
2220.000000	23.434611
2210.000000	20.343836
2200.000000	19.829511
2190.000000	20.767884
2180.000000	18.774290
2170.000000	17.884745
2160.000000	20.338217
2150.000000	20.936091
2140.000000	23.550578
2130.000000	22.828484
2120.000000	23.758888
2110.000000	24.219677
2100.000000	23.907947
2090.000000	22.345295
2080.000000	23.317719
2070.000000	21.975456
2060.000000	21.582108
2050.000000	21.549388
2040.000000	20.468081
2030.000000	20.311847
2020.000000	21.201733
2010.000000	21.428208
2000.000000	21.773766
1990.000000	20.542653
1980.000000	19.746033
1970.000000	19.153571
1960.000000	18.146206
1950.000000	17.462507
1940.000000	17.043659
1930.000000	18.416995
1920.000000	19.370288
1910.000000	21.411035
1900.000000	25.891936
1890.000000	29.938860
1880.000000	34.559022
1870.000000	38.198309
1860.000000	40.368731
1850.000000	41.284526
1840.000000	40.780074
1830.000000	40.922372
1820.000000	40.546316
1810.000000	40.062812
1800.000000	39.497745
1790.000000	39.233393
1780.000000	38.882008
1770.000000	37.896382
1760.000000	37.246502
1750.000000	36.824250
1740.000000	36.234441
1730.000000	35.624235
1720.000000	36.125964
1710.000000	37.248982
1700.000000	37.922158
1690.000000	39.005396
1680.000000	40.530159
1670.000000	42.444490
1660.000000	44.057302
1650.000000	44.767049
1640.000000	44.505336
1630.000000	44.146470
1620.000000	43.641494
1610.000000	42.595173
1600.000000	41.746860
1590.000000	40.983924
1580.000000	40.342811
1570.000000	39.862300
1560.000000	39.443833
1550.000000	38.827448
1540.000000	38.077785
1530.000000	37.149608
1520.000000	36.374211
1510.000000	35.884143
1500.000000	35.543247
1490.000000	35.527698
1480.000000	36.001955
1470.000000	36.583657
1460.000000	37.117710
1450.000000	37.970515
1440.000000	38.978159
1430.000000	40.157232
1420.000000	41.637928
1410.000000	43.961649
1400.000000	47.394009
1390.000000	51.133429
1380.000000	53.547185
1370.000000	54.594279
1360.000000	55.262872
1350.000000	55.751542
1340.000000	55.980975
1330.000000	56.676701
1320.000000	58.088529
1310.000000	59.264733
1300.000000	59.978754
1290.000000	60.285897
1280.000000	59.991646
1270.000000	59.684508
1260.000000	59.639569
1250.000000	59.452976
1240.000000	59.014029
1230.000000	58.747998
1220.000000	58.303575
1210.000000	57.787375
1200.000000	57.298915
1190.000000	57.340127
1180.000000	57.821563
1170.000000	58.646811
1160.000000	59.791936
1150.000000	60.740693
1140.000000	61.446071
1130.000000	62.021666
1120.000000	62.265072
1110.000000	62.472354
1100.000000	62.583569
1090.000000	62.605443
1080.000000	62.568466
1070.000000	62.446456
1060.000000	62.319348
1050.000000	62.293989
1040.000000	62.133409
1030.000000	62.252317
1020.000000	62.379183
1010.000000	62.791339
1000.000000	63.487905
990.000000	63.526718
980.000000	63.488884
970.000000	63.635631
960.000000	63.679152
950.000000	63.795668
940.000000	63.929395
930.000000	63.711824
920.000000	63.544986
910.000000	63.502166
900.000000	63.517768
890.000000	63.519130
880.000000	63.337221
870.000000	63.216920
860.000000	62.992756
850.000000	62.985206
840.000000	64.156434
830.000000	63.493491
820.000000	63.635145
810.000000	63.727222
800.000000	63.633160
790.000000	63.448935
780.000000	63.083557
770.000000	63.181510
760.000000	63.027679
750.000000	63.088561
740.000000	62.932772
730.000000	62.858367
720.000000	62.678870
710.000000	62.548691
700.000000	62.330927
690.000000	62.159392
680.000000	61.900519
670.000000	61.515159
660.000000	61.201600
650.000000	60.973839
640.000000	60.618475
630.000000	60.126285
620.000000	59.657708
610.000000	59.107404
600.000000	58.638374
590.000000	58.156796
580.000000	57.617419
570.000000	57.060909
560.000000	56.488930
550.000000	55.810955
540.000000	55.091858
530.000000	54.252169
520.000000	53.427808
510.000000	52.567953
500.000000	51.467757
490.000000	50.114016
480.000000	48.698926
470.000000	47.230743
460.000000	45.533782
450.000000	43.448086
440.000000	41.197138
430.000000	38.879512
420.000000	36.466545
410.000000	34.371848
400.000000	32.910723
390.000000	31.670181
380.000000	30.193061
370.000000	28.604314
360.000000	27.297883
350.000000	26.321255
340.000000	24.695623
330.000000	23.400255
320.000000	22.894339
310.000000	21.328456
300.000000	19.066633
290.000000	16.774197
280.000000	15.601709
270.000000	15.465975
260.000000	15.527482
250.000000	14.989022
