PE UV       SUBTECH     SPECTRUM    ASCII       PEDS        4.00        
   -1
3G-H10-C020.Sample.Raw.asc
22/04/19
16:30:27.00
22/04/19
16:30:27.00
Administrator

250.000000
1
Lambda 750
750N8071901
PerkinElmer UV WinLab 6.0.4.0738 / 1.61.00 Lambda 900

0
0
3350/servo 860.8/2
0
0
UV/VIS
1
1
1
CommonBeamDepol,150mm sphere / downward view
0
0
0
0
Program
Program
3350/servo 860.8/2
3350/0.2 860.8/0.2
3350/0.2 860.8/0.2
0
1
 
 
 
0
 
860.8
319.2
860.8
Front
100
on
 
 
0
0
0
 
0
 
 
 
0
 
 
0
0
0
0
0
 
 
 
 
0
0


0
0
#HDR
-1
-1
#GR
nm
%R
1.0
0.0
2500.000000
-10.000000
226
8
64.821577
16.941924
#DATA
2500.000000	18.287564
2490.000000	19.333979
2480.000000	26.362393
2470.000000	31.180416
2460.000000	26.224481
2450.000000	26.678676
2440.000000	23.853547
2430.000000	27.084046
2420.000000	32.898473
2410.000000	34.917571
2400.000000	31.648092
2390.000000	30.578920
2380.000000	28.610096
2370.000000	25.433041
2360.000000	33.407917
2350.000000	31.384238
2340.000000	30.776821
2330.000000	29.339385
2320.000000	29.655225
2310.000000	31.495634
2300.000000	30.098965
2290.000000	27.388702
2280.000000	28.415279
2270.000000	29.505614
2260.000000	27.282076
2250.000000	31.223402
2240.000000	34.039915
2230.000000	32.065314
2220.000000	32.857958
2210.000000	31.564810
2200.000000	31.821981
2190.000000	32.359392
2180.000000	32.643658
2170.000000	31.144492
2160.000000	31.606404
2150.000000	32.498365
2140.000000	34.863573
2130.000000	34.748014
2120.000000	35.679493
2110.000000	36.292818
2100.000000	35.353308
2090.000000	35.868497
2080.000000	35.070907
2070.000000	33.786360
2060.000000	33.819777
2050.000000	32.863202
2040.000000	32.890803
2030.000000	32.987425
2020.000000	33.349016
2010.000000	33.508497
2000.000000	33.309051
1990.000000	32.442178
1980.000000	31.917597
1970.000000	30.273280
1960.000000	29.840308
1950.000000	28.905565
1940.000000	29.028370
1930.000000	29.437774
1920.000000	30.969852
1910.000000	34.142694
1900.000000	37.260006
1890.000000	40.883242
1880.000000	44.045440
1870.000000	46.768465
1860.000000	47.894572
1850.000000	48.003970
1840.000000	48.005300
1830.000000	47.885886
1820.000000	47.686375
1810.000000	47.680960
1800.000000	47.094307
1790.000000	46.760017
1780.000000	46.470857
1770.000000	46.042155
1760.000000	45.653332
1750.000000	45.200592
1740.000000	44.770289
1730.000000	44.469938
1720.000000	44.845553
1710.000000	45.905473
1700.000000	46.121731
1690.000000	46.834791
1680.000000	48.235377
1670.000000	49.346093
1660.000000	50.230207
1650.000000	50.910050
1640.000000	50.796447
1630.000000	50.345647
1620.000000	49.833589
1610.000000	49.336469
1600.000000	48.862100
1590.000000	48.347038
1580.000000	47.962162
1570.000000	47.583954
1560.000000	47.209048
1550.000000	46.750907
1540.000000	46.379018
1530.000000	45.682025
1520.000000	45.057693
1510.000000	44.922031
1500.000000	44.839192
1490.000000	44.791848
1480.000000	45.017043
1470.000000	45.373946
1460.000000	45.846764
1450.000000	46.359782
1440.000000	47.029350
1430.000000	47.791392
1420.000000	48.654854
1410.000000	50.015850
1400.000000	52.542329
1390.000000	55.396394
1380.000000	57.147969
1370.000000	57.829854
1360.000000	58.000307
1350.000000	58.195070
1340.000000	58.539447
1330.000000	59.132141
1320.000000	60.199892
1310.000000	61.274863
1300.000000	61.754386
1290.000000	61.895707
1280.000000	61.521146
1270.000000	61.202683
1260.000000	61.190274
1250.000000	61.033636
1240.000000	60.907441
1230.000000	60.744016
1220.000000	60.522309
1210.000000	60.154125
1200.000000	59.848764
1190.000000	59.606605
1180.000000	59.745174
1170.000000	60.553982
1160.000000	61.527640
1150.000000	62.264370
1140.000000	63.002331
1130.000000	63.508077
1120.000000	63.611459
1110.000000	63.541393
1100.000000	63.454911
1090.000000	63.568148
1080.000000	63.574149
1070.000000	63.388340
1060.000000	63.311888
1050.000000	63.453808
1040.000000	63.512635
1030.000000	63.399888
1020.000000	63.446765
1010.000000	63.663302
1000.000000	64.307540
990.000000	64.421047
980.000000	64.280513
970.000000	64.430488
960.000000	64.564292
950.000000	64.780304
940.000000	64.768288
930.000000	64.449488
920.000000	64.611314
910.000000	64.605544
900.000000	64.556379
890.000000	64.669569
880.000000	64.796342
870.000000	64.303621
860.000000	64.127605
850.000000	64.821577
840.000000	63.876757
830.000000	64.006261
820.000000	63.914138
810.000000	63.554387
800.000000	63.357725
790.000000	63.481000
780.000000	63.431728
770.000000	63.507760
760.000000	63.567923
750.000000	63.404408
740.000000	63.218611
730.000000	63.050265
720.000000	63.012435
710.000000	62.778798
700.000000	62.500982
690.000000	62.186768
680.000000	62.002881
670.000000	61.802731
660.000000	61.561044
650.000000	61.230631
640.000000	60.915611
630.000000	60.561004
620.000000	60.240203
610.000000	59.764888
600.000000	59.381136
590.000000	59.060012
580.000000	58.611387
570.000000	58.249374
560.000000	57.900981
550.000000	57.295755
540.000000	56.743105
530.000000	56.280493
520.000000	55.683928
510.000000	54.963703
500.000000	54.136636
490.000000	53.330407
480.000000	52.602640
470.000000	51.708624
460.000000	50.746269
450.000000	49.459272
440.000000	48.079770
430.000000	46.684386
420.000000	45.268161
410.000000	43.783133
400.000000	42.530742
390.000000	41.447717
380.000000	40.267185
370.000000	38.900761
360.000000	37.625862
350.000000	36.509712
340.000000	35.041766
330.000000	33.606469
320.000000	32.343747
310.000000	30.312734
300.000000	27.631559
290.000000	23.181682
280.000000	19.610917
270.000000	18.587385
260.000000	18.164210
250.000000	16.941924
