PE UV       SUBTECH     SPECTRUM    ASCII       PEDS        4.00        
   -1
3G-H10-F002.Sample.Raw.asc
22/03/09
15:30:44.00
22/03/09
15:30:44.00
Administrator

250.000000
1
Lambda 750
750N8071901
PerkinElmer UV WinLab 6.0.4.0738 / 1.61.00 Lambda 900

0
0
3350/servo 860.8/2
0
0
UV/VIS
1
1
1
CommonBeamDepol,150mm sphere / downward view
0
0
0
0
Program
Program
3350/servo 860.8/2
3350/0.2 860.8/0.2
3350/0.2 860.8/0.2
0
1
 
 
 
0
 
860.8
319.2
860.8
Front
100
on
 
 
0
0
0
 
0
 
 
 
0
 
 
0
0
0
0
0
 
 
 
 
0
0


0
0
#HDR
-1
-1
#GR
nm
%R
1.0
0.0
2500.000000
-10.000000
226
8
65.761901
11.533001
#DATA
2500.000000	11.533001
2490.000000	12.050147
2480.000000	14.715176
2470.000000	18.221591
2460.000000	16.495738
2450.000000	18.995716
2440.000000	15.259275
2430.000000	19.512027
2420.000000	15.835908
2410.000000	16.605016
2400.000000	18.297132
2390.000000	18.724800
2380.000000	16.306419
2370.000000	22.086688
2360.000000	18.603869
2350.000000	19.071651
2340.000000	16.621560
2330.000000	18.681034
2320.000000	14.408708
2310.000000	13.265333
2300.000000	18.684908
2290.000000	20.245007
2280.000000	17.580565
2270.000000	17.147432
2260.000000	18.146393
2250.000000	18.632282
2240.000000	20.514412
2230.000000	19.775851
2220.000000	19.831112
2210.000000	21.588391
2200.000000	19.687697
2190.000000	19.311352
2180.000000	19.530556
2170.000000	19.885253
2160.000000	20.097946
2150.000000	20.880193
2140.000000	21.486600
2130.000000	22.114992
2120.000000	22.101840
2110.000000	22.804083
2100.000000	24.324711
2090.000000	23.064005
2080.000000	22.292258
2070.000000	21.662108
2060.000000	20.487463
2050.000000	19.671861
2040.000000	21.080460
2030.000000	20.158568
2020.000000	21.522519
2010.000000	21.454962
2000.000000	21.190409
1990.000000	20.641986
1980.000000	20.179770
1970.000000	19.380950
1960.000000	18.706986
1950.000000	17.784664
1940.000000	18.387977
1930.000000	19.119915
1920.000000	19.840239
1910.000000	21.505362
1900.000000	24.550671
1890.000000	29.290150
1880.000000	33.184487
1870.000000	36.170977
1860.000000	38.192178
1850.000000	38.749771
1840.000000	39.363996
1830.000000	38.592331
1820.000000	38.599971
1810.000000	37.913725
1800.000000	37.395408
1790.000000	37.052960
1780.000000	36.564848
1770.000000	35.771152
1760.000000	35.029002
1750.000000	34.512491
1740.000000	33.649158
1730.000000	33.690441
1720.000000	34.293795
1710.000000	35.352871
1700.000000	35.932293
1690.000000	36.882802
1680.000000	38.457292
1670.000000	40.756344
1660.000000	42.382614
1650.000000	42.919205
1640.000000	42.797092
1630.000000	42.367188
1620.000000	41.733390
1610.000000	40.910465
1600.000000	39.928796
1590.000000	39.223182
1580.000000	38.533229
1570.000000	37.937495
1560.000000	37.428598
1550.000000	36.884734
1540.000000	36.089208
1530.000000	35.203536
1520.000000	34.589034
1510.000000	34.154080
1500.000000	33.929573
1490.000000	34.117795
1480.000000	34.525343
1470.000000	34.935608
1460.000000	35.559572
1450.000000	36.302370
1440.000000	37.303877
1430.000000	38.078512
1420.000000	39.201717
1410.000000	41.760156
1400.000000	45.546396
1390.000000	49.972863
1380.000000	52.807661
1370.000000	53.749631
1360.000000	54.309848
1350.000000	54.894099
1340.000000	55.924805
1330.000000	57.338894
1320.000000	58.858980
1310.000000	59.879800
1300.000000	60.326591
1290.000000	60.303193
1280.000000	59.974326
1270.000000	59.854015
1260.000000	59.811971
1250.000000	59.799990
1240.000000	59.395788
1230.000000	58.929797
1220.000000	58.538455
1210.000000	57.911009
1200.000000	57.214280
1190.000000	56.875702
1180.000000	57.227416
1170.000000	58.532683
1160.000000	60.165954
1150.000000	61.428256
1140.000000	62.536124
1130.000000	63.503409
1120.000000	63.786873
1110.000000	64.067847
1100.000000	64.083305
1090.000000	64.043095
1080.000000	63.951719
1070.000000	63.869456
1060.000000	63.642496
1050.000000	63.515378
1040.000000	63.498801
1030.000000	63.354300
1020.000000	63.213947
1010.000000	63.616967
1000.000000	64.449895
990.000000	65.003167
980.000000	64.933647
970.000000	64.944755
960.000000	65.211493
950.000000	65.318853
940.000000	65.249760
930.000000	65.022876
920.000000	64.943899
910.000000	65.056663
900.000000	65.213781
890.000000	65.369669
880.000000	65.761901
870.000000	65.435000
860.000000	65.284283
850.000000	64.834513
840.000000	64.853637
830.000000	64.591180
820.000000	64.427619
810.000000	64.487325
800.000000	64.467819
790.000000	64.458761
780.000000	64.429980
770.000000	64.300157
760.000000	63.969389
750.000000	63.844974
740.000000	63.662829
730.000000	63.447315
720.000000	63.117054
710.000000	62.968919
700.000000	62.686722
690.000000	62.200747
680.000000	61.899407
670.000000	61.535076
660.000000	61.120969
650.000000	60.582491
640.000000	59.908310
630.000000	59.246727
620.000000	58.528121
610.000000	57.674516
600.000000	56.984024
590.000000	56.347897
580.000000	55.683840
570.000000	54.903640
560.000000	54.187420
550.000000	53.358599
540.000000	52.435198
530.000000	51.434061
520.000000	50.495018
510.000000	49.486948
500.000000	48.237249
490.000000	46.831789
480.000000	45.281167
470.000000	43.674114
460.000000	41.762352
450.000000	39.642064
440.000000	37.320839
430.000000	34.958073
420.000000	32.744267
410.000000	31.163246
400.000000	30.295835
390.000000	29.674720
380.000000	28.803005
370.000000	27.895178
360.000000	26.820169
350.000000	25.732971
340.000000	25.134234
330.000000	24.144289
320.000000	22.984990
310.000000	22.280169
300.000000	20.693166
290.000000	18.060930
280.000000	16.415260
270.000000	16.223132
260.000000	16.246547
250.000000	15.371095
