PE UV       SUBTECH     SPECTRUM    ASCII       PEDS        4.00        
   -1
3G-H10-F007.Sample.Raw.asc
22/03/09
15:46:09.00
22/03/09
15:46:09.00
Administrator

250.000000
1
Lambda 750
750N8071901
PerkinElmer UV WinLab 6.0.4.0738 / 1.61.00 Lambda 900

0
0
3350/servo 860.8/2
0
0
UV/VIS
1
1
1
CommonBeamDepol,150mm sphere / downward view
0
0
0
0
Program
Program
3350/servo 860.8/2
3350/0.2 860.8/0.2
3350/0.2 860.8/0.2
0
1
 
 
 
0
 
860.8
319.2
860.8
Front
100
on
 
 
0
0
0
 
0
 
 
 
0
 
 
0
0
0
0
0
 
 
 
 
0
0


0
0
#HDR
-1
-1
#GR
nm
%R
1.0
0.0
2500.000000
-10.000000
226
8
65.806248
8.353680
#DATA
2500.000000	8.353680
2490.000000	14.341447
2480.000000	18.089933
2470.000000	18.215332
2460.000000	15.550080
2450.000000	17.947287
2440.000000	14.348461
2430.000000	16.001002
2420.000000	17.181914
2410.000000	16.957561
2400.000000	20.611952
2390.000000	14.280847
2380.000000	16.960784
2370.000000	17.076705
2360.000000	15.459144
2350.000000	18.097327
2340.000000	16.315789
2330.000000	15.558265
2320.000000	15.981510
2310.000000	15.850487
2300.000000	16.295680
2290.000000	17.895175
2280.000000	17.292475
2270.000000	15.434625
2260.000000	15.902983
2250.000000	17.675706
2240.000000	18.177377
2230.000000	18.682843
2220.000000	20.880063
2210.000000	19.346370
2200.000000	19.784298
2190.000000	17.635616
2180.000000	19.560797
2170.000000	17.026247
2160.000000	17.944828
2150.000000	19.831533
2140.000000	20.508658
2130.000000	21.310022
2120.000000	20.103546
2110.000000	21.325326
2100.000000	23.006979
2090.000000	22.926541
2080.000000	22.617922
2070.000000	21.301379
2060.000000	19.995288
2050.000000	19.196508
2040.000000	19.826389
2030.000000	19.272455
2020.000000	20.312050
2010.000000	20.656748
2000.000000	20.532510
1990.000000	19.753103
1980.000000	18.881875
1970.000000	19.009200
1960.000000	18.150930
1950.000000	17.253889
1940.000000	17.228700
1930.000000	17.852965
1920.000000	18.893803
1910.000000	20.675983
1900.000000	23.830571
1890.000000	27.990462
1880.000000	32.760372
1870.000000	35.809712
1860.000000	37.553722
1850.000000	38.369306
1840.000000	38.590812
1830.000000	38.069763
1820.000000	37.694594
1810.000000	37.289036
1800.000000	36.985914
1790.000000	36.273142
1780.000000	35.732868
1770.000000	35.160874
1760.000000	34.383640
1750.000000	33.851775
1740.000000	33.080673
1730.000000	33.141298
1720.000000	33.300668
1710.000000	34.643576
1700.000000	35.549055
1690.000000	35.962147
1680.000000	37.817125
1670.000000	40.287737
1660.000000	41.682581
1650.000000	42.349630
1640.000000	42.167868
1630.000000	41.694110
1620.000000	40.916943
1610.000000	40.215263
1600.000000	39.322050
1590.000000	38.572862
1580.000000	38.000292
1570.000000	37.335743
1560.000000	36.830337
1550.000000	36.322637
1540.000000	35.388740
1530.000000	34.514261
1520.000000	33.824447
1510.000000	33.427215
1500.000000	33.278110
1490.000000	33.350717
1480.000000	33.647020
1470.000000	34.111525
1460.000000	34.793323
1450.000000	35.618573
1440.000000	36.551002
1430.000000	37.401069
1420.000000	38.705918
1410.000000	41.184434
1400.000000	45.118158
1390.000000	49.590327
1380.000000	52.499543
1370.000000	53.529122
1360.000000	54.108172
1350.000000	54.669737
1340.000000	55.689577
1330.000000	57.171022
1320.000000	58.876514
1310.000000	59.871353
1300.000000	60.293945
1290.000000	60.242921
1280.000000	60.022138
1270.000000	59.832450
1260.000000	59.799541
1250.000000	59.757392
1240.000000	59.443023
1230.000000	58.858555
1220.000000	58.279969
1210.000000	57.676378
1200.000000	57.053045
1190.000000	56.930551
1180.000000	57.362001
1170.000000	58.590569
1160.000000	60.233478
1150.000000	61.509975
1140.000000	62.534828
1130.000000	63.150882
1120.000000	63.849580
1110.000000	64.175233
1100.000000	63.962432
1090.000000	63.982452
1080.000000	63.946561
1070.000000	63.919012
1060.000000	63.717025
1050.000000	63.514094
1040.000000	63.246175
1030.000000	63.072469
1020.000000	63.094903
1010.000000	63.629141
1000.000000	64.490883
990.000000	64.944945
980.000000	64.839177
970.000000	64.944755
960.000000	65.172186
950.000000	65.369996
940.000000	65.367870
930.000000	65.082961
920.000000	64.899092
910.000000	64.777067
900.000000	64.720534
890.000000	65.018762
880.000000	65.718045
870.000000	65.643043
860.000000	65.806248
850.000000	65.201805
840.000000	64.421287
830.000000	64.599885
820.000000	64.639709
810.000000	64.477429
800.000000	64.351987
790.000000	64.320374
780.000000	64.397968
770.000000	64.408711
760.000000	64.004038
750.000000	63.749086
740.000000	63.540727
730.000000	63.312178
720.000000	63.156367
710.000000	62.989551
700.000000	62.585717
690.000000	62.142177
680.000000	61.808947
670.000000	61.409170
660.000000	60.775255
650.000000	60.227328
640.000000	59.601652
630.000000	58.773009
620.000000	58.071582
610.000000	57.199626
600.000000	56.401638
590.000000	55.744508
580.000000	54.994797
570.000000	54.211129
560.000000	53.464057
550.000000	52.623509
540.000000	51.675555
530.000000	50.635004
520.000000	49.596186
510.000000	48.501306
500.000000	47.274204
490.000000	45.834320
480.000000	44.174142
470.000000	42.491151
460.000000	40.574983
450.000000	38.379412
440.000000	35.979904
430.000000	33.548816
420.000000	31.291101
410.000000	29.647656
400.000000	28.895710
390.000000	28.278385
380.000000	27.463811
370.000000	26.487189
360.000000	25.231735
350.000000	24.308913
340.000000	23.758443
330.000000	22.847854
320.000000	21.789289
310.000000	20.550818
300.000000	19.180965
290.000000	16.816871
280.000000	15.269047
270.000000	14.976156
260.000000	15.090096
250.000000	14.474868
