PE UV       SUBTECH     SPECTRUM    ASCII       PEDS        4.00        
   -1
Empty Chamber 2.Sample.asc
18/03/08
17:27:48.00
18/03/08
17:27:48.00
Administrator

200.000000
1
Lambda 750
750N8071901
PerkinElmer UV WinLab 6.0.4.0738 / 1.61.00 Lambda 900

0
0
3350/servo 860.8/2
0
0
UV/VIS
1
1
1
CommonBeamDepol,150mm sphere / downward view
0
0
0
0
Program
Program
3350/servo 860.8/2
3350/0.2 860.8/0.2
3350/0.2 860.8/0.2
0
1
 
 
 
0
 
860.8
319.2
860.8
Front
100
on
 
 
0
0
0
 
0
 
 
 
0
 
 
0
0
0
0
0
 
 
 
 
0
0


0
0
#HDR
-1
-1
#GR
nm
%T
1.0
0.0
2350.000000
-1.000000
2151
8
100.901524
99.367999
#DATA
2350.000000	99.997178
2349.000000	100.456635
2348.000000	99.827773
2347.000000	99.840602
2346.000000	99.743304
2345.000000	100.249589
2344.000000	100.442561
2343.000000	100.044442
2342.000000	100.126878
2341.000000	100.424386
2340.000000	99.863919
2339.000000	100.167190
2338.000000	100.078125
2337.000000	99.586761
2336.000000	99.747013
2335.000000	99.749338
2334.000000	99.851874
2333.000000	100.009361
2332.000000	100.161141
2331.000000	99.776875
2330.000000	100.032759
2329.000000	99.680514
2328.000000	100.064822
2327.000000	100.383763
2326.000000	100.307070
2325.000000	99.865119
2324.000000	100.079849
2323.000000	99.928311
2322.000000	99.675251
2321.000000	99.931532
2320.000000	99.904853
2319.000000	99.888112
2318.000000	100.133824
2317.000000	100.244364
2316.000000	100.153567
2315.000000	100.071705
2314.000000	100.270576
2313.000000	100.104031
2312.000000	99.968503
2311.000000	100.005564
2310.000000	99.844937
2309.000000	100.182412
2308.000000	99.953359
2307.000000	100.021937
2306.000000	99.973559
2305.000000	99.978310
2304.000000	99.926041
2303.000000	100.005252
2302.000000	100.196132
2301.000000	100.128682
2300.000000	99.966402
2299.000000	100.015063
2298.000000	100.040430
2297.000000	100.017798
2296.000000	100.090518
2295.000000	99.996661
2294.000000	100.109174
2293.000000	100.274525
2292.000000	100.066531
2291.000000	99.761987
2290.000000	100.000504
2289.000000	100.109554
2288.000000	100.138148
2287.000000	100.312940
2286.000000	99.981601
2285.000000	99.906304
2284.000000	99.797441
2283.000000	99.879256
2282.000000	99.967970
2281.000000	100.186424
2280.000000	100.121936
2279.000000	99.988471
2278.000000	100.007577
2277.000000	99.900722
2276.000000	99.864515
2275.000000	99.767416
2274.000000	99.938718
2273.000000	100.178323
2272.000000	100.069925
2271.000000	100.003841
2270.000000	99.897644
2269.000000	99.781744
2268.000000	99.834456
2267.000000	100.038460
2266.000000	100.041449
2265.000000	100.012529
2264.000000	99.841236
2263.000000	99.930046
2262.000000	99.936245
2261.000000	100.006965
2260.000000	99.937319
2259.000000	99.898058
2258.000000	100.131595
2257.000000	100.115246
2256.000000	99.982915
2255.000000	100.029413
2254.000000	100.020113
2253.000000	99.990192
2252.000000	100.006879
2251.000000	100.063826
2250.000000	100.035874
2249.000000	100.097518
2248.000000	99.984215
2247.000000	99.988978
2246.000000	100.017290
2245.000000	99.995756
2244.000000	100.039294
2243.000000	100.131247
2242.000000	100.171581
2241.000000	100.042170
2240.000000	100.077327
2239.000000	100.012439
2238.000000	99.917969
2237.000000	99.997472
2236.000000	100.056328
2235.000000	100.024769
2234.000000	99.958131
2233.000000	99.775632
2232.000000	99.840734
2231.000000	99.954438
2230.000000	99.953758
2229.000000	99.992018
2228.000000	100.139149
2227.000000	100.125882
2226.000000	99.901866
2225.000000	99.966128
2224.000000	99.937428
2223.000000	99.846455
2222.000000	99.771282
2221.000000	99.932474
2220.000000	99.967444
2219.000000	100.013549
2218.000000	100.033871
2217.000000	99.869361
2216.000000	99.866612
2215.000000	99.891583
2214.000000	100.106476
2213.000000	100.201805
2212.000000	100.103958
2211.000000	100.108919
2210.000000	100.164570
2209.000000	100.052073
2208.000000	99.918545
2207.000000	100.061174
2206.000000	100.040041
2205.000000	99.985946
2204.000000	100.044893
2203.000000	100.001414
2202.000000	99.804873
2201.000000	100.022321
2200.000000	100.071232
2199.000000	100.007775
2198.000000	100.184753
2197.000000	100.069393
2196.000000	99.929154
2195.000000	99.904611
2194.000000	99.917207
2193.000000	100.002624
2192.000000	99.984174
2191.000000	99.951885
2190.000000	99.884580
2189.000000	100.010393
2188.000000	100.022089
2187.000000	99.984882
2186.000000	99.981040
2185.000000	100.083291
2184.000000	100.005343
2183.000000	100.316426
2182.000000	100.147273
2181.000000	99.861466
2180.000000	99.882433
2179.000000	99.730401
2178.000000	99.753074
2177.000000	99.963712
2176.000000	100.300601
2175.000000	100.238994
2174.000000	100.117537
2173.000000	100.029297
2172.000000	99.820782
2171.000000	100.025366
2170.000000	100.019930
2169.000000	100.146424
2168.000000	100.201670
2167.000000	99.855186
2166.000000	100.087485
2165.000000	100.041516
2164.000000	99.978340
2163.000000	99.878623
2162.000000	100.042074
2161.000000	100.131929
2160.000000	100.134050
2159.000000	100.194794
2158.000000	100.078359
2157.000000	99.894950
2156.000000	99.975155
2155.000000	99.975598
2154.000000	100.023903
2153.000000	100.367360
2152.000000	99.702754
2151.000000	100.008244
2150.000000	99.870641
2149.000000	99.774996
2148.000000	100.002617
2147.000000	100.003819
2146.000000	100.151851
2145.000000	100.106156
2144.000000	99.980591
2143.000000	99.941274
2142.000000	100.164696
2141.000000	100.208472
2140.000000	100.014264
2139.000000	99.912370
2138.000000	100.140150
2137.000000	99.932956
2136.000000	100.064430
2135.000000	99.984423
2134.000000	100.002614
2133.000000	100.110567
2132.000000	99.756870
2131.000000	99.808490
2130.000000	100.082102
2129.000000	99.844243
2128.000000	99.871203
2127.000000	99.919283
2126.000000	99.795070
2125.000000	100.030690
2124.000000	99.953334
2123.000000	100.113969
2122.000000	99.887489
2121.000000	100.124012
2120.000000	99.861516
2119.000000	99.959495
2118.000000	99.806457
2117.000000	99.882283
2116.000000	99.899298
2115.000000	100.007951
2114.000000	99.883449
2113.000000	100.129975
2112.000000	100.013498
2111.000000	99.840314
2110.000000	99.987214
2109.000000	100.152097
2108.000000	100.003122
2107.000000	99.933554
2106.000000	100.057748
2105.000000	100.006941
2104.000000	100.079747
2103.000000	99.982059
2102.000000	99.927578
2101.000000	100.082044
2100.000000	99.991135
2099.000000	99.968449
2098.000000	99.997581
2097.000000	99.937816
2096.000000	100.043256
2095.000000	100.105736
2094.000000	100.068362
2093.000000	100.056862
2092.000000	100.087059
2091.000000	100.002722
2090.000000	100.063920
2089.000000	99.859144
2088.000000	99.951637
2087.000000	100.076357
2086.000000	99.992740
2085.000000	99.909697
2084.000000	100.018457
2083.000000	100.083654
2082.000000	100.049955
2081.000000	99.907819
2080.000000	100.002017
2079.000000	100.018673
2078.000000	100.069066
2077.000000	100.048042
2076.000000	100.093179
2075.000000	100.054495
2074.000000	99.989104
2073.000000	100.014828
2072.000000	100.013115
2071.000000	100.094483
2070.000000	99.945913
2069.000000	99.934793
2068.000000	100.099639
2067.000000	100.074436
2066.000000	99.937130
2065.000000	100.014745
2064.000000	100.131707
2063.000000	100.050695
2062.000000	100.022727
2061.000000	100.081688
2060.000000	99.982740
2059.000000	99.964660
2058.000000	99.974367
2057.000000	99.983857
2056.000000	99.913302
2055.000000	99.985055
2054.000000	99.972839
2053.000000	99.941143
2052.000000	100.017475
2051.000000	100.016463
2050.000000	100.005958
2049.000000	100.032529
2048.000000	100.040403
2047.000000	99.973124
2046.000000	99.980697
2045.000000	99.955544
2044.000000	99.939085
2043.000000	100.012929
2042.000000	100.028890
2041.000000	100.061848
2040.000000	99.993330
2039.000000	99.999191
2038.000000	100.102742
2037.000000	100.086269
2036.000000	99.997776
2035.000000	99.995249
2034.000000	100.012231
2033.000000	100.005661
2032.000000	99.992518
2031.000000	100.001921
2030.000000	99.896018
2029.000000	99.854738
2028.000000	99.951184
2027.000000	100.011930
2026.000000	100.038943
2025.000000	100.016790
2024.000000	99.997169
2023.000000	100.022661
2022.000000	100.010321
2021.000000	99.996965
2020.000000	100.004553
2019.000000	99.992512
2018.000000	99.963466
2017.000000	99.970847
2016.000000	99.969534
2015.000000	99.962451
2014.000000	100.011541
2013.000000	100.032801
2012.000000	100.061464
2011.000000	100.028251
2010.000000	99.973068
2009.000000	100.003038
2008.000000	100.020356
2007.000000	99.962135
2006.000000	99.946944
2005.000000	99.966077
2004.000000	99.995746
2003.000000	99.999190
2002.000000	100.010435
2001.000000	99.977615
2000.000000	99.950669
1999.000000	99.959881
1998.000000	99.987436
1997.000000	99.981564
1996.000000	99.919487
1995.000000	99.938514
1994.000000	100.006283
1993.000000	100.030414
1992.000000	99.998074
1991.000000	99.997771
1990.000000	100.081838
1989.000000	100.081641
1988.000000	99.971314
1987.000000	99.982361
1986.000000	99.952056
1985.000000	99.941008
1984.000000	100.000000
1983.000000	100.052432
1982.000000	99.999189
1981.000000	99.999595
1980.000000	99.996249
1979.000000	99.966948
1978.000000	99.996857
1977.000000	100.001217
1976.000000	99.994728
1975.000000	99.996045
1974.000000	100.039046
1973.000000	100.042698
1972.000000	100.043013
1971.000000	100.005577
1970.000000	99.988444
1969.000000	99.982666
1968.000000	100.033765
1967.000000	100.008415
1966.000000	99.967369
1965.000000	99.963719
1964.000000	99.962205
1963.000000	99.964832
1962.000000	99.972124
1961.000000	99.996149
1960.000000	100.011456
1959.000000	100.017133
1958.000000	100.026466
1957.000000	100.038628
1956.000000	100.034057
1955.000000	99.969095
1954.000000	100.045401
1953.000000	99.957660
1952.000000	99.942880
1951.000000	100.010842
1950.000000	100.039019
1949.000000	100.029488
1948.000000	99.980553
1947.000000	99.954640
1946.000000	99.976008
1945.000000	99.974081
1944.000000	99.955653
1943.000000	99.966594
1942.000000	99.985423
1941.000000	99.962863
1940.000000	99.984109
1939.000000	99.919096
1938.000000	99.965936
1937.000000	99.952794
1936.000000	100.016075
1935.000000	100.031369
1934.000000	99.981704
1933.000000	99.894088
1932.000000	99.886032
1931.000000	99.968269
1930.000000	100.098714
1929.000000	99.981812
1928.000000	100.043876
1927.000000	100.065198
1926.000000	100.067212
1925.000000	99.934944
1924.000000	99.955760
1923.000000	100.089349
1922.000000	99.981208
1921.000000	100.040445
1920.000000	99.937778
1919.000000	99.906169
1918.000000	100.119710
1917.000000	100.069471
1916.000000	100.030023
1915.000000	99.918367
1914.000000	99.963815
1913.000000	100.058244
1912.000000	99.963921
1911.000000	100.022848
1910.000000	100.057689
1909.000000	99.983620
1908.000000	100.021846
1907.000000	100.017807
1906.000000	100.007384
1905.000000	99.982306
1904.000000	100.049679
1903.000000	99.975714
1902.000000	99.875199
1901.000000	100.001012
1900.000000	100.046354
1899.000000	99.953980
1898.000000	100.023491
1897.000000	99.977524
1896.000000	100.007698
1895.000000	100.036365
1894.000000	100.012356
1893.000000	100.007088
1892.000000	99.930062
1891.000000	100.051861
1890.000000	100.067867
1889.000000	99.997266
1888.000000	99.974393
1887.000000	99.957102
1886.000000	100.006880
1885.000000	100.041991
1884.000000	100.025592
1883.000000	99.984117
1882.000000	99.970987
1881.000000	100.021940
1880.000000	99.995554
1879.000000	99.957557
1878.000000	99.954741
1877.000000	99.971612
1876.000000	100.080152
1875.000000	100.068409
1874.000000	100.051126
1873.000000	99.964662
1872.000000	99.911464
1871.000000	99.979297
1870.000000	100.018787
1869.000000	99.971727
1868.000000	99.970711
1867.000000	99.953218
1866.000000	100.008690
1865.000000	100.007379
1864.000000	100.010411
1863.000000	100.026990
1862.000000	99.950678
1861.000000	99.934104
1860.000000	99.964727
1859.000000	99.975130
1858.000000	100.019314
1857.000000	99.980493
1856.000000	99.961489
1855.000000	99.990903
1854.000000	99.973428
1853.000000	100.006873
1852.000000	99.995049
1851.000000	99.969890
1850.000000	99.975139
1849.000000	99.951106
1848.000000	99.981512
1847.000000	100.042049
1846.000000	99.995049
1845.000000	99.986362
1844.000000	99.983431
1843.000000	99.981814
1842.000000	99.994342
1841.000000	99.986057
1840.000000	99.980702
1839.000000	99.981706
1838.000000	99.973614
1837.000000	99.966340
1836.000000	99.993529
1835.000000	99.991808
1834.000000	99.984524
1833.000000	100.030754
1832.000000	100.028230
1831.000000	100.006881
1830.000000	99.985833
1829.000000	99.977329
1828.000000	99.964878
1827.000000	99.971760
1826.000000	99.994027
1825.000000	99.971956
1824.000000	99.989775
1823.000000	99.984815
1822.000000	99.979856
1821.000000	99.997672
1820.000000	99.980160
1819.000000	99.989472
1818.000000	100.008302
1817.000000	100.016607
1816.000000	99.999696
1815.000000	99.989974
1814.000000	99.976406
1813.000000	99.955147
1812.000000	99.953526
1811.000000	99.989872
1810.000000	100.005774
1809.000000	99.977009
1808.000000	99.975992
1807.000000	99.985816
1806.000000	99.987233
1805.000000	99.959064
1804.000000	99.972643
1803.000000	99.988146
1802.000000	99.967681
1801.000000	99.987232
1800.000000	99.997365
1799.000000	99.977703
1798.000000	99.972436
1797.000000	99.969801
1796.000000	99.951664
1795.000000	99.966151
1794.000000	99.993311
1793.000000	99.993614
1792.000000	100.000811
1791.000000	100.033667
1790.000000	99.996249
1789.000000	99.996958
1788.000000	100.012980
1787.000000	100.014098
1786.000000	100.019471
1785.000000	100.015312
1784.000000	100.008619
1783.000000	100.006590
1782.000000	99.964316
1781.000000	99.959453
1780.000000	99.971413
1779.000000	99.986819
1778.000000	99.993410
1777.000000	99.990065
1776.000000	99.993612
1775.000000	99.969382
1774.000000	99.983779
1773.000000	99.996654
1772.000000	99.976579
1771.000000	99.987024
1770.000000	99.993511
1769.000000	99.969589
1768.000000	99.969488
1767.000000	99.974252
1766.000000	99.937564
1765.000000	99.979117
1764.000000	100.016124
1763.000000	100.029104
1762.000000	99.995640
1761.000000	99.989050
1760.000000	99.994829
1759.000000	99.987832
1758.000000	99.974045
1757.000000	99.969784
1756.000000	100.016734
1755.000000	100.009936
1754.000000	99.978203
1753.000000	99.981247
1752.000000	99.970302
1751.000000	99.988748
1750.000000	99.972737
1749.000000	99.991891
1748.000000	99.999189
1747.000000	100.019668
1746.000000	100.010748
1745.000000	100.006487
1744.000000	99.991385
1743.000000	100.002839
1742.000000	100.027788
1741.000000	99.999696
1740.000000	99.965135
1739.000000	99.986621
1738.000000	99.967876
1737.000000	99.953077
1736.000000	99.985305
1735.000000	99.995338
1734.000000	100.002028
1733.000000	99.997162
1732.000000	100.018756
1731.000000	100.006386
1730.000000	99.996959
1729.000000	100.024836
1728.000000	100.003345
1727.000000	100.005880
1726.000000	100.022813
1725.000000	99.995641
1724.000000	99.966253
1723.000000	99.973249
1722.000000	99.961801
1721.000000	100.002737
1720.000000	99.935057
1719.000000	100.017134
1718.000000	100.017943
1717.000000	100.007500
1716.000000	99.990067
1715.000000	99.979629
1714.000000	100.001824
1713.000000	99.970104
1712.000000	100.004663
1711.000000	99.990272
1710.000000	100.009629
1709.000000	99.983177
1708.000000	100.021794
1707.000000	100.006992
1706.000000	99.983685
1705.000000	99.993108
1704.000000	99.964124
1703.000000	99.996656
1702.000000	100.032946
1701.000000	100.012874
1700.000000	100.032636
1699.000000	100.012665
1698.000000	100.000304
1697.000000	100.028179
1696.000000	99.983987
1695.000000	100.010440
1694.000000	100.053121
1693.000000	99.938194
1692.000000	99.990879
1691.000000	100.011147
1690.000000	99.987536
1689.000000	99.986217
1688.000000	100.012061
1687.000000	100.005068
1686.000000	100.028686
1685.000000	99.995643
1684.000000	99.981356
1683.000000	99.976897
1682.000000	99.963934
1681.000000	99.975682
1680.000000	100.014897
1679.000000	100.017028
1678.000000	99.984797
1677.000000	99.985913
1676.000000	99.990881
1675.000000	99.969805
1674.000000	99.985000
1673.000000	99.990068
1672.000000	100.002027
1671.000000	99.994527
1670.000000	99.985103
1669.000000	100.000810
1668.000000	99.992099
1667.000000	99.997872
1666.000000	99.994327
1665.000000	100.026441
1664.000000	100.008205
1663.000000	99.981666
1662.000000	99.993213
1661.000000	99.986323
1660.000000	99.975287
1659.000000	99.972244
1658.000000	99.982174
1657.000000	99.992607
1656.000000	99.986022
1655.000000	99.982377
1654.000000	100.000912
1653.000000	100.018234
1652.000000	99.993315
1651.000000	100.021981
1650.000000	100.016003
1649.000000	99.995645
1648.000000	99.991897
1647.000000	99.992708
1646.000000	99.987945
1645.000000	99.988656
1644.000000	99.991391
1643.000000	99.985821
1642.000000	100.014889
1641.000000	100.007090
1640.000000	99.989466
1639.000000	99.987442
1638.000000	100.006077
1637.000000	100.021373
1636.000000	100.005672
1635.000000	100.014283
1634.000000	100.022388
1633.000000	100.005166
1632.000000	100.000405
1631.000000	99.995340
1630.000000	99.988250
1629.000000	99.994226
1628.000000	99.987643
1627.000000	99.995138
1626.000000	99.983088
1625.000000	99.990277
1624.000000	99.989872
1623.000000	99.997366
1622.000000	99.995443
1621.000000	100.013167
1620.000000	100.010130
1619.000000	100.000405
1618.000000	99.998886
1617.000000	100.010128
1616.000000	99.991088
1615.000000	99.983796
1614.000000	100.000101
1613.000000	99.995442
1612.000000	99.991290
1611.000000	99.983087
1610.000000	99.990986
1609.000000	100.006482
1608.000000	100.002836
1607.000000	99.994835
1606.000000	100.003646
1605.000000	99.995138
1604.000000	99.975086
1603.000000	99.971847
1602.000000	99.988555
1601.000000	99.996961
1600.000000	100.001215
1599.000000	100.003545
1598.000000	100.001013
1597.000000	99.992506
1596.000000	99.971949
1595.000000	99.991493
1594.000000	100.011141
1593.000000	100.003544
1592.000000	100.001418
1591.000000	99.996860
1590.000000	99.997974
1589.000000	99.992708
1588.000000	99.985517
1587.000000	100.002431
1586.000000	100.000810
1585.000000	99.990278
1584.000000	99.993822
1583.000000	99.988152
1582.000000	100.003342
1581.000000	99.996658
1580.000000	99.987849
1579.000000	99.997874
1578.000000	100.006683
1577.000000	100.015291
1576.000000	100.004354
1575.000000	100.004050
1574.000000	100.001418
1573.000000	99.993418
1572.000000	99.977824
1571.000000	99.989266
1570.000000	99.996861
1569.000000	99.992507
1568.000000	99.995342
1567.000000	100.006986
1566.000000	99.996254
1565.000000	99.996051
1564.000000	99.997671
1563.000000	100.006683
1562.000000	100.004455
1561.000000	99.993621
1560.000000	99.994633
1559.000000	100.004556
1558.000000	100.003848
1557.000000	99.988155
1556.000000	99.979852
1555.000000	99.992710
1554.000000	99.999494
1553.000000	99.996356
1552.000000	99.982690
1551.000000	99.974389
1550.000000	99.985727
1549.000000	99.998583
1548.000000	99.979046
1547.000000	99.975808
1546.000000	99.985929
1545.000000	99.993319
1544.000000	99.996963
1543.000000	99.986437
1542.000000	100.001114
1541.000000	99.998684
1540.000000	100.001721
1539.000000	100.008605
1538.000000	99.996255
1537.000000	100.013360
1536.000000	99.983200
1535.000000	100.002429
1534.000000	100.001012
1533.000000	100.003948
1532.000000	99.998077
1531.000000	100.001012
1530.000000	100.011036
1529.000000	99.999089
1528.000000	100.003746
1527.000000	99.994533
1526.000000	100.019645
1525.000000	100.009924
1524.000000	99.979451
1523.000000	99.999899
1522.000000	99.985931
1521.000000	99.975403
1520.000000	99.999089
1519.000000	99.982083
1518.000000	99.981172
1517.000000	99.994836
1516.000000	100.001114
1515.000000	100.006987
1514.000000	99.992304
1513.000000	100.005063
1512.000000	99.990078
1511.000000	100.008607
1510.000000	99.995748
1509.000000	100.004050
1508.000000	100.007290
1507.000000	100.000203
1506.000000	100.001215
1505.000000	99.959502
1504.000000	99.975090
1503.000000	100.017926
1502.000000	99.977723
1501.000000	100.016001
1500.000000	100.010430
1499.000000	99.977929
1498.000000	99.988660
1497.000000	100.008607
1496.000000	99.992913
1495.000000	99.999392
1494.000000	100.026330
1493.000000	99.975399
1492.000000	99.959512
1491.000000	99.992407
1490.000000	100.001316
1489.000000	99.972060
1488.000000	100.014884
1487.000000	100.013870
