PE UV       SUBTECH     SPECTRUM    ASCII       PEDS        4.00        
   -1
TDgAgneauUK 52.Sample.asc
18/03/08
15:02:27.00
18/03/08
15:02:27.00
Administrator

200.000000
1
Lambda 750
750N8071901
PerkinElmer UV WinLab 6.0.4.0738 / 1.61.00 Lambda 900

0
0
3350/servo 860.8/2
0
0
UV/VIS
1
1
1
CommonBeamDepol,150mm sphere / downward view
0
0
0
0
Program
Program
3350/servo 860.8/2
3350/0.2 860.8/0.2
3350/0.2 860.8/0.2
0
1
 
 
 
0
 
860.8
319.2
860.8
Front
100
on
 
 
0
0
0
 
0
 
 
 
0
 
 
0
0
0
0
0
 
 
 
 
0
0


0
0
#HDR
-1
-1
#GR
nm
%T
1.0
0.0
2350.000000
-1.000000
2151
8
27.537450
0.029500
#DATA
2350.000000	6.971173
2349.000000	7.210769
2348.000000	6.985437
2347.000000	7.896771
2346.000000	7.312677
2345.000000	7.308276
2344.000000	6.826252
2343.000000	7.003593
2342.000000	6.884298
2341.000000	6.990825
2340.000000	7.455548
2339.000000	7.557000
2338.000000	7.458247
2337.000000	7.725685
2336.000000	8.059596
2335.000000	7.984345
2334.000000	8.022018
2333.000000	8.248498
2332.000000	8.232833
2331.000000	8.159415
2330.000000	8.002833
2329.000000	8.084295
2328.000000	7.979218
2327.000000	8.093981
2326.000000	7.820711
2325.000000	7.871432
2324.000000	7.911795
2323.000000	7.742640
2322.000000	7.751825
2321.000000	7.572042
2320.000000	7.846867
2319.000000	7.862921
2318.000000	7.838210
2317.000000	7.960207
2316.000000	7.741095
2315.000000	7.562316
2314.000000	7.613553
2313.000000	7.602379
2312.000000	7.338659
2311.000000	7.455746
2310.000000	7.537262
2309.000000	7.595091
2308.000000	7.507727
2307.000000	7.483340
2306.000000	7.395001
2305.000000	7.154120
2304.000000	7.330169
2303.000000	7.236466
2302.000000	7.050338
2301.000000	7.029834
2300.000000	6.992276
2299.000000	6.830573
2298.000000	6.996460
2297.000000	7.041780
2296.000000	7.130447
2295.000000	7.082752
2294.000000	6.873386
2293.000000	6.723750
2292.000000	6.782677
2291.000000	6.760193
2290.000000	6.709386
2289.000000	6.660952
2288.000000	6.588017
2287.000000	6.805273
2286.000000	6.656363
2285.000000	6.706500
2284.000000	6.763753
2283.000000	6.652732
2282.000000	6.560398
2281.000000	6.600052
2280.000000	6.512060
2279.000000	6.570239
2278.000000	6.744303
2277.000000	6.662423
2276.000000	6.582673
2275.000000	6.623372
2274.000000	6.648070
2273.000000	6.638915
2272.000000	6.605147
2271.000000	6.720837
2270.000000	6.772404
2269.000000	6.802890
2268.000000	6.773098
2267.000000	6.797540
2266.000000	6.948164
2265.000000	7.010479
2264.000000	7.139243
2263.000000	7.110870
2262.000000	6.949543
2261.000000	7.176013
2260.000000	7.220111
2259.000000	7.124554
2258.000000	7.295233
2257.000000	7.703724
2256.000000	7.702898
2255.000000	7.621617
2254.000000	7.613368
2253.000000	7.704282
2252.000000	7.903764
2251.000000	8.106195
2250.000000	8.252712
2249.000000	8.304877
2248.000000	8.328093
2247.000000	8.491186
2246.000000	8.715605
2245.000000	8.732080
2244.000000	8.759306
2243.000000	8.986712
2242.000000	9.021523
2241.000000	8.973135
2240.000000	9.062645
2239.000000	9.155635
2238.000000	9.158940
2237.000000	9.266870
2236.000000	9.337990
2235.000000	9.338222
2234.000000	9.285549
2233.000000	9.315022
2232.000000	9.416484
2231.000000	9.460366
2230.000000	9.625957
2229.000000	9.642550
2228.000000	9.620433
2227.000000	9.790379
2226.000000	9.781772
2225.000000	9.636127
2224.000000	9.568724
2223.000000	9.495204
2222.000000	9.419807
2221.000000	9.460928
2220.000000	9.537798
2219.000000	9.587738
2218.000000	9.651723
2217.000000	9.493785
2216.000000	9.475153
2215.000000	9.348634
2214.000000	9.356846
2213.000000	9.440378
2212.000000	9.392906
2211.000000	9.274801
2210.000000	9.204166
2209.000000	9.139529
2208.000000	9.058218
2207.000000	9.207641
2206.000000	9.082530
2205.000000	9.035088
2204.000000	9.120532
2203.000000	9.095794
2202.000000	9.014903
2201.000000	8.776211
2200.000000	8.683145
2199.000000	8.821376
2198.000000	8.888389
2197.000000	8.703789
2196.000000	8.677382
2195.000000	8.658687
2194.000000	8.514284
2193.000000	8.509009
2192.000000	8.484225
2191.000000	8.553928
2190.000000	8.463287
2189.000000	8.306358
2188.000000	8.327771
2187.000000	8.260861
2186.000000	8.369442
2185.000000	8.358320
2184.000000	8.386955
2183.000000	8.327141
2182.000000	8.094180
2181.000000	8.093106
2180.000000	8.058742
2179.000000	8.152411
2178.000000	8.250150
2177.000000	8.251609
2176.000000	8.163554
2175.000000	8.084474
2174.000000	8.222541
2173.000000	8.132618
2172.000000	8.167236
2171.000000	8.240389
2170.000000	8.235268
2169.000000	8.228164
2168.000000	8.379651
2167.000000	8.389744
2166.000000	8.303722
2165.000000	8.430463
2164.000000	8.418958
2163.000000	8.307865
2162.000000	8.413803
2161.000000	8.527660
2160.000000	8.697274
2159.000000	8.752022
2158.000000	8.982310
2157.000000	9.040989
2156.000000	8.931703
2155.000000	8.992662
2154.000000	9.244702
2153.000000	9.329569
2152.000000	9.286865
2151.000000	9.229412
2150.000000	9.437261
2149.000000	9.467133
2148.000000	9.295074
2147.000000	9.468597
2146.000000	9.666712
2145.000000	9.649126
2144.000000	9.792472
2143.000000	9.760955
2142.000000	9.809232
2141.000000	9.847155
2140.000000	9.941193
2139.000000	10.119641
2138.000000	10.353243
2137.000000	10.222049
2136.000000	10.271706
2135.000000	10.280455
2134.000000	10.323914
2133.000000	10.104655
2132.000000	10.544597
2131.000000	10.586040
2130.000000	10.740425
2129.000000	10.636656
2128.000000	10.385040
2127.000000	10.518094
2126.000000	10.625669
2125.000000	10.594003
2124.000000	10.700037
2123.000000	10.615651
2122.000000	10.684595
2121.000000	10.564691
2120.000000	10.760874
2119.000000	10.791036
2118.000000	10.782319
2117.000000	10.833672
2116.000000	10.926582
2115.000000	10.854533
2114.000000	10.901037
2113.000000	10.793491
2112.000000	10.850213
2111.000000	10.966150
2110.000000	10.959696
2109.000000	11.029877
2108.000000	10.908504
2107.000000	10.999076
2106.000000	10.923235
2105.000000	10.974315
2104.000000	11.007622
2103.000000	10.938815
2102.000000	10.968933
2101.000000	11.029058
2100.000000	11.064227
2099.000000	11.001547
2098.000000	10.973897
2097.000000	10.905621
2096.000000	10.908736
2095.000000	10.918270
2094.000000	11.006336
2093.000000	11.043430
2092.000000	11.049775
2091.000000	10.905397
2090.000000	10.960079
2089.000000	10.925905
2088.000000	10.952169
2087.000000	10.900268
2086.000000	10.901326
2085.000000	10.894647
2084.000000	10.848955
2083.000000	10.765578
2082.000000	10.756323
2081.000000	10.764477
2080.000000	10.713910
2079.000000	10.594832
2078.000000	10.522593
2077.000000	10.537173
2076.000000	10.472080
2075.000000	10.420883
2074.000000	10.389616
2073.000000	10.358278
2072.000000	10.202114
2071.000000	10.173545
2070.000000	10.194938
2069.000000	10.133267
2068.000000	10.001246
2067.000000	9.882522
2066.000000	9.771788
2065.000000	9.644436
2064.000000	9.639751
2063.000000	9.537347
2062.000000	9.441756
2061.000000	9.370889
2060.000000	9.292919
2059.000000	9.152735
2058.000000	9.086684
2057.000000	9.036447
2056.000000	9.024080
2055.000000	8.933652
2054.000000	8.821766
2053.000000	8.775401
2052.000000	8.721293
2051.000000	8.642935
2050.000000	8.609540
2049.000000	8.540248
2048.000000	8.487679
2047.000000	8.456131
2046.000000	8.452067
2045.000000	8.386367
2044.000000	8.334313
2043.000000	8.365436
2042.000000	8.406833
2041.000000	8.460927
2040.000000	8.430536
2039.000000	8.400192
2038.000000	8.434094
2037.000000	8.449712
2036.000000	8.470788
2035.000000	8.533467
2034.000000	8.589151
2033.000000	8.610264
2032.000000	8.705813
2031.000000	8.759616
2030.000000	8.757633
2029.000000	8.809847
2028.000000	8.948773
2027.000000	9.035535
2026.000000	9.109714
2025.000000	9.161245
2024.000000	9.170125
2023.000000	9.168303
2022.000000	9.201115
2021.000000	9.268980
2020.000000	9.309796
2019.000000	9.307844
2018.000000	9.325382
2017.000000	9.390711
2016.000000	9.387852
2015.000000	9.335839
2014.000000	9.319026
2013.000000	9.352800
2012.000000	9.364051
2011.000000	9.336764
2010.000000	9.288680
2009.000000	9.251552
2008.000000	9.257903
2007.000000	9.218986
2006.000000	9.155040
2005.000000	9.128594
2004.000000	9.106590
2003.000000	9.042205
2002.000000	8.973468
2001.000000	8.908689
2000.000000	8.899044
1999.000000	8.850150
1998.000000	8.786789
1997.000000	8.746673
1996.000000	8.715324
1995.000000	8.649420
1994.000000	8.598385
1993.000000	8.545417
1992.000000	8.486392
1991.000000	8.452416
1990.000000	8.430978
1989.000000	8.335791
1988.000000	8.298008
1987.000000	8.242923
1986.000000	8.142628
1985.000000	8.107405
1984.000000	8.090048
1983.000000	8.054651
1982.000000	7.961419
1981.000000	7.896211
1980.000000	7.834174
1979.000000	7.825739
1978.000000	7.730857
1977.000000	7.690697
1976.000000	7.624810
1975.000000	7.590020
1974.000000	7.527445
1973.000000	7.477034
1972.000000	7.460427
1971.000000	7.374529
1970.000000	7.359600
1969.000000	7.345251
1968.000000	7.249892
1967.000000	7.232774
1966.000000	7.237078
1965.000000	7.129279
1964.000000	7.076814
1963.000000	7.026166
1962.000000	6.957619
1961.000000	6.913817
1960.000000	6.902343
1959.000000	6.886337
1958.000000	6.879350
1957.000000	6.803379
1956.000000	6.776313
1955.000000	6.698273
1954.000000	6.723917
1953.000000	6.666226
1952.000000	6.628872
1951.000000	6.633235
1950.000000	6.645029
1949.000000	6.608291
1948.000000	6.575935
1947.000000	6.606251
1946.000000	6.565354
1945.000000	6.589071
1944.000000	6.525194
1943.000000	6.530171
1942.000000	6.564509
1941.000000	6.638778
1940.000000	6.638117
1939.000000	6.720568
1938.000000	6.739282
1937.000000	6.792862
1936.000000	6.787421
1935.000000	6.800135
1934.000000	6.895054
1933.000000	6.897136
1932.000000	7.013482
1931.000000	7.101077
1930.000000	7.147016
1929.000000	7.192816
1928.000000	7.335193
1927.000000	7.394192
1926.000000	7.467250
1925.000000	7.630078
1924.000000	7.678770
1923.000000	7.809360
1922.000000	7.941035
1921.000000	8.205905
1920.000000	8.312320
1919.000000	8.393942
1918.000000	8.568723
1917.000000	8.786720
1916.000000	8.777632
1915.000000	9.071461
1914.000000	9.297444
1913.000000	9.597356
1912.000000	9.678812
1911.000000	9.918023
1910.000000	10.095390
1909.000000	10.278380
1908.000000	10.538435
1907.000000	10.814484
1906.000000	11.044494
1905.000000	11.333205
1904.000000	11.566452
1903.000000	11.805501
1902.000000	12.089290
1901.000000	12.431495
1900.000000	12.721870
1899.000000	13.029068
1898.000000	13.331933
1897.000000	13.655578
1896.000000	13.919706
1895.000000	14.194159
1894.000000	14.395046
1893.000000	14.755925
1892.000000	15.045686
1891.000000	15.291108
1890.000000	15.617217
1889.000000	15.840451
1888.000000	16.133338
1887.000000	16.350455
1886.000000	16.653548
1885.000000	16.880933
1884.000000	17.171990
1883.000000	17.431154
1882.000000	17.570907
1881.000000	17.868566
1880.000000	18.032827
1879.000000	18.217171
1878.000000	18.407971
1877.000000	18.644516
1876.000000	18.804348
1875.000000	18.994430
1874.000000	19.103795
1873.000000	19.265555
1872.000000	19.405451
1871.000000	19.554331
1870.000000	19.634725
1869.000000	19.747766
1868.000000	19.822620
1867.000000	19.842002
1866.000000	19.915565
1865.000000	20.002452
1864.000000	20.075030
1863.000000	20.093443
1862.000000	20.131177
1861.000000	20.147885
1860.000000	20.187865
1859.000000	20.230622
1858.000000	20.241456
1857.000000	20.300569
1856.000000	20.349991
1855.000000	20.344396
1854.000000	20.371693
1853.000000	20.374307
1852.000000	20.387093
1851.000000	20.406026
1850.000000	20.386674
1849.000000	20.419348
1848.000000	20.422607
1847.000000	20.413123
1846.000000	20.421890
1845.000000	20.415591
1844.000000	20.370183
1843.000000	20.370913
1842.000000	20.377293
1841.000000	20.350714
1840.000000	20.327620
1839.000000	20.311323
1838.000000	20.309175
1837.000000	20.250548
1836.000000	20.192043
1835.000000	20.172658
1834.000000	20.143124
1833.000000	20.124486
1832.000000	20.080343
1831.000000	20.023861
1830.000000	19.996145
1829.000000	19.960103
1828.000000	19.927825
1827.000000	19.907233
1826.000000	19.893952
1825.000000	19.861840
1824.000000	19.834130
1823.000000	19.822735
1822.000000	19.785930
1821.000000	19.740756
1820.000000	19.731737
1819.000000	19.720325
1818.000000	19.701428
1817.000000	19.678794
1816.000000	19.646836
1815.000000	19.617640
1814.000000	19.590143
1813.000000	19.566903
1812.000000	19.556599
1811.000000	19.547287
1810.000000	19.516939
1809.000000	19.488041
1808.000000	19.490118
1807.000000	19.460198
1806.000000	19.418168
1805.000000	19.397909
1804.000000	19.374004
1803.000000	19.351762
1802.000000	19.336114
1801.000000	19.332833
1800.000000	19.342392
1799.000000	19.333994
1798.000000	19.284532
1797.000000	19.267121
1796.000000	19.259567
1795.000000	19.243131
1794.000000	19.237134
1793.000000	19.226094
1792.000000	19.202118
1791.000000	19.195347
1790.000000	19.192567
1789.000000	19.192686
1788.000000	19.195314
1787.000000	19.179565
1786.000000	19.155392
1785.000000	19.114288
1784.000000	19.103162
1783.000000	19.114885
1782.000000	19.085380
1781.000000	19.029812
1780.000000	19.026026
1779.000000	19.011754
1778.000000	18.992616
1777.000000	18.975657
1776.000000	18.928968
1775.000000	18.882075
1774.000000	18.833668
1773.000000	18.822306
1772.000000	18.761165
1771.000000	18.739308
1770.000000	18.718300
1769.000000	18.657904
1768.000000	18.613963
1767.000000	18.603637
1766.000000	18.578897
1765.000000	18.529423
1764.000000	18.488375
1763.000000	18.426101
1762.000000	18.374624
1761.000000	18.375526
1760.000000	18.345366
1759.000000	18.290815
1758.000000	18.260081
1757.000000	18.230436
1756.000000	18.215632
1755.000000	18.157952
1754.000000	18.138940
1753.000000	18.111887
1752.000000	18.076871
1751.000000	18.038798
1750.000000	18.008567
1749.000000	17.990134
1748.000000	17.935915
1747.000000	17.890818
1746.000000	17.838482
1745.000000	17.791649
1744.000000	17.762684
1743.000000	17.732708
1742.000000	17.706898
1741.000000	17.711542
1740.000000	17.660685
1739.000000	17.635840
1738.000000	17.599064
1737.000000	17.542151
1736.000000	17.523354
1735.000000	17.527812
1734.000000	17.516411
1733.000000	17.513278
1732.000000	17.539626
1731.000000	17.528858
1730.000000	17.537561
1729.000000	17.516176
1728.000000	17.591564
1727.000000	17.584706
1726.000000	17.623767
1725.000000	17.674958
1724.000000	17.702654
1723.000000	17.786587
1722.000000	17.837023
1721.000000	17.912943
1720.000000	17.961771
1719.000000	18.020096
1718.000000	18.054173
1717.000000	18.116854
1716.000000	18.156581
1715.000000	18.213371
1714.000000	18.277141
1713.000000	18.313046
1712.000000	18.367523
1711.000000	18.417673
1710.000000	18.469748
1709.000000	18.511445
1708.000000	18.526850
1707.000000	18.557494
1706.000000	18.575153
1705.000000	18.588837
1704.000000	18.587609
1703.000000	18.630927
1702.000000	18.637195
1701.000000	18.639345
1700.000000	18.624825
1699.000000	18.615590
1698.000000	18.657392
1697.000000	18.712480
1696.000000	18.715550
1695.000000	18.735742
1694.000000	18.752898
1693.000000	18.775580
1692.000000	18.806075
1691.000000	18.866003
1690.000000	18.897784
1689.000000	18.947402
1688.000000	18.988066
1687.000000	19.068839
1686.000000	19.145491
1685.000000	19.206580
1684.000000	19.314253
1683.000000	19.407953
1682.000000	19.497766
1681.000000	19.596892
1680.000000	19.689502
1679.000000	19.812179
1678.000000	19.875110
1677.000000	20.001057
1676.000000	20.106575
1675.000000	20.201034
1674.000000	20.300182
1673.000000	20.404607
1672.000000	20.506287
1671.000000	20.615116
1670.000000	20.720008
1669.000000	20.790883
1668.000000	20.855988
1667.000000	20.947088
1666.000000	21.000193
1665.000000	21.042464
1664.000000	21.108409
1663.000000	21.149311
1662.000000	21.218912
1661.000000	21.266720
1660.000000	21.311552
1659.000000	21.363051
1658.000000	21.410731
1657.000000	21.426887
1656.000000	21.468491
1655.000000	21.458524
1654.000000	21.470431
1653.000000	21.490119
1652.000000	21.502075
1651.000000	21.480415
1650.000000	21.476637
1649.000000	21.474966
1648.000000	21.469038
1647.000000	21.469137
1646.000000	21.465546
1645.000000	21.443877
1644.000000	21.431518
1643.000000	21.431598
1642.000000	21.423282
1641.000000	21.377758
1640.000000	21.369773
1639.000000	21.367515
1638.000000	21.330607
1637.000000	21.316751
1636.000000	21.284844
1635.000000	21.271238
1634.000000	21.251012
1633.000000	21.232471
1632.000000	21.197863
1631.000000	21.158531
1630.000000	21.131838
1629.000000	21.104091
1628.000000	21.072801
1627.000000	21.047327
1626.000000	21.020423
1625.000000	20.979856
1624.000000	20.949961
1623.000000	20.928441
1622.000000	20.896015
1621.000000	20.853639
1620.000000	20.829045
1619.000000	20.802757
1618.000000	20.767379
1617.000000	20.725599
1616.000000	20.686534
1615.000000	20.655965
1614.000000	20.627248
1613.000000	20.588047
1612.000000	20.549823
1611.000000	20.521211
1610.000000	20.500060
1609.000000	20.447921
1608.000000	20.395161
1607.000000	20.372410
1606.000000	20.327178
1605.000000	20.282513
1604.000000	20.255564
1603.000000	20.219110
1602.000000	20.176456
1601.000000	20.124580
1600.000000	20.087175
1599.000000	20.063606
1598.000000	20.015503
1597.000000	19.968452
1596.000000	19.930832
1595.000000	19.904350
1594.000000	19.870681
1593.000000	19.827008
1592.000000	19.800823
1591.000000	19.778513
1590.000000	19.747901
1589.000000	19.711322
1588.000000	19.672321
1587.000000	19.640098
1586.000000	19.624744
1585.000000	19.598760
1584.000000	19.553205
1583.000000	19.517750
1582.000000	19.489586
1581.000000	19.460067
1580.000000	19.438212
1579.000000	19.419177
1578.000000	19.390603
1577.000000	19.354331
1576.000000	19.311513
1575.000000	19.281698
1574.000000	19.259933
1573.000000	19.234090
1572.000000	19.213049
1571.000000	19.182995
1570.000000	19.137050
1569.000000	19.102838
1568.000000	19.086483
1567.000000	19.077981
1566.000000	19.043775
1565.000000	19.007891
1564.000000	19.003671
1563.000000	18.991218
1562.000000	18.971050
1561.000000	18.959981
1560.000000	18.915378
1559.000000	18.898909
1558.000000	18.891297
1557.000000	18.872336
1556.000000	18.857345
1555.000000	18.839667
1554.000000	18.827765
1553.000000	18.808209
1552.000000	18.786634
1551.000000	18.756137
1550.000000	18.727122
1549.000000	18.695746
1548.000000	18.679393
1547.000000	18.645194
1546.000000	18.596639
1545.000000	18.553836
1544.000000	18.507070
1543.000000	18.468658
1542.000000	18.415760
1541.000000	18.369071
1540.000000	18.323005
1539.000000	18.268704
1538.000000	18.212356
1537.000000	18.160192
1536.000000	18.091676
1535.000000	18.040375
1534.000000	17.996597
1533.000000	17.939472
1532.000000	17.876983
1531.000000	17.814506
1530.000000	17.762736
1529.000000	17.721873
1528.000000	17.662323
1527.000000	17.621127
1526.000000	17.562402
1525.000000	17.536883
1524.000000	17.498322
1523.000000	17.469906
1522.000000	17.412699
1521.000000	17.383217
1520.000000	17.358737
1519.000000	17.334153
1518.000000	17.319796
1517.000000	17.283572
1516.000000	17.248239
1515.000000	17.237212
1514.000000	17.197274
1513.000000	17.194382
1512.000000	17.166738
1511.000000	17.168107
1510.000000	17.179722
1509.000000	17.184445
1508.000000	17.190936
1507.000000	17.197023
1506.000000	17.166119
1505.000000	17.144857
1504.000000	17.124459
1503.000000	17.115789
1502.000000	17.101634
1501.000000	17.080477
1500.000000	17.062266
1499.000000	17.047833
1498.000000	17.072279
1497.000000	17.066594
1496.000000	17.085929
1495.000000	17.089353
1494.000000	17.114879
1493.000000	17.096745
1492.000000	17.108715
1491.000000	17.128454
1490.000000	17.149199
1489.000000	17.180846
1488.000000	17.202807
1487.000000	17.224963
1486.000000	17.241481
1485.000000	17.276976
1484.000000	17.293270
1483.000000	17.364982
1482.000000	17.353596
1481.000000	17.406737
1480.000000	17.436104
1479.000000	17.477104
1478.000000	17.504542
1477.000000	17.525934
1476.000000	17.556440
1475.000000	17.581055
1474.000000	17.619018
1473.000000	17.640736
1472.000000	17.674783
1471.000000	17.695483
1470.000000	17.720171
1469.000000	17.748346
1468.000000	17.763440
1467.000000	17.793564
1466.000000	17.840176
1465.000000	17.884626
1464.000000	17.923904
1463.000000	17.928504
1462.000000	17.945686
1461.000000	18.003696
1460.000000	18.050282
1459.000000	18.071341
1458.000000	18.077583
1457.000000	18.105093
1456.000000	18.165822
1455.000000	18.187400
1454.000000	18.223648
1453.000000	18.249530
