PE UV       SUBTECH     SPECTRUM    ASCII       PEDS        4.00        
   -1
TDgAgneauUK 32.Sample.asc
18/03/08
14:41:28.00
18/03/08
14:41:28.00
Administrator

200.000000
1
Lambda 750
750N8071901
PerkinElmer UV WinLab 6.0.4.0738 / 1.61.00 Lambda 900

0
0
3350/servo 860.8/2
0
0
UV/VIS
1
1
1
CommonBeamDepol,150mm sphere / downward view
0
0
0
0
Program
Program
3350/servo 860.8/2
3350/0.2 860.8/0.2
3350/0.2 860.8/0.2
0
1
 
 
 
0
 
860.8
319.2
860.8
Front
100
on
 
 
0
0
0
 
0
 
 
 
0
 
 
0
0
0
0
0
 
 
 
 
0
0


0
0
#HDR
-1
-1
#GR
nm
%T
1.0
0.0
2350.000000
-1.000000
2151
8
27.314379
0.033186
#DATA
2350.000000	6.629318
2349.000000	6.351400
2348.000000	6.264714
2347.000000	7.188679
2346.000000	6.870030
2345.000000	6.572154
2344.000000	6.410057
2343.000000	6.493459
2342.000000	6.764529
2341.000000	6.837310
2340.000000	6.620599
2339.000000	7.254558
2338.000000	7.162387
2337.000000	7.323113
2336.000000	7.467941
2335.000000	7.422862
2334.000000	7.326931
2333.000000	7.235433
2332.000000	7.352435
2331.000000	7.455684
2330.000000	7.441609
2329.000000	7.417564
2328.000000	7.519539
2327.000000	7.272073
2326.000000	7.340609
2325.000000	7.418112
2324.000000	7.255371
2323.000000	7.091666
2322.000000	7.355731
2321.000000	7.303691
2320.000000	6.995959
2319.000000	7.095937
2318.000000	7.207654
2317.000000	7.069584
2316.000000	7.022510
2315.000000	7.034098
2314.000000	6.815671
2313.000000	6.773666
2312.000000	6.717024
2311.000000	6.687049
2310.000000	6.939536
2309.000000	6.765508
2308.000000	6.755279
2307.000000	6.719985
2306.000000	6.705078
2305.000000	6.841795
2304.000000	6.781078
2303.000000	6.628365
2302.000000	6.622095
2301.000000	6.780912
2300.000000	6.295862
2299.000000	6.039816
2298.000000	6.055415
2297.000000	6.038494
2296.000000	6.259107
2295.000000	6.344073
2294.000000	6.302286
2293.000000	6.210649
2292.000000	6.287197
2291.000000	6.059907
2290.000000	6.122422
2289.000000	5.965420
2288.000000	6.103077
2287.000000	6.142130
2286.000000	6.000132
2285.000000	6.072017
2284.000000	6.188744
2283.000000	6.017671
2282.000000	5.975237
2281.000000	6.106222
2280.000000	6.247543
2279.000000	6.169366
2278.000000	5.938456
2277.000000	5.977663
2276.000000	5.948204
2275.000000	6.045506
2274.000000	6.329563
2273.000000	6.324734
2272.000000	6.225776
2271.000000	6.195885
2270.000000	6.096402
2269.000000	6.077567
2268.000000	6.176423
2267.000000	6.290306
2266.000000	6.268464
2265.000000	6.241844
2264.000000	6.429243
2263.000000	6.369044
2262.000000	6.411179
2261.000000	6.641236
2260.000000	6.667430
2259.000000	6.599909
2258.000000	6.785667
2257.000000	6.891252
2256.000000	6.983391
2255.000000	7.153453
2254.000000	7.124909
2253.000000	7.114918
2252.000000	7.270214
2251.000000	7.331231
2250.000000	7.440534
2249.000000	7.593703
2248.000000	7.736110
2247.000000	7.849326
2246.000000	7.968333
2245.000000	8.029775
2244.000000	8.026172
2243.000000	8.169370
2242.000000	8.278752
2241.000000	8.347875
2240.000000	8.370637
2239.000000	8.378230
2238.000000	8.420943
2237.000000	8.484323
2236.000000	8.702049
2235.000000	8.756683
2234.000000	8.689649
2233.000000	8.696785
2232.000000	8.772245
2231.000000	8.858284
2230.000000	9.016183
2229.000000	9.120827
2228.000000	9.149246
2227.000000	9.149655
2226.000000	9.019410
2225.000000	8.921664
2224.000000	8.897064
2223.000000	8.734250
2222.000000	8.801834
2221.000000	8.903884
2220.000000	8.858236
2219.000000	8.888199
2218.000000	8.750207
2217.000000	8.837089
2216.000000	8.747480
2215.000000	8.742934
2214.000000	8.758082
2213.000000	8.677635
2212.000000	8.683162
2211.000000	8.543302
2210.000000	8.631782
2209.000000	8.545838
2208.000000	8.409356
2207.000000	8.508763
2206.000000	8.489649
2205.000000	8.411821
2204.000000	8.468515
2203.000000	8.478910
2202.000000	8.340430
2201.000000	8.278024
2200.000000	8.317270
2199.000000	8.356107
2198.000000	8.240507
2197.000000	8.120902
2196.000000	8.060333
2195.000000	7.930576
2194.000000	7.902012
2193.000000	7.829431
2192.000000	7.828147
2191.000000	7.908256
2190.000000	7.906981
2189.000000	7.731331
2188.000000	7.738298
2187.000000	7.716811
2186.000000	7.638097
2185.000000	7.528510
2184.000000	7.567444
2183.000000	7.447631
2182.000000	7.515844
2181.000000	7.564419
2180.000000	7.575031
2179.000000	7.522504
2178.000000	7.520296
2177.000000	7.576840
2176.000000	7.563840
2175.000000	7.565182
2174.000000	7.684867
2173.000000	7.482417
2172.000000	7.632717
2171.000000	7.582387
2170.000000	7.643750
2169.000000	7.613550
2168.000000	7.635466
2167.000000	7.769618
2166.000000	7.788734
2165.000000	7.820214
2164.000000	7.769272
2163.000000	7.729233
2162.000000	7.783758
2161.000000	7.789095
2160.000000	8.148254
2159.000000	7.993314
2158.000000	8.259427
2157.000000	8.281451
2156.000000	8.285421
2155.000000	8.296053
2154.000000	8.285425
2153.000000	8.532479
2152.000000	8.498897
2151.000000	8.529959
2150.000000	8.536370
2149.000000	8.573541
2148.000000	8.961700
2147.000000	8.836120
2146.000000	8.868257
2145.000000	8.904901
2144.000000	8.954469
2143.000000	9.072510
2142.000000	9.164583
2141.000000	9.217358
2140.000000	9.242470
2139.000000	9.434767
2138.000000	9.511938
2137.000000	9.454176
2136.000000	9.455983
2135.000000	9.622951
2134.000000	9.742114
2133.000000	9.553078
2132.000000	9.808928
2131.000000	9.858546
2130.000000	9.930885
2129.000000	9.880212
2128.000000	9.949808
2127.000000	9.838678
2126.000000	9.688270
2125.000000	9.864290
2124.000000	9.912305
2123.000000	9.759495
2122.000000	10.029526
2121.000000	10.189517
2120.000000	10.102430
2119.000000	10.173257
2118.000000	10.175699
2117.000000	10.138466
2116.000000	10.235305
2115.000000	10.194372
2114.000000	10.192770
2113.000000	10.086521
2112.000000	10.125120
2111.000000	10.241232
2110.000000	10.122769
2109.000000	10.175582
2108.000000	10.151923
2107.000000	10.252493
2106.000000	10.181757
2105.000000	10.258897
2104.000000	10.314626
2103.000000	10.288740
2102.000000	10.153503
2101.000000	10.276229
2100.000000	10.350644
2099.000000	10.245195
2098.000000	10.263558
2097.000000	10.401560
2096.000000	10.304443
2095.000000	10.232575
2094.000000	10.299330
2093.000000	10.297255
2092.000000	10.278157
2091.000000	10.221338
2090.000000	10.096328
2089.000000	10.181306
2088.000000	10.272417
2087.000000	10.286651
2086.000000	10.228583
2085.000000	10.107735
2084.000000	10.059084
2083.000000	9.977453
2082.000000	10.155913
2081.000000	10.001953
2080.000000	9.940573
2079.000000	9.864486
2078.000000	9.875941
2077.000000	9.911043
2076.000000	9.801222
2075.000000	9.685845
2074.000000	9.674301
2073.000000	9.614074
2072.000000	9.580747
2071.000000	9.506143
2070.000000	9.487451
2069.000000	9.416273
2068.000000	9.275508
2067.000000	9.192422
2066.000000	9.097836
2065.000000	8.965374
2064.000000	8.919860
2063.000000	8.857512
2062.000000	8.808459
2061.000000	8.716913
2060.000000	8.695745
2059.000000	8.602232
2058.000000	8.545574
2057.000000	8.484868
2056.000000	8.385549
2055.000000	8.318656
2054.000000	8.230258
2053.000000	8.115315
2052.000000	8.001240
2051.000000	7.918665
2050.000000	7.810264
2049.000000	7.886135
2048.000000	7.872797
2047.000000	7.790899
2046.000000	7.761859
2045.000000	7.749356
2044.000000	7.750959
2043.000000	7.767326
2042.000000	7.759343
2041.000000	7.790271
2040.000000	7.767306
2039.000000	7.719813
2038.000000	7.719342
2037.000000	7.771258
2036.000000	7.784682
2035.000000	7.811261
2034.000000	7.909429
2033.000000	8.043198
2032.000000	8.138890
2031.000000	8.104904
2030.000000	8.134549
2029.000000	8.238102
2028.000000	8.301796
2027.000000	8.405229
2026.000000	8.459615
2025.000000	8.451577
2024.000000	8.479906
2023.000000	8.492672
2022.000000	8.567640
2021.000000	8.630967
2020.000000	8.621561
2019.000000	8.646115
2018.000000	8.699872
2017.000000	8.694403
2016.000000	8.659893
2015.000000	8.704238
2014.000000	8.706371
2013.000000	8.661879
2012.000000	8.668684
2011.000000	8.665029
2010.000000	8.651376
2009.000000	8.623030
2008.000000	8.585421
2007.000000	8.531475
2006.000000	8.481188
2005.000000	8.467845
2004.000000	8.428292
2003.000000	8.402422
2002.000000	8.355992
2001.000000	8.293147
2000.000000	8.278894
1999.000000	8.232459
1998.000000	8.156470
1997.000000	8.137382
1996.000000	8.095572
1995.000000	8.046310
1994.000000	7.988744
1993.000000	7.932490
1992.000000	7.874292
1991.000000	7.815457
1990.000000	7.764641
1989.000000	7.697736
1988.000000	7.672313
1987.000000	7.615617
1986.000000	7.551243
1985.000000	7.493930
1984.000000	7.428930
1983.000000	7.402629
1982.000000	7.359483
1981.000000	7.307654
1980.000000	7.276790
1979.000000	7.231509
1978.000000	7.183067
1977.000000	7.110959
1976.000000	7.061320
1975.000000	7.003341
1974.000000	6.918639
1973.000000	6.880725
1972.000000	6.856500
1971.000000	6.808376
1970.000000	6.779478
1969.000000	6.763793
1968.000000	6.696016
1967.000000	6.671113
1966.000000	6.663739
1965.000000	6.660547
1964.000000	6.552233
1963.000000	6.506425
1962.000000	6.430676
1961.000000	6.361789
1960.000000	6.325233
1959.000000	6.289723
1958.000000	6.282189
1957.000000	6.248888
1956.000000	6.172104
1955.000000	6.162891
1954.000000	6.202222
1953.000000	6.139215
1952.000000	6.177795
1951.000000	6.118444
1950.000000	6.076991
1949.000000	6.004452
1948.000000	6.024205
1947.000000	5.987188
1946.000000	6.028153
1945.000000	6.054756
1944.000000	5.967075
1943.000000	5.999427
1942.000000	6.069153
1941.000000	6.075460
1940.000000	6.096292
1939.000000	6.146677
1938.000000	6.175647
1937.000000	6.165807
1936.000000	6.178947
1935.000000	6.250641
1934.000000	6.371275
1933.000000	6.388297
1932.000000	6.466722
1931.000000	6.521023
1930.000000	6.591893
1929.000000	6.673698
1928.000000	6.796166
1927.000000	6.823871
1926.000000	6.907270
1925.000000	7.051301
1924.000000	7.153734
1923.000000	7.216015
1922.000000	7.413376
1921.000000	7.602014
1920.000000	7.668942
1919.000000	7.780790
1918.000000	8.002288
1917.000000	8.216085
1916.000000	8.191652
1915.000000	8.486136
1914.000000	8.638782
1913.000000	8.933773
1912.000000	9.077206
1911.000000	9.274354
1910.000000	9.477748
1909.000000	9.700807
1908.000000	9.853008
1907.000000	10.130617
1906.000000	10.356559
1905.000000	10.695872
1904.000000	10.975246
1903.000000	11.197908
1902.000000	11.441160
1901.000000	11.784664
1900.000000	11.994030
1899.000000	12.264364
1898.000000	12.676422
1897.000000	12.936548
1896.000000	13.188110
1895.000000	13.496442
1894.000000	13.818213
1893.000000	14.102176
1892.000000	14.382918
1891.000000	14.660272
1890.000000	14.935002
1889.000000	15.246951
1888.000000	15.571927
1887.000000	15.775403
1886.000000	16.059978
1885.000000	16.320994
1884.000000	16.514742
1883.000000	16.767377
1882.000000	17.010298
1881.000000	17.237786
1880.000000	17.454724
1879.000000	17.713152
1878.000000	17.827452
1877.000000	18.070078
1876.000000	18.288240
1875.000000	18.465530
1874.000000	18.580952
1873.000000	18.693638
1872.000000	18.764491
1871.000000	18.894133
1870.000000	19.055402
1869.000000	19.176938
1868.000000	19.297351
1867.000000	19.339721
1866.000000	19.401907
1865.000000	19.466581
1864.000000	19.505618
1863.000000	19.567344
1862.000000	19.588998
1861.000000	19.631797
1860.000000	19.693580
1859.000000	19.729931
1858.000000	19.761626
1857.000000	19.766893
1856.000000	19.783671
1855.000000	19.812061
1854.000000	19.819453
1853.000000	19.858784
1852.000000	19.854944
1851.000000	19.871456
1850.000000	19.856038
1849.000000	19.889563
1848.000000	19.918543
1847.000000	19.948803
1846.000000	19.925072
1845.000000	19.926273
1844.000000	19.879254
1843.000000	19.850739
1842.000000	19.832686
1841.000000	19.797030
1840.000000	19.755375
1839.000000	19.758835
1838.000000	19.768200
1837.000000	19.739861
1836.000000	19.682530
1835.000000	19.653102
1834.000000	19.650426
1833.000000	19.613658
1832.000000	19.572794
1831.000000	19.542389
1830.000000	19.488969
1829.000000	19.458351
1828.000000	19.441855
1827.000000	19.410120
1826.000000	19.402581
1825.000000	19.359829
1824.000000	19.312361
1823.000000	19.275304
1822.000000	19.261723
1821.000000	19.250117
1820.000000	19.200168
1819.000000	19.169201
1818.000000	19.153529
1817.000000	19.138268
1816.000000	19.140198
1815.000000	19.112122
1814.000000	19.082929
1813.000000	19.061563
1812.000000	19.039034
1811.000000	19.013099
1810.000000	18.969410
1809.000000	18.948660
1808.000000	18.933330
1807.000000	18.916655
1806.000000	18.902484
1805.000000	18.878865
1804.000000	18.847815
1803.000000	18.840541
1802.000000	18.814124
1801.000000	18.798502
1800.000000	18.790301
1799.000000	18.772430
1798.000000	18.765058
1797.000000	18.748271
1796.000000	18.749701
1795.000000	18.713071
1794.000000	18.701760
1793.000000	18.705505
1792.000000	18.680987
1791.000000	18.675077
1790.000000	18.677517
1789.000000	18.654164
1788.000000	18.641569
1787.000000	18.617620
1786.000000	18.595203
1785.000000	18.592897
1784.000000	18.593727
1783.000000	18.573998
1782.000000	18.571506
1781.000000	18.552041
1780.000000	18.528724
1779.000000	18.514427
1778.000000	18.460295
1777.000000	18.432493
1776.000000	18.409841
1775.000000	18.355886
1774.000000	18.313755
1773.000000	18.295196
1772.000000	18.268155
1771.000000	18.225292
1770.000000	18.176103
1769.000000	18.136417
1768.000000	18.105862
1767.000000	18.053345
1766.000000	18.026443
1765.000000	17.996321
1764.000000	17.963867
1763.000000	17.908574
1762.000000	17.857935
1761.000000	17.843185
1760.000000	17.794723
1759.000000	17.752359
1758.000000	17.711887
1757.000000	17.704388
1756.000000	17.683687
1755.000000	17.656393
1754.000000	17.606755
1753.000000	17.563122
1752.000000	17.540956
1751.000000	17.495947
1750.000000	17.460923
1749.000000	17.437518
1748.000000	17.380445
1747.000000	17.332779
1746.000000	17.322992
1745.000000	17.291031
1744.000000	17.246057
1743.000000	17.226919
1742.000000	17.193843
1741.000000	17.167199
1740.000000	17.105037
1739.000000	17.089094
1738.000000	17.063466
1737.000000	17.015660
1736.000000	17.010521
1735.000000	16.964801
1734.000000	16.945395
1733.000000	16.962429
1732.000000	16.956535
1731.000000	16.989836
1730.000000	16.983963
1729.000000	17.014860
1728.000000	17.038090
1727.000000	17.037056
1726.000000	17.082503
1725.000000	17.140256
1724.000000	17.206194
1723.000000	17.219347
1722.000000	17.278762
1721.000000	17.343300
1720.000000	17.413561
1719.000000	17.471546
1718.000000	17.541428
1717.000000	17.574038
1716.000000	17.636746
1715.000000	17.688323
1714.000000	17.718224
1713.000000	17.777681
1712.000000	17.836598
1711.000000	17.881446
1710.000000	17.916401
1709.000000	17.931774
1708.000000	17.997224
1707.000000	18.007275
1706.000000	18.033924
1705.000000	18.082388
1704.000000	18.112148
1703.000000	18.050941
1702.000000	18.096913
1701.000000	18.102743
1700.000000	18.141767
1699.000000	18.093785
1698.000000	18.155488
1697.000000	18.172447
1696.000000	18.204622
1695.000000	18.168463
1694.000000	18.211515
1693.000000	18.237374
1692.000000	18.245736
1691.000000	18.297368
1690.000000	18.362467
1689.000000	18.398203
1688.000000	18.456856
1687.000000	18.555392
1686.000000	18.616620
1685.000000	18.709904
1684.000000	18.792065
1683.000000	18.891967
1682.000000	18.976520
1681.000000	19.083501
1680.000000	19.176884
1679.000000	19.273791
1678.000000	19.394827
1677.000000	19.505141
1676.000000	19.621284
1675.000000	19.733324
1674.000000	19.835329
1673.000000	19.940247
1672.000000	20.044898
1671.000000	20.165319
1670.000000	20.257015
1669.000000	20.343160
1668.000000	20.410436
1667.000000	20.507227
1666.000000	20.570319
1665.000000	20.606181
1664.000000	20.663281
1663.000000	20.710481
1662.000000	20.785989
1661.000000	20.823168
1660.000000	20.865878
1659.000000	20.918993
1658.000000	20.930400
1657.000000	20.945019
1656.000000	20.994568
1655.000000	21.007790
1654.000000	21.041807
1653.000000	21.062434
1652.000000	21.074377
1651.000000	21.036841
1650.000000	21.039744
1649.000000	21.032403
1648.000000	21.031739
1647.000000	21.033625
1646.000000	21.013735
1645.000000	20.991243
1644.000000	20.977190
1643.000000	20.958469
1642.000000	20.950595
1641.000000	20.930419
1640.000000	20.913785
1639.000000	20.904409
1638.000000	20.899252
1637.000000	20.880923
1636.000000	20.842716
1635.000000	20.823002
1634.000000	20.801529
1633.000000	20.762759
1632.000000	20.733527
1631.000000	20.707415
1630.000000	20.682830
1629.000000	20.662532
1628.000000	20.625259
1627.000000	20.577771
1626.000000	20.552512
1625.000000	20.525850
1624.000000	20.494255
1623.000000	20.465379
1622.000000	20.445254
1621.000000	20.425733
1620.000000	20.393844
1619.000000	20.330983
1618.000000	20.280490
1617.000000	20.254905
1616.000000	20.235645
1615.000000	20.197637
1614.000000	20.158996
1613.000000	20.110437
1612.000000	20.076416
1611.000000	20.044963
1610.000000	20.008514
1609.000000	19.968993
1608.000000	19.922187
1607.000000	19.878173
1606.000000	19.844934
1605.000000	19.803870
1604.000000	19.754147
1603.000000	19.707650
1602.000000	19.679131
1601.000000	19.637821
1600.000000	19.593185
1599.000000	19.566951
1598.000000	19.533656
1597.000000	19.499697
1596.000000	19.464431
1595.000000	19.429249
1594.000000	19.385074
1593.000000	19.351667
1592.000000	19.320813
1591.000000	19.286364
1590.000000	19.257155
1589.000000	19.214343
1588.000000	19.173052
1587.000000	19.150015
1586.000000	19.124078
1585.000000	19.083596
1584.000000	19.042917
1583.000000	19.021400
1582.000000	18.996135
1581.000000	18.968545
1580.000000	18.928917
1579.000000	18.892596
1578.000000	18.870294
1577.000000	18.846019
1576.000000	18.815325
1575.000000	18.774632
1574.000000	18.732155
1573.000000	18.713374
1572.000000	18.694326
1571.000000	18.657868
1570.000000	18.632927
1569.000000	18.604708
1568.000000	18.571909
1567.000000	18.538079
1566.000000	18.516713
1565.000000	18.502646
1564.000000	18.487023
1563.000000	18.461628
1562.000000	18.445391
1561.000000	18.435736
1560.000000	18.400773
1559.000000	18.388967
1558.000000	18.368866
1557.000000	18.347269
1556.000000	18.327524
1555.000000	18.312733
1554.000000	18.281288
1553.000000	18.271461
1552.000000	18.264774
1551.000000	18.232775
1550.000000	18.201452
1549.000000	18.173021
1548.000000	18.146572
1547.000000	18.120146
1546.000000	18.077451
1545.000000	18.046488
1544.000000	17.987546
1543.000000	17.928010
1542.000000	17.877127
1541.000000	17.828765
1540.000000	17.783215
1539.000000	17.707198
1538.000000	17.643803
1537.000000	17.602975
1536.000000	17.551581
1535.000000	17.487128
1534.000000	17.419215
1533.000000	17.381494
1532.000000	17.325312
1531.000000	17.261553
1530.000000	17.198785
1529.000000	17.152224
1528.000000	17.121620
1527.000000	17.064710
1526.000000	17.007290
1525.000000	16.962922
1524.000000	16.918315
1523.000000	16.877174
1522.000000	16.856132
1521.000000	16.818174
1520.000000	16.798853
1519.000000	16.765359
1518.000000	16.754473
1517.000000	16.722152
1516.000000	16.682813
1515.000000	16.671270
1514.000000	16.645274
1513.000000	16.622377
1512.000000	16.597665
1511.000000	16.581184
1510.000000	16.611225
1509.000000	16.613225
1508.000000	16.629070
1507.000000	16.622367
1506.000000	16.606642
1505.000000	16.583035
1504.000000	16.562614
1503.000000	16.542750
1502.000000	16.525594
1501.000000	16.527037
1500.000000	16.507005
1499.000000	16.490378
1498.000000	16.497099
1497.000000	16.490772
1496.000000	16.525874
1495.000000	16.525512
1494.000000	16.522522
1493.000000	16.535822
1492.000000	16.546720
1491.000000	16.590213
1490.000000	16.591708
1489.000000	16.627854
1488.000000	16.637775
1487.000000	16.670881
1486.000000	16.704369
1485.000000	16.733825
1484.000000	16.754949
1483.000000	16.809234
1482.000000	16.803552
1481.000000	16.866101
1480.000000	16.901726
1479.000000	16.927766
1478.000000	16.948485
1477.000000	16.975125
1476.000000	17.004601
1475.000000	17.036309
1474.000000	17.066904
1473.000000	17.108945
1472.000000	17.118414
1471.000000	17.163388
1470.000000	17.179868
1469.000000	17.199157
1468.000000	17.236514
1467.000000	17.263862
1466.000000	17.317289
1465.000000	17.347149
1464.000000	17.365222
1463.000000	17.366605
1462.000000	17.394998
1461.000000	17.475782
1460.000000	17.514548
1459.000000	17.542647
1458.000000	17.549301
1457.000000	17.576480
1456.000000	17.637354
1455.000000	17.671237
1454.000000	17.719167
1453.000000	17.739749
1452.000000	17.786312
1451.000000	17.852333
