PE UV       SUBTECH     SPECTRUM    ASCII       PEDS        4.00        
   -1
TDgChevreUK 12.Sample.asc
18/03/08
15:13:47.00
18/03/08
15:13:47.00
Administrator

200.000000
1
Lambda 750
750N8071901
PerkinElmer UV WinLab 6.0.4.0738 / 1.61.00 Lambda 900

0
0
3350/servo 860.8/2
0
0
UV/VIS
1
1
1
CommonBeamDepol,150mm sphere / downward view
0
0
0
0
Program
Program
3350/servo 860.8/2
3350/0.2 860.8/0.2
3350/0.2 860.8/0.2
0
1
 
 
 
0
 
860.8
319.2
860.8
Front
100
on
 
 
0
0
0
 
0
 
 
 
0
 
 
0
0
0
0
0
 
 
 
 
0
0


0
0
#HDR
-1
-1
#GR
nm
%T
1.0
0.0
2350.000000
-1.000000
2151
8
36.373180
0.057355
#DATA
2350.000000	6.827404
2349.000000	6.596329
2348.000000	6.803135
2347.000000	7.238564
2346.000000	6.923666
2345.000000	6.580540
2344.000000	6.547645
2343.000000	6.585208
2342.000000	6.730989
2341.000000	6.835185
2340.000000	6.574236
2339.000000	7.018898
2338.000000	6.826702
2337.000000	7.172515
2336.000000	7.474202
2335.000000	7.698850
2334.000000	7.343722
2333.000000	7.640153
2332.000000	7.549616
2331.000000	7.691172
2330.000000	7.443733
2329.000000	7.570343
2328.000000	7.482688
2327.000000	7.288645
2326.000000	7.438853
2325.000000	7.564305
2324.000000	7.260547
2323.000000	7.237172
2322.000000	7.085243
2321.000000	7.172659
2320.000000	7.153426
2319.000000	7.141982
2318.000000	7.265096
2317.000000	7.051253
2316.000000	6.996316
2315.000000	6.899109
2314.000000	6.641188
2313.000000	6.806061
2312.000000	6.769561
2311.000000	6.855141
2310.000000	6.983230
2309.000000	6.990781
2308.000000	6.824708
2307.000000	6.738242
2306.000000	6.560605
2305.000000	6.643834
2304.000000	6.531150
2303.000000	6.560110
2302.000000	6.507099
2301.000000	6.301513
2300.000000	6.377847
2299.000000	6.353745
2298.000000	6.324864
2297.000000	6.232210
2296.000000	6.267027
2295.000000	6.172875
2294.000000	5.957009
2293.000000	5.798165
2292.000000	6.036215
2291.000000	5.907807
2290.000000	5.936126
2289.000000	5.922253
2288.000000	5.966346
2287.000000	5.934607
2286.000000	5.903141
2285.000000	5.864541
2284.000000	5.746329
2283.000000	5.941102
2282.000000	5.982234
2281.000000	5.990576
2280.000000	5.979572
2279.000000	5.910443
2278.000000	5.962700
2277.000000	5.901241
2276.000000	6.045347
2275.000000	6.094455
2274.000000	6.178809
2273.000000	6.275511
2272.000000	6.177443
2271.000000	6.104713
2270.000000	6.125114
2269.000000	6.093600
2268.000000	6.158072
2267.000000	6.441259
2266.000000	6.423070
2265.000000	6.467436
2264.000000	6.605678
2263.000000	6.589453
2262.000000	6.618164
2261.000000	6.900838
2260.000000	7.038248
2259.000000	7.014822
2258.000000	7.235111
2257.000000	7.185544
2256.000000	7.160099
2255.000000	7.243453
2254.000000	7.404898
2253.000000	7.420387
2252.000000	7.358781
2251.000000	7.602499
2250.000000	7.917618
2249.000000	8.030091
2248.000000	8.046172
2247.000000	8.073018
2246.000000	8.234086
2245.000000	8.394917
2244.000000	8.504290
2243.000000	8.693479
2242.000000	8.796775
2241.000000	8.872607
2240.000000	8.935746
2239.000000	9.040825
2238.000000	9.076174
2237.000000	9.140436
2236.000000	9.282179
2235.000000	9.242517
2234.000000	9.256941
2233.000000	9.303467
2232.000000	9.340364
2231.000000	9.413358
2230.000000	9.460871
2229.000000	9.476280
2228.000000	9.537658
2227.000000	9.561448
2226.000000	9.438451
2225.000000	9.426533
2224.000000	9.414903
2223.000000	9.387365
2222.000000	9.429239
2221.000000	9.323621
2220.000000	9.449812
2219.000000	9.456043
2218.000000	9.179452
2217.000000	9.175175
2216.000000	9.211549
2215.000000	9.218233
2214.000000	9.260971
2213.000000	9.150785
2212.000000	9.077363
2211.000000	9.033028
2210.000000	9.043509
2209.000000	8.949232
2208.000000	8.863722
2207.000000	8.963084
2206.000000	8.875473
2205.000000	8.775655
2204.000000	8.689505
2203.000000	8.508822
2202.000000	8.612936
2201.000000	8.557305
2200.000000	8.553083
2199.000000	8.660988
2198.000000	8.525798
2197.000000	8.417766
2196.000000	8.373467
2195.000000	8.319077
2194.000000	8.240250
2193.000000	8.237988
2192.000000	8.268133
2191.000000	8.073829
2190.000000	8.056767
2189.000000	8.032429
2188.000000	8.016525
2187.000000	7.983982
2186.000000	8.014544
2185.000000	7.936028
2184.000000	7.674046
2183.000000	7.751517
2182.000000	7.971435
2181.000000	7.862608
2180.000000	7.827714
2179.000000	7.675913
2178.000000	7.575078
2177.000000	7.711591
2176.000000	7.659123
2175.000000	7.690480
2174.000000	7.896436
2173.000000	7.765548
2172.000000	7.714523
2171.000000	8.021729
2170.000000	8.017218
2169.000000	8.149344
2168.000000	8.167662
2167.000000	8.095703
2166.000000	8.150538
2165.000000	8.254115
2164.000000	8.112748
2163.000000	8.209357
2162.000000	8.401070
2161.000000	8.496229
2160.000000	8.440761
2159.000000	8.431279
2158.000000	8.564828
2157.000000	8.668588
2156.000000	8.676318
2155.000000	8.827336
2154.000000	8.995477
2153.000000	9.102045
2152.000000	9.017955
2151.000000	9.122432
2150.000000	9.192618
2149.000000	9.229917
2148.000000	9.409291
2147.000000	9.408293
2146.000000	9.552143
2145.000000	9.383612
2144.000000	9.682487
2143.000000	9.825191
2142.000000	9.755084
2141.000000	9.989106
2140.000000	9.953297
2139.000000	10.089491
2138.000000	10.065312
2137.000000	10.164718
2136.000000	10.179017
2135.000000	10.293694
2134.000000	10.407633
2133.000000	10.277602
2132.000000	10.590615
2131.000000	10.564154
2130.000000	10.695551
2129.000000	10.750591
2128.000000	10.725639
2127.000000	10.590849
2126.000000	10.810345
2125.000000	10.710155
2124.000000	10.625351
2123.000000	10.823706
2122.000000	10.857135
2121.000000	10.981697
2120.000000	10.855240
2119.000000	10.898475
2118.000000	10.953275
2117.000000	10.996449
2116.000000	10.992090
2115.000000	10.903513
2114.000000	10.936663
2113.000000	10.972329
2112.000000	11.166222
2111.000000	10.932832
2110.000000	11.036920
2109.000000	11.095615
2108.000000	11.036000
2107.000000	11.024451
2106.000000	11.064791
2105.000000	11.081632
2104.000000	10.985701
2103.000000	11.134454
2102.000000	11.112571
2101.000000	11.206729
2100.000000	11.192241
2099.000000	11.185855
2098.000000	11.088562
2097.000000	11.140857
2096.000000	11.067952
2095.000000	11.149430
2094.000000	11.112538
2093.000000	11.107501
2092.000000	11.163216
2091.000000	11.132338
2090.000000	11.155100
2089.000000	11.045421
2088.000000	11.033359
2087.000000	11.099413
2086.000000	10.983345
2085.000000	10.942364
2084.000000	10.822357
2083.000000	10.818100
2082.000000	10.842689
2081.000000	10.753450
2080.000000	10.692563
2079.000000	10.652009
2078.000000	10.598783
2077.000000	10.573189
2076.000000	10.509935
2075.000000	10.440416
2074.000000	10.254502
2073.000000	10.241474
2072.000000	10.176717
2071.000000	10.115963
2070.000000	9.958233
2069.000000	9.808069
2068.000000	9.830418
2067.000000	9.761985
2066.000000	9.661284
2065.000000	9.526184
2064.000000	9.419632
2063.000000	9.348189
2062.000000	9.245743
2061.000000	9.162248
2060.000000	9.077928
2059.000000	8.941361
2058.000000	8.841240
2057.000000	8.826389
2056.000000	8.753967
2055.000000	8.749518
2054.000000	8.661330
2053.000000	8.514224
2052.000000	8.355592
2051.000000	8.241508
2050.000000	8.240083
2049.000000	8.166368
2048.000000	8.107434
2047.000000	8.027924
2046.000000	7.969023
2045.000000	8.020162
2044.000000	8.075258
2043.000000	8.061365
2042.000000	8.044494
2041.000000	8.051622
2040.000000	8.100340
2039.000000	8.068567
2038.000000	8.093697
2037.000000	8.117327
2036.000000	8.105999
2035.000000	8.163950
2034.000000	8.250913
2033.000000	8.369641
2032.000000	8.418041
2031.000000	8.400518
2030.000000	8.485819
2029.000000	8.620786
2028.000000	8.685926
2027.000000	8.739398
2026.000000	8.830521
2025.000000	8.869423
2024.000000	8.884604
2023.000000	8.903427
2022.000000	8.903857
2021.000000	8.956821
2020.000000	9.020419
2019.000000	9.034120
2018.000000	9.071868
2017.000000	9.081940
2016.000000	9.043158
2015.000000	9.042324
2014.000000	9.061520
2013.000000	9.019416
2012.000000	8.995916
2011.000000	8.967086
2010.000000	8.929061
2009.000000	8.896067
2008.000000	8.828815
2007.000000	8.741821
2006.000000	8.680652
2005.000000	8.626810
2004.000000	8.589308
2003.000000	8.536434
2002.000000	8.527711
2001.000000	8.486507
2000.000000	8.426132
1999.000000	8.376214
1998.000000	8.292082
1997.000000	8.220287
1996.000000	8.162007
1995.000000	8.092039
1994.000000	8.025024
1993.000000	7.978426
1992.000000	7.864639
1991.000000	7.781414
1990.000000	7.747662
1989.000000	7.705565
1988.000000	7.605626
1987.000000	7.521470
1986.000000	7.514332
1985.000000	7.504703
1984.000000	7.454444
1983.000000	7.358503
1982.000000	7.294816
1981.000000	7.268708
1980.000000	7.190178
1979.000000	7.111036
1978.000000	7.067817
1977.000000	7.046104
1976.000000	6.958627
1975.000000	6.864145
1974.000000	6.830011
1973.000000	6.789032
1972.000000	6.765505
1971.000000	6.666253
1970.000000	6.634194
1969.000000	6.569296
1968.000000	6.532160
1967.000000	6.524115
1966.000000	6.460427
1965.000000	6.415761
1964.000000	6.328531
1963.000000	6.300970
1962.000000	6.279700
1961.000000	6.201192
1960.000000	6.171832
1959.000000	6.135256
1958.000000	6.102247
1957.000000	6.034958
1956.000000	6.005703
1955.000000	6.025184
1954.000000	5.995535
1953.000000	5.985390
1952.000000	5.938589
1951.000000	5.954029
1950.000000	5.886968
1949.000000	5.890553
1948.000000	5.897376
1947.000000	5.847462
1946.000000	5.885143
1945.000000	5.917495
1944.000000	5.894975
1943.000000	5.957695
1942.000000	5.946913
1941.000000	5.974302
1940.000000	5.998747
1939.000000	6.065084
1938.000000	6.046529
1937.000000	6.110341
1936.000000	6.209502
1935.000000	6.201830
1934.000000	6.272667
1933.000000	6.419148
1932.000000	6.453134
1931.000000	6.453091
1930.000000	6.536715
1929.000000	6.593482
1928.000000	6.792108
1927.000000	6.848619
1926.000000	6.954932
1925.000000	7.106674
1924.000000	7.207231
1923.000000	7.374031
1922.000000	7.481893
1921.000000	7.729645
1920.000000	7.986476
1919.000000	8.052998
1918.000000	8.269281
1917.000000	8.461526
1916.000000	8.570786
1915.000000	8.908426
1914.000000	9.091397
1913.000000	9.250905
1912.000000	9.555957
1911.000000	9.748412
1910.000000	10.037673
1909.000000	10.330767
1908.000000	10.588220
1907.000000	10.935597
1906.000000	11.172746
1905.000000	11.536823
1904.000000	11.894009
1903.000000	12.230177
1902.000000	12.542778
1901.000000	13.012193
1900.000000	13.347645
1899.000000	13.682514
1898.000000	14.084248
1897.000000	14.464689
1896.000000	14.799062
1895.000000	15.215516
1894.000000	15.597128
1893.000000	16.063118
1892.000000	16.467122
1891.000000	16.772026
1890.000000	17.174968
1889.000000	17.533349
1888.000000	17.853503
1887.000000	18.225005
1886.000000	18.607300
1885.000000	18.966126
1884.000000	19.324826
1883.000000	19.710522
1882.000000	20.042456
1881.000000	20.334206
1880.000000	20.678901
1879.000000	20.923654
1878.000000	21.185301
1877.000000	21.520458
1876.000000	21.762671
1875.000000	22.001900
1874.000000	22.210664
1873.000000	22.453803
1872.000000	22.605490
1871.000000	22.786342
1870.000000	22.967279
1869.000000	23.126957
1868.000000	23.326643
1867.000000	23.419863
1866.000000	23.537719
1865.000000	23.631947
1864.000000	23.647863
1863.000000	23.710468
1862.000000	23.814451
1861.000000	23.858385
1860.000000	23.911722
1859.000000	24.033435
1858.000000	24.066718
1857.000000	24.136411
1856.000000	24.183343
1855.000000	24.209099
1854.000000	24.255413
1853.000000	24.282591
1852.000000	24.275862
1851.000000	24.264788
1850.000000	24.254734
1849.000000	24.289499
1848.000000	24.267845
1847.000000	24.275185
1846.000000	24.244151
1845.000000	24.253838
1844.000000	24.261327
1843.000000	24.218700
1842.000000	24.171510
1841.000000	24.123140
1840.000000	24.071178
1839.000000	24.070191
1838.000000	24.048959
1837.000000	23.971251
1836.000000	23.916004
1835.000000	23.879415
1834.000000	23.839578
1833.000000	23.790170
1832.000000	23.738307
1831.000000	23.700023
1830.000000	23.664264
1829.000000	23.591999
1828.000000	23.523396
1827.000000	23.493241
1826.000000	23.444675
1825.000000	23.385158
1824.000000	23.365411
1823.000000	23.321539
1822.000000	23.282033
1821.000000	23.253232
1820.000000	23.202679
1819.000000	23.146291
1818.000000	23.132555
1817.000000	23.112656
1816.000000	23.078588
1815.000000	23.048130
1814.000000	22.993253
1813.000000	22.942074
1812.000000	22.919908
1811.000000	22.877196
1810.000000	22.842658
1809.000000	22.809598
1808.000000	22.788250
1807.000000	22.763043
1806.000000	22.706772
1805.000000	22.651872
1804.000000	22.625390
1803.000000	22.599763
1802.000000	22.561901
1801.000000	22.522858
1800.000000	22.501408
1799.000000	22.494292
1798.000000	22.475722
1797.000000	22.448257
1796.000000	22.405905
1795.000000	22.382211
1794.000000	22.371977
1793.000000	22.361937
1792.000000	22.341725
1791.000000	22.324497
1790.000000	22.287138
1789.000000	22.259430
1788.000000	22.249103
1787.000000	22.229773
1786.000000	22.230484
1785.000000	22.212307
1784.000000	22.164352
1783.000000	22.125626
1782.000000	22.097732
1781.000000	22.064445
1780.000000	22.043096
1779.000000	22.026336
1778.000000	21.980900
1777.000000	21.936411
1776.000000	21.867332
1775.000000	21.815937
1774.000000	21.769639
1773.000000	21.697701
1772.000000	21.603455
1771.000000	21.561412
1770.000000	21.550540
1769.000000	21.465210
1768.000000	21.389352
1767.000000	21.355603
1766.000000	21.299161
1765.000000	21.242122
1764.000000	21.191468
1763.000000	21.126129
1762.000000	21.081753
1761.000000	21.025428
1760.000000	20.970201
1759.000000	20.916168
1758.000000	20.895156
1757.000000	20.830367
1756.000000	20.786059
1755.000000	20.722404
1754.000000	20.691942
1753.000000	20.630144
1752.000000	20.584960
1751.000000	20.539352
1750.000000	20.496460
1749.000000	20.451981
1748.000000	20.356713
1747.000000	20.296448
1746.000000	20.237693
1745.000000	20.193229
1744.000000	20.133367
1743.000000	20.082749
1742.000000	20.026629
1741.000000	19.954935
1740.000000	19.900366
1739.000000	19.863919
1738.000000	19.817026
1737.000000	19.776633
1736.000000	19.739801
1735.000000	19.715687
1734.000000	19.709356
1733.000000	19.673253
1732.000000	19.678781
1731.000000	19.694612
1730.000000	19.682080
1729.000000	19.718612
1728.000000	19.784814
1727.000000	19.814263
1726.000000	19.851358
1725.000000	19.915477
1724.000000	19.972319
1723.000000	20.056663
1722.000000	20.148965
1721.000000	20.245713
1720.000000	20.341515
1719.000000	20.421006
1718.000000	20.506236
1717.000000	20.574935
1716.000000	20.673893
1715.000000	20.758986
1714.000000	20.842934
1713.000000	20.912897
1712.000000	20.967645
1711.000000	21.049801
1710.000000	21.092171
1709.000000	21.154237
1708.000000	21.211998
1707.000000	21.252369
1706.000000	21.290755
1705.000000	21.313249
1704.000000	21.353945
1703.000000	21.366673
1702.000000	21.369616
1701.000000	21.391201
1700.000000	21.448340
1699.000000	21.441593
1698.000000	21.478103
1697.000000	21.513496
1696.000000	21.549299
1695.000000	21.588095
1694.000000	21.626142
1693.000000	21.677803
1692.000000	21.729882
1691.000000	21.816217
1690.000000	21.882143
1689.000000	21.961638
1688.000000	22.050280
1687.000000	22.183997
1686.000000	22.303371
1685.000000	22.432226
1684.000000	22.573228
1683.000000	22.718717
1682.000000	22.884796
1681.000000	23.062331
1680.000000	23.222920
1679.000000	23.387504
1678.000000	23.568124
1677.000000	23.729785
1676.000000	23.902072
1675.000000	24.092387
1674.000000	24.261391
1673.000000	24.435128
1672.000000	24.596463
1671.000000	24.748997
1670.000000	24.932086
1669.000000	25.085104
1668.000000	25.185105
1667.000000	25.315213
1666.000000	25.412648
1665.000000	25.496953
1664.000000	25.612838
1663.000000	25.684942
1662.000000	25.776187
1661.000000	25.849379
1660.000000	25.918917
1659.000000	25.987391
1658.000000	26.030013
1657.000000	26.068047
1656.000000	26.107734
1655.000000	26.148553
1654.000000	26.173508
1653.000000	26.179512
1652.000000	26.193343
1651.000000	26.164356
1650.000000	26.184310
1649.000000	26.164242
1648.000000	26.146845
1647.000000	26.139053
1646.000000	26.123355
1645.000000	26.102095
1644.000000	26.094064
1643.000000	26.045135
1642.000000	26.019304
1641.000000	25.978953
1640.000000	25.960644
1639.000000	25.916281
1638.000000	25.896879
1637.000000	25.871453
1636.000000	25.829181
1635.000000	25.768738
1634.000000	25.708955
1633.000000	25.650834
1632.000000	25.611238
1631.000000	25.572939
1630.000000	25.517975
1629.000000	25.486452
1628.000000	25.418758
1627.000000	25.372790
1626.000000	25.324977
1625.000000	25.274674
1624.000000	25.218759
1623.000000	25.163576
1622.000000	25.112563
1621.000000	25.044320
1620.000000	24.996621
1619.000000	24.937967
1618.000000	24.869667
1617.000000	24.825204
1616.000000	24.764650
1615.000000	24.698216
1614.000000	24.628162
1613.000000	24.551472
1612.000000	24.495964
1611.000000	24.439281
1610.000000	24.381427
1609.000000	24.304442
1608.000000	24.231773
1607.000000	24.175138
1606.000000	24.089736
1605.000000	24.019528
1604.000000	23.967428
1603.000000	23.893909
1602.000000	23.832277
1601.000000	23.764559
1600.000000	23.705841
1599.000000	23.652565
1598.000000	23.580745
1597.000000	23.497166
1596.000000	23.438693
1595.000000	23.383444
1594.000000	23.325286
1593.000000	23.284811
1592.000000	23.229370
1591.000000	23.158937
1590.000000	23.106310
1589.000000	23.049369
1588.000000	22.981007
1587.000000	22.927535
1586.000000	22.881819
1585.000000	22.828410
1584.000000	22.778701
1583.000000	22.740673
1582.000000	22.684625
1581.000000	22.632258
1580.000000	22.583466
1579.000000	22.543006
1578.000000	22.495492
1577.000000	22.436705
1576.000000	22.385542
1575.000000	22.330389
1574.000000	22.268145
1573.000000	22.231735
1572.000000	22.189889
1571.000000	22.136710
1570.000000	22.087431
1569.000000	22.030570
1568.000000	21.993737
1567.000000	21.959595
1566.000000	21.917224
1565.000000	21.870982
1564.000000	21.832493
1563.000000	21.814686
1562.000000	21.797621
1561.000000	21.760696
1560.000000	21.722704
1559.000000	21.676418
1558.000000	21.651934
1557.000000	21.622283
1556.000000	21.595211
1555.000000	21.554970
1554.000000	21.524003
1553.000000	21.484738
1552.000000	21.458485
1551.000000	21.414885
1550.000000	21.367046
1549.000000	21.322572
1548.000000	21.274545
1547.000000	21.220569
1546.000000	21.154196
1545.000000	21.083263
1544.000000	21.000398
1543.000000	20.945647
1542.000000	20.882302
1541.000000	20.787297
1540.000000	20.712604
1539.000000	20.634261
1538.000000	20.549624
1537.000000	20.462770
1536.000000	20.369214
1535.000000	20.273872
1534.000000	20.177895
1533.000000	20.129142
1532.000000	20.033305
1531.000000	19.959305
1530.000000	19.875167
1529.000000	19.803340
1528.000000	19.722255
1527.000000	19.656888
1526.000000	19.593547
1525.000000	19.532037
1524.000000	19.486758
1523.000000	19.427232
1522.000000	19.373225
1521.000000	19.315836
1520.000000	19.265429
1519.000000	19.238358
1518.000000	19.188095
1517.000000	19.154092
1516.000000	19.126291
1515.000000	19.087262
1514.000000	19.047019
1513.000000	19.025895
1512.000000	19.008306
1511.000000	18.962994
1510.000000	18.961390
1509.000000	18.941882
1508.000000	18.911979
1507.000000	18.892858
1506.000000	18.864769
1505.000000	18.871156
1504.000000	18.876735
1503.000000	18.857864
1502.000000	18.874247
1501.000000	18.868087
1500.000000	18.852975
1499.000000	18.848163
1498.000000	18.843525
1497.000000	18.845247
1496.000000	18.841965
1495.000000	18.852997
1494.000000	18.849901
1493.000000	18.851726
1492.000000	18.866181
1491.000000	18.897743
1490.000000	18.914690
1489.000000	18.936813
1488.000000	18.957819
1487.000000	18.989980
1486.000000	19.018518
1485.000000	19.062064
1484.000000	19.079890
1483.000000	19.136107
1482.000000	19.112661
1481.000000	19.184387
1480.000000	19.205316
1479.000000	19.235474
1478.000000	19.277064
1477.000000	19.298228
1476.000000	19.340249
1475.000000	19.377994
1474.000000	19.411586
1473.000000	19.437088
1472.000000	19.476459
1471.000000	19.511836
1470.000000	19.554643
1469.000000	19.618633
1468.000000	19.656660
1467.000000	19.687964
1466.000000	19.712458
1465.000000	19.757927
1464.000000	19.803771
1463.000000	19.827654
1462.000000	19.852189
1461.000000	19.915111
1460.000000	19.971086
1459.000000	20.011715
1458.000000	20.039583
1457.000000	20.062524
1456.000000	20.135219
1455.000000	20.189131
1454.000000	20.219857
1453.000000	20.277188
