PE UV       SUBTECH     SPECTRUM    ASCII       PEDS        4.00        
   -1
TDgChevreUK 22.Sample.asc
18/03/08
15:25:08.00
18/03/08
15:25:08.00
Administrator

200.000000
1
Lambda 750
750N8071901
PerkinElmer UV WinLab 6.0.4.0738 / 1.61.00 Lambda 900

0
0
3350/servo 860.8/2
0
0
UV/VIS
1
1
1
CommonBeamDepol,150mm sphere / downward view
0
0
0
0
Program
Program
3350/servo 860.8/2
3350/0.2 860.8/0.2
3350/0.2 860.8/0.2
0
1
 
 
 
0
 
860.8
319.2
860.8
Front
100
on
 
 
0
0
0
 
0
 
 
 
0
 
 
0
0
0
0
0
 
 
 
 
0
0


0
0
#HDR
-1
-1
#GR
nm
%T
1.0
0.0
2350.000000
-1.000000
2151
8
36.873601
0.078430
#DATA
2350.000000	7.405811
2349.000000	7.715052
2348.000000	7.540624
2347.000000	7.865202
2346.000000	7.958634
2345.000000	7.502965
2344.000000	7.346847
2343.000000	7.365633
2342.000000	7.592882
2341.000000	7.616115
2340.000000	7.739083
2339.000000	8.027814
2338.000000	8.063611
2337.000000	8.196683
2336.000000	8.100998
2335.000000	8.258310
2334.000000	8.067939
2333.000000	8.826916
2332.000000	8.717557
2331.000000	8.376391
2330.000000	8.183938
2329.000000	8.036975
2328.000000	8.373474
2327.000000	8.205030
2326.000000	8.167193
2325.000000	8.348642
2324.000000	8.111320
2323.000000	8.139714
2322.000000	8.099218
2321.000000	8.128622
2320.000000	8.105000
2319.000000	8.056918
2318.000000	7.900911
2317.000000	8.219980
2316.000000	7.881474
2315.000000	8.087296
2314.000000	7.992595
2313.000000	7.663526
2312.000000	7.601748
2311.000000	7.834462
2310.000000	7.705448
2309.000000	7.581517
2308.000000	7.566701
2307.000000	7.612561
2306.000000	7.762216
2305.000000	7.516239
2304.000000	7.390650
2303.000000	7.422365
2302.000000	7.262076
2301.000000	7.254027
2300.000000	7.032506
2299.000000	7.246440
2298.000000	7.202349
2297.000000	7.046042
2296.000000	7.194927
2295.000000	7.293223
2294.000000	7.127096
2293.000000	7.110726
2292.000000	6.988283
2291.000000	6.819191
2290.000000	6.799797
2289.000000	6.880231
2288.000000	7.050574
2287.000000	6.943926
2286.000000	6.670248
2285.000000	6.823611
2284.000000	6.801593
2283.000000	6.677275
2282.000000	6.789087
2281.000000	6.918586
2280.000000	6.819648
2279.000000	6.856069
2278.000000	6.874756
2277.000000	6.969531
2276.000000	6.878663
2275.000000	6.716609
2274.000000	6.762502
2273.000000	7.073927
2272.000000	7.111076
2271.000000	6.962849
2270.000000	7.091788
2269.000000	7.079502
2268.000000	7.046545
2267.000000	7.188718
2266.000000	7.303435
2265.000000	7.237591
2264.000000	7.413123
2263.000000	7.345574
2262.000000	7.466855
2261.000000	7.674081
2260.000000	7.679885
2259.000000	7.747988
2258.000000	7.944205
2257.000000	8.067708
2256.000000	8.023164
2255.000000	8.150965
2254.000000	8.255111
2253.000000	8.355936
2252.000000	8.629934
2251.000000	8.832179
2250.000000	8.970062
2249.000000	9.031480
2248.000000	9.060985
2247.000000	9.151003
2246.000000	9.242244
2245.000000	9.424653
2244.000000	9.461842
2243.000000	9.615156
2242.000000	9.798761
2241.000000	9.741384
2240.000000	9.870089
2239.000000	9.947341
2238.000000	10.001714
2237.000000	10.087367
2236.000000	10.078146
2235.000000	10.056165
2234.000000	10.176254
2233.000000	10.317238
2232.000000	10.399062
2231.000000	10.453298
2230.000000	10.458785
2229.000000	10.457679
2228.000000	10.469179
2227.000000	10.530754
2226.000000	10.457975
2225.000000	10.337307
2224.000000	10.272426
2223.000000	10.237104
2222.000000	10.315782
2221.000000	10.470895
2220.000000	10.497031
2219.000000	10.343443
2218.000000	10.189243
2217.000000	10.148959
2216.000000	10.147389
2215.000000	10.239251
2214.000000	10.299179
2213.000000	10.333813
2212.000000	10.142283
2211.000000	10.054007
2210.000000	10.008768
2209.000000	9.991914
2208.000000	9.970800
2207.000000	9.944151
2206.000000	9.846573
2205.000000	9.731101
2204.000000	9.558760
2203.000000	9.552171
2202.000000	9.617498
2201.000000	9.468182
2200.000000	9.540702
2199.000000	9.537252
2198.000000	9.600907
2197.000000	9.505119
2196.000000	9.371220
2195.000000	9.190119
2194.000000	9.186608
2193.000000	9.198614
2192.000000	9.063003
2191.000000	8.872406
2190.000000	8.895632
2189.000000	8.973336
2188.000000	8.938514
2187.000000	8.811484
2186.000000	8.797687
2185.000000	8.778184
2184.000000	8.832093
2183.000000	8.790249
2182.000000	8.791520
2181.000000	8.657409
2180.000000	8.765587
2179.000000	8.663471
2178.000000	8.720547
2177.000000	8.713528
2176.000000	8.707636
2175.000000	8.680219
2174.000000	8.728545
2173.000000	8.779486
2172.000000	8.686587
2171.000000	8.867775
2170.000000	8.909085
2169.000000	8.845706
2168.000000	9.047116
2167.000000	9.035949
2166.000000	8.723992
2165.000000	8.949407
2164.000000	8.924528
2163.000000	9.064438
2162.000000	9.071737
2161.000000	9.219837
2160.000000	9.445681
2159.000000	9.604508
2158.000000	9.530116
2157.000000	9.573151
2156.000000	9.769296
2155.000000	10.036061
2154.000000	9.907249
2153.000000	10.005675
2152.000000	10.390645
2151.000000	10.106022
2150.000000	10.136183
2149.000000	10.146303
2148.000000	10.172917
2147.000000	10.434354
2146.000000	10.453580
2145.000000	10.489719
2144.000000	10.730369
2143.000000	10.819388
2142.000000	10.865229
2141.000000	11.029209
2140.000000	10.969053
2139.000000	10.948408
2138.000000	11.004645
2137.000000	11.140958
2136.000000	11.210812
2135.000000	11.241143
2134.000000	11.297612
2133.000000	11.233292
2132.000000	11.656679
2131.000000	11.589888
2130.000000	11.768585
2129.000000	11.662273
2128.000000	11.877481
2127.000000	11.778239
2126.000000	11.688841
2125.000000	11.795995
2124.000000	11.899953
2123.000000	11.802675
2122.000000	11.965387
2121.000000	11.981218
2120.000000	11.871872
2119.000000	12.028512
2118.000000	12.103744
2117.000000	11.991979
2116.000000	12.051752
2115.000000	11.979241
2114.000000	12.068800
2113.000000	12.053738
2112.000000	12.126173
2111.000000	12.001531
2110.000000	12.036986
2109.000000	12.086342
2108.000000	12.095497
2107.000000	12.106060
2106.000000	12.049010
2105.000000	11.894758
2104.000000	12.078028
2103.000000	12.056363
2102.000000	12.159176
2101.000000	12.249815
2100.000000	12.291282
2099.000000	12.221704
2098.000000	12.117820
2097.000000	12.175388
2096.000000	12.234661
2095.000000	12.193741
2094.000000	12.179521
2093.000000	12.115930
2092.000000	12.196526
2091.000000	12.178753
2090.000000	12.030068
2089.000000	11.937544
2088.000000	12.001573
2087.000000	12.000874
2086.000000	12.057893
2085.000000	12.032051
2084.000000	11.942943
2083.000000	11.894739
2082.000000	11.868454
2081.000000	11.723476
2080.000000	11.703749
2079.000000	11.693843
2078.000000	11.633973
2077.000000	11.583252
2076.000000	11.509845
2075.000000	11.438076
2074.000000	11.398622
2073.000000	11.354089
2072.000000	11.279210
2071.000000	11.158506
2070.000000	11.101704
2069.000000	10.958257
2068.000000	10.902975
2067.000000	10.755150
2066.000000	10.657133
2065.000000	10.534914
2064.000000	10.453399
2063.000000	10.361255
2062.000000	10.221862
2061.000000	10.160380
2060.000000	10.079566
2059.000000	10.038519
2058.000000	9.955761
2057.000000	9.808112
2056.000000	9.774990
2055.000000	9.689230
2054.000000	9.553250
2053.000000	9.428797
2052.000000	9.367882
2051.000000	9.332065
2050.000000	9.263687
2049.000000	9.179157
2048.000000	9.122131
2047.000000	9.123798
2046.000000	9.073863
2045.000000	9.018922
2044.000000	9.000742
2043.000000	8.958277
2042.000000	8.983921
2041.000000	9.012916
2040.000000	9.015726
2039.000000	8.985097
2038.000000	9.017979
2037.000000	9.095323
2036.000000	9.084645
2035.000000	9.151256
2034.000000	9.252641
2033.000000	9.346434
2032.000000	9.416167
2031.000000	9.443839
2030.000000	9.479834
2029.000000	9.496550
2028.000000	9.607615
2027.000000	9.689979
2026.000000	9.755756
2025.000000	9.843212
2024.000000	9.875862
2023.000000	9.917687
2022.000000	9.953088
2021.000000	9.979731
2020.000000	9.971549
2019.000000	9.976576
2018.000000	10.030489
2017.000000	10.014545
2016.000000	9.985384
2015.000000	9.988152
2014.000000	9.968017
2013.000000	9.970549
2012.000000	9.968678
2011.000000	9.964230
2010.000000	9.910958
2009.000000	9.858344
2008.000000	9.796498
2007.000000	9.707424
2006.000000	9.637552
2005.000000	9.622555
2004.000000	9.589130
2003.000000	9.541778
2002.000000	9.465965
2001.000000	9.357390
2000.000000	9.310986
1999.000000	9.277251
1998.000000	9.194745
1997.000000	9.154390
1996.000000	9.067610
1995.000000	9.024801
1994.000000	8.929170
1993.000000	8.877136
1992.000000	8.810326
1991.000000	8.727605
1990.000000	8.651802
1989.000000	8.576675
1988.000000	8.518500
1987.000000	8.492015
1986.000000	8.442286
1985.000000	8.375114
1984.000000	8.285923
1983.000000	8.200143
1982.000000	8.185925
1981.000000	8.085652
1980.000000	8.064833
1979.000000	8.023070
1978.000000	7.940013
1977.000000	7.879572
1976.000000	7.801524
1975.000000	7.709593
1974.000000	7.658353
1973.000000	7.606339
1972.000000	7.608257
1971.000000	7.569516
1970.000000	7.487500
1969.000000	7.418721
1968.000000	7.381525
1967.000000	7.360456
1966.000000	7.317487
1965.000000	7.258076
1964.000000	7.201681
1963.000000	7.173138
1962.000000	7.133605
1961.000000	7.041990
1960.000000	6.987532
1959.000000	6.960876
1958.000000	6.896124
1957.000000	6.902772
1956.000000	6.884673
1955.000000	6.874803
1954.000000	6.795759
1953.000000	6.795871
1952.000000	6.830277
1951.000000	6.806898
1950.000000	6.733131
1949.000000	6.733265
1948.000000	6.725935
1947.000000	6.737034
1946.000000	6.659103
1945.000000	6.718815
1944.000000	6.677011
1943.000000	6.702787
1942.000000	6.755179
1941.000000	6.736385
1940.000000	6.847620
1939.000000	6.870460
1938.000000	6.845680
1937.000000	6.933605
1936.000000	6.969638
1935.000000	7.010293
1934.000000	7.127473
1933.000000	7.131766
1932.000000	7.187894
1931.000000	7.363374
1930.000000	7.498570
1929.000000	7.597240
1928.000000	7.669625
1927.000000	7.755270
1926.000000	7.850576
1925.000000	7.951361
1924.000000	8.163379
1923.000000	8.397737
1922.000000	8.565692
1921.000000	8.794083
1920.000000	8.818569
1919.000000	8.845392
1918.000000	9.138605
1917.000000	9.412584
1916.000000	9.476003
1915.000000	9.789099
1914.000000	10.087899
1913.000000	10.342606
1912.000000	10.536874
1911.000000	10.847689
1910.000000	11.011659
1909.000000	11.315683
1908.000000	11.539807
1907.000000	11.922651
1906.000000	12.252437
1905.000000	12.572463
1904.000000	12.984615
1903.000000	13.301200
1902.000000	13.662044
1901.000000	14.042031
1900.000000	14.438491
1899.000000	14.797217
1898.000000	15.231088
1897.000000	15.689312
1896.000000	16.036757
1895.000000	16.401585
1894.000000	16.807432
1893.000000	17.193326
1892.000000	17.514907
1891.000000	17.970260
1890.000000	18.372372
1889.000000	18.794954
1888.000000	19.167963
1887.000000	19.498234
1886.000000	19.881976
1885.000000	20.236207
1884.000000	20.596430
1883.000000	20.906374
1882.000000	21.257753
1881.000000	21.539198
1880.000000	21.867146
1879.000000	22.168855
1878.000000	22.417688
1877.000000	22.753351
1876.000000	22.974659
1875.000000	23.257444
1874.000000	23.507236
1873.000000	23.702092
1872.000000	23.889639
1871.000000	24.063082
1870.000000	24.225062
1869.000000	24.422563
1868.000000	24.536058
1867.000000	24.576182
1866.000000	24.725314
1865.000000	24.854885
1864.000000	24.940414
1863.000000	25.008944
1862.000000	25.052343
1861.000000	25.104575
1860.000000	25.185534
1859.000000	25.264079
1858.000000	25.310384
1857.000000	25.337715
1856.000000	25.354305
1855.000000	25.400772
1854.000000	25.471152
1853.000000	25.484430
1852.000000	25.510377
1851.000000	25.500565
1850.000000	25.501632
1849.000000	25.522993
1848.000000	25.526992
1847.000000	25.484342
1846.000000	25.478391
1845.000000	25.464822
1844.000000	25.479527
1843.000000	25.440683
1842.000000	25.428040
1841.000000	25.400949
1840.000000	25.349128
1839.000000	25.347269
1838.000000	25.309241
1837.000000	25.236561
1836.000000	25.173209
1835.000000	25.120611
1834.000000	25.060167
1833.000000	25.018490
1832.000000	24.982420
1831.000000	24.926121
1830.000000	24.886801
1829.000000	24.830094
1828.000000	24.776773
1827.000000	24.738965
1826.000000	24.695836
1825.000000	24.660081
1824.000000	24.636335
1823.000000	24.625951
1822.000000	24.562086
1821.000000	24.506694
1820.000000	24.463048
1819.000000	24.427880
1818.000000	24.399611
1817.000000	24.372731
1816.000000	24.336345
1815.000000	24.303185
1814.000000	24.278669
1813.000000	24.226362
1812.000000	24.182673
1811.000000	24.148292
1810.000000	24.112298
1809.000000	24.071913
1808.000000	24.035101
1807.000000	24.008638
1806.000000	23.963243
1805.000000	23.917811
1804.000000	23.891090
1803.000000	23.862971
1802.000000	23.834952
1801.000000	23.806372
1800.000000	23.783519
1799.000000	23.753184
1798.000000	23.716339
1797.000000	23.686501
1796.000000	23.676704
1795.000000	23.661555
1794.000000	23.646031
1793.000000	23.631979
1792.000000	23.621209
1791.000000	23.597240
1790.000000	23.565299
1789.000000	23.542259
1788.000000	23.530357
1787.000000	23.514494
1786.000000	23.491343
1785.000000	23.462463
1784.000000	23.425578
1783.000000	23.384408
1782.000000	23.355565
1781.000000	23.331282
1780.000000	23.312746
1779.000000	23.274283
1778.000000	23.221696
1777.000000	23.179993
1776.000000	23.134987
1775.000000	23.082533
1774.000000	23.018510
1773.000000	22.982914
1772.000000	22.930189
1771.000000	22.850826
1770.000000	22.816310
1769.000000	22.757080
1768.000000	22.662502
1767.000000	22.619005
1766.000000	22.568116
1765.000000	22.535521
1764.000000	22.486923
1763.000000	22.420047
1762.000000	22.362594
1761.000000	22.315988
1760.000000	22.259273
1759.000000	22.199247
1758.000000	22.159390
1757.000000	22.099921
1756.000000	22.046862
1755.000000	22.008495
1754.000000	21.951406
1753.000000	21.924054
1752.000000	21.881061
1751.000000	21.807226
1750.000000	21.771684
1749.000000	21.722327
1748.000000	21.645520
1747.000000	21.571967
1746.000000	21.540610
1745.000000	21.442230
1744.000000	21.400321
1743.000000	21.363341
1742.000000	21.298586
1741.000000	21.232935
1740.000000	21.182872
1739.000000	21.147831
1738.000000	21.092962
1737.000000	21.039071
1736.000000	21.014360
1735.000000	21.000058
1734.000000	20.989490
1733.000000	20.958805
1732.000000	20.968314
1731.000000	20.983729
1730.000000	20.981607
1729.000000	21.028949
1728.000000	21.035064
1727.000000	21.081771
1726.000000	21.146812
1725.000000	21.221565
1724.000000	21.292486
1723.000000	21.347036
1722.000000	21.437816
1721.000000	21.526139
1720.000000	21.599011
1719.000000	21.725223
1718.000000	21.808844
1717.000000	21.886970
1716.000000	21.958124
1715.000000	22.069014
1714.000000	22.153553
1713.000000	22.198281
1712.000000	22.281994
1711.000000	22.376337
1710.000000	22.417112
1709.000000	22.453108
1708.000000	22.511047
1707.000000	22.530012
1706.000000	22.583889
1705.000000	22.615008
1704.000000	22.663597
1703.000000	22.666940
1702.000000	22.679450
1701.000000	22.705100
1700.000000	22.744086
1699.000000	22.745598
1698.000000	22.781408
1697.000000	22.817526
1696.000000	22.829620
1695.000000	22.871283
1694.000000	22.929934
1693.000000	22.963985
1692.000000	23.014157
1691.000000	23.125786
1690.000000	23.198221
1689.000000	23.287504
1688.000000	23.384560
1687.000000	23.498988
1686.000000	23.592971
1685.000000	23.755338
1684.000000	23.891862
1683.000000	24.024079
1682.000000	24.197010
1681.000000	24.339912
1680.000000	24.495618
1679.000000	24.688584
1678.000000	24.862569
1677.000000	25.004244
1676.000000	25.200552
1675.000000	25.365374
1674.000000	25.534550
1673.000000	25.696464
1672.000000	25.863605
1671.000000	26.018779
1670.000000	26.156059
1669.000000	26.331331
1668.000000	26.460998
1667.000000	26.597099
1666.000000	26.682351
1665.000000	26.762609
1664.000000	26.854318
1663.000000	26.924011
1662.000000	26.994672
1661.000000	27.062568
1660.000000	27.158775
1659.000000	27.225955
1658.000000	27.259952
1657.000000	27.294667
1656.000000	27.343653
1655.000000	27.363075
1654.000000	27.378899
1653.000000	27.419381
1652.000000	27.427459
1651.000000	27.400897
1650.000000	27.397246
1649.000000	27.392567
1648.000000	27.372991
1647.000000	27.358304
1646.000000	27.352603
1645.000000	27.347423
1644.000000	27.325482
1643.000000	27.283376
1642.000000	27.251865
1641.000000	27.224754
1640.000000	27.196221
1639.000000	27.163864
1638.000000	27.131806
1637.000000	27.102725
1636.000000	27.048361
1635.000000	26.991403
1634.000000	26.950597
1633.000000	26.921353
1632.000000	26.887781
1631.000000	26.834315
1630.000000	26.786863
1629.000000	26.732879
1628.000000	26.676937
1627.000000	26.625109
1626.000000	26.575110
1625.000000	26.525551
1624.000000	26.475429
1623.000000	26.430925
1622.000000	26.371381
1621.000000	26.316153
1620.000000	26.273974
1619.000000	26.212966
1618.000000	26.151714
1617.000000	26.096984
1616.000000	26.045182
1615.000000	25.975764
1614.000000	25.912527
1613.000000	25.840136
1612.000000	25.779039
1611.000000	25.723464
1610.000000	25.654794
1609.000000	25.589542
1608.000000	25.520972
1607.000000	25.450807
1606.000000	25.395563
1605.000000	25.325741
1604.000000	25.248194
1603.000000	25.181246
1602.000000	25.120648
1601.000000	25.051612
1600.000000	24.988468
1599.000000	24.935149
1598.000000	24.873900
1597.000000	24.801655
1596.000000	24.733790
1595.000000	24.687863
1594.000000	24.624267
1593.000000	24.568333
1592.000000	24.520980
1591.000000	24.461141
1590.000000	24.413543
1589.000000	24.347487
1588.000000	24.290078
1587.000000	24.239503
1586.000000	24.188449
1585.000000	24.144307
1584.000000	24.090842
1583.000000	24.033154
1582.000000	23.978486
1581.000000	23.940343
1580.000000	23.894285
1579.000000	23.847064
1578.000000	23.800430
1577.000000	23.735316
1576.000000	23.679592
1575.000000	23.634925
1574.000000	23.590535
1573.000000	23.545763
1572.000000	23.501677
1571.000000	23.449224
1570.000000	23.409952
1569.000000	23.363657
1568.000000	23.311966
1567.000000	23.270148
1566.000000	23.227769
1565.000000	23.186347
1564.000000	23.159103
1563.000000	23.142014
1562.000000	23.111819
1561.000000	23.072172
1560.000000	23.043596
1559.000000	23.021299
1558.000000	22.992541
1557.000000	22.952113
1556.000000	22.917885
1555.000000	22.892972
1554.000000	22.842167
1553.000000	22.812595
1552.000000	22.779940
1551.000000	22.734155
1550.000000	22.697923
1549.000000	22.653043
1548.000000	22.599336
1547.000000	22.558781
1546.000000	22.477298
1545.000000	22.424748
1544.000000	22.356176
1543.000000	22.266904
1542.000000	22.189641
1541.000000	22.121052
1540.000000	22.038670
1539.000000	21.957442
1538.000000	21.882203
1537.000000	21.787783
1536.000000	21.680062
1535.000000	21.600283
1534.000000	21.520076
1533.000000	21.452449
1532.000000	21.362983
1531.000000	21.264319
1530.000000	21.195284
1529.000000	21.133062
1528.000000	21.054208
1527.000000	20.981463
1526.000000	20.924862
1525.000000	20.859804
1524.000000	20.801346
1523.000000	20.736787
1522.000000	20.683153
1521.000000	20.638737
1520.000000	20.604520
1519.000000	20.567575
1518.000000	20.522043
1517.000000	20.477715
1516.000000	20.445923
1515.000000	20.407523
1514.000000	20.363856
1513.000000	20.334569
1512.000000	20.321723
1511.000000	20.292710
1510.000000	20.282836
1509.000000	20.254246
1508.000000	20.218327
1507.000000	20.216354
1506.000000	20.221454
1505.000000	20.213494
1504.000000	20.243510
1503.000000	20.218793
1502.000000	20.211300
1501.000000	20.180884
1500.000000	20.157488
1499.000000	20.164261
1498.000000	20.161270
1497.000000	20.145570
1496.000000	20.152009
1495.000000	20.161179
1494.000000	20.160156
1493.000000	20.170298
1492.000000	20.190601
1491.000000	20.229027
1490.000000	20.239975
1489.000000	20.263791
1488.000000	20.291392
1487.000000	20.316484
1486.000000	20.345051
1485.000000	20.379942
1484.000000	20.417318
1483.000000	20.469883
1482.000000	20.482695
1481.000000	20.535518
1480.000000	20.580750
1479.000000	20.616181
1478.000000	20.639903
1477.000000	20.656831
1476.000000	20.687419
1475.000000	20.728032
1474.000000	20.759134
1473.000000	20.810769
1472.000000	20.841141
1471.000000	20.871106
1470.000000	20.911542
1469.000000	20.943285
1468.000000	20.978900
1467.000000	21.010137
1466.000000	21.069466
1465.000000	21.109689
1464.000000	21.137644
1463.000000	21.149072
1462.000000	21.216224
1461.000000	21.291404
1460.000000	21.322451
1459.000000	21.357003
1458.000000	21.387640
1457.000000	21.450539
1456.000000	21.506293
