PE UV       SUBTECH     SPECTRUM    ASCII       PEDS        4.00        
   -1
TDgVeauUK 52.Sample.asc
18/03/08
17:37:18.00
18/03/08
17:37:18.00
Administrator

200.000000
1
Lambda 750
750N8071901
PerkinElmer UV WinLab 6.0.4.0738 / 1.61.00 Lambda 900

0
0
3350/servo 860.8/2
0
0
UV/VIS
1
1
1
CommonBeamDepol,150mm sphere / downward view
0
0
0
0
Program
Program
3350/servo 860.8/2
3350/0.2 860.8/0.2
3350/0.2 860.8/0.2
0
1
 
 
 
0
 
860.8
319.2
860.8
Front
100
on
 
 
0
0
0
 
0
 
 
 
0
 
 
0
0
0
0
0
 
 
 
 
0
0


0
0
#HDR
-1
-1
#GR
nm
%T
1.0
0.0
2350.000000
-1.000000
2151
8
42.701760
0.071022
#DATA
2350.000000	7.804969
2349.000000	7.998121
2348.000000	7.773371
2347.000000	8.560725
2346.000000	8.324300
2345.000000	7.572872
2344.000000	7.468093
2343.000000	7.240047
2342.000000	7.638640
2341.000000	7.530071
2340.000000	7.768911
2339.000000	8.241439
2338.000000	8.273284
2337.000000	8.512046
2336.000000	8.225804
2335.000000	8.152305
2334.000000	8.431220
2333.000000	8.680899
2332.000000	8.503704
2331.000000	8.669679
2330.000000	8.329108
2329.000000	8.627925
2328.000000	8.690604
2327.000000	8.441064
2326.000000	8.477357
2325.000000	8.452006
2324.000000	8.351100
2323.000000	8.333308
2322.000000	8.239698
2321.000000	8.200853
2320.000000	7.971577
2319.000000	8.201504
2318.000000	8.163473
2317.000000	8.173109
2316.000000	8.142284
2315.000000	8.309752
2314.000000	7.744345
2313.000000	7.887643
2312.000000	7.794641
2311.000000	7.879754
2310.000000	7.734894
2309.000000	7.834537
2308.000000	7.680092
2307.000000	7.625393
2306.000000	7.501766
2305.000000	7.438700
2304.000000	7.647214
2303.000000	7.558537
2302.000000	7.436340
2301.000000	7.225336
2300.000000	7.068411
2299.000000	7.215784
2298.000000	7.065498
2297.000000	7.124489
2296.000000	7.149974
2295.000000	6.955041
2294.000000	6.922088
2293.000000	6.942434
2292.000000	6.811970
2291.000000	6.802687
2290.000000	6.715184
2289.000000	6.674516
2288.000000	6.581275
2287.000000	6.731040
2286.000000	6.606700
2285.000000	6.343791
2284.000000	6.368961
2283.000000	6.365923
2282.000000	6.496606
2281.000000	6.635333
2280.000000	6.611369
2279.000000	6.615561
2278.000000	6.581589
2277.000000	6.631844
2276.000000	6.620394
2275.000000	6.587072
2274.000000	6.871566
2273.000000	6.945417
2272.000000	6.811616
2271.000000	6.679894
2270.000000	6.718654
2269.000000	6.797957
2268.000000	6.747826
2267.000000	6.830939
2266.000000	6.940636
2265.000000	6.994614
2264.000000	7.072875
2263.000000	7.193192
2262.000000	7.207356
2261.000000	7.318553
2260.000000	7.374331
2259.000000	7.493851
2258.000000	7.769036
2257.000000	8.010081
2256.000000	8.006713
2255.000000	7.982708
2254.000000	8.239769
2253.000000	8.397550
2252.000000	8.580822
2251.000000	8.707192
2250.000000	8.804258
2249.000000	9.088969
2248.000000	9.206297
2247.000000	9.357279
2246.000000	9.558275
2245.000000	9.548729
2244.000000	9.687420
2243.000000	9.968786
2242.000000	9.937913
2241.000000	9.957557
2240.000000	10.123117
2239.000000	10.272744
2238.000000	10.454807
2237.000000	10.477533
2236.000000	10.524043
2235.000000	10.581222
2234.000000	10.659237
2233.000000	10.607622
2232.000000	10.637690
2231.000000	10.689903
2230.000000	10.707384
2229.000000	10.936845
2228.000000	10.995609
2227.000000	10.734105
2226.000000	10.743057
2225.000000	10.840575
2224.000000	10.754167
2223.000000	10.642495
2222.000000	10.650398
2221.000000	10.803112
2220.000000	10.671525
2219.000000	10.583233
2218.000000	10.656639
2217.000000	10.650940
2216.000000	10.504845
2215.000000	10.599635
2214.000000	10.599093
2213.000000	10.524077
2212.000000	10.447727
2211.000000	10.426776
2210.000000	10.329847
2209.000000	10.150304
2208.000000	10.103476
2207.000000	10.225718
2206.000000	10.064056
2205.000000	10.089307
2204.000000	10.115205
2203.000000	9.955626
2202.000000	9.831841
2201.000000	9.809023
2200.000000	9.869863
2199.000000	9.894702
2198.000000	9.848854
2197.000000	9.657103
2196.000000	9.449316
2195.000000	9.441457
2194.000000	9.350348
2193.000000	9.234095
2192.000000	9.258933
2191.000000	9.292715
2190.000000	9.133439
2189.000000	9.038199
2188.000000	9.084720
2187.000000	9.085586
2186.000000	8.909267
2185.000000	8.867702
2184.000000	8.952043
2183.000000	8.977973
2182.000000	8.918144
2181.000000	8.694661
2180.000000	8.729379
2179.000000	8.724115
2178.000000	8.725448
2177.000000	8.834941
2176.000000	8.719954
2175.000000	8.758976
2174.000000	8.797827
2173.000000	8.956660
2172.000000	8.880358
2171.000000	8.800289
2170.000000	8.893284
2169.000000	8.932958
2168.000000	9.164207
2167.000000	9.089017
2166.000000	9.226544
2165.000000	9.068612
2164.000000	9.135291
2163.000000	9.312618
2162.000000	9.389123
2161.000000	9.401057
2160.000000	9.625967
2159.000000	9.669081
2158.000000	9.902690
2157.000000	9.886524
2156.000000	9.968375
2155.000000	10.029956
2154.000000	10.159229
2153.000000	10.305032
2152.000000	10.457365
2151.000000	10.563308
2150.000000	10.321377
2149.000000	10.594046
2148.000000	10.609469
2147.000000	10.735917
2146.000000	10.845202
2145.000000	11.171484
2144.000000	10.996111
2143.000000	11.165055
2142.000000	11.327632
2141.000000	11.360036
2140.000000	11.348498
2139.000000	11.531775
2138.000000	11.580301
2137.000000	11.654132
2136.000000	11.763612
2135.000000	11.783990
2134.000000	12.106790
2133.000000	11.937672
2132.000000	12.171566
2131.000000	12.233421
2130.000000	12.388468
2129.000000	12.057877
2128.000000	12.210547
2127.000000	12.245862
2126.000000	12.166624
2125.000000	12.256886
2124.000000	12.489968
2123.000000	12.467116
2122.000000	12.433665
2121.000000	12.524921
2120.000000	12.486031
2119.000000	12.688657
2118.000000	12.650549
2117.000000	12.579467
2116.000000	12.797377
2115.000000	12.785881
2114.000000	12.834379
2113.000000	12.721033
2112.000000	12.757340
2111.000000	12.812089
2110.000000	12.787537
2109.000000	12.840617
2108.000000	12.766795
2107.000000	12.943529
2106.000000	12.976292
2105.000000	12.913353
2104.000000	12.898318
2103.000000	12.949526
2102.000000	12.885037
2101.000000	13.015699
2100.000000	13.014828
2099.000000	12.872082
2098.000000	12.971392
2097.000000	12.952974
2096.000000	12.927519
2095.000000	12.950789
2094.000000	12.990228
2093.000000	12.904686
2092.000000	12.917743
2091.000000	12.821648
2090.000000	12.707400
2089.000000	12.820528
2088.000000	12.789446
2087.000000	12.785809
2086.000000	12.779658
2085.000000	12.708170
2084.000000	12.745475
2083.000000	12.607948
2082.000000	12.531537
2081.000000	12.524003
2080.000000	12.369586
2079.000000	12.415972
2078.000000	12.361691
2077.000000	12.224010
2076.000000	12.202469
2075.000000	12.123319
2074.000000	12.089583
2073.000000	12.027695
2072.000000	11.830947
2071.000000	11.837118
2070.000000	11.688621
2069.000000	11.518592
2068.000000	11.369290
2067.000000	11.332882
2066.000000	11.217442
2065.000000	11.110359
2064.000000	11.035404
2063.000000	10.873976
2062.000000	10.755136
2061.000000	10.629788
2060.000000	10.527442
2059.000000	10.447808
2058.000000	10.330118
2057.000000	10.180913
2056.000000	10.090362
2055.000000	10.009906
2054.000000	9.796107
2053.000000	9.696637
2052.000000	9.670935
2051.000000	9.583454
2050.000000	9.476153
2049.000000	9.394907
2048.000000	9.348416
2047.000000	9.338490
2046.000000	9.225108
2045.000000	9.145358
2044.000000	9.143090
2043.000000	9.167665
2042.000000	9.155347
2041.000000	9.146785
2040.000000	9.197792
2039.000000	9.237662
2038.000000	9.299501
2037.000000	9.292318
2036.000000	9.290121
2035.000000	9.386361
2034.000000	9.490290
2033.000000	9.536773
2032.000000	9.630559
2031.000000	9.723592
2030.000000	9.811619
2029.000000	9.878042
2028.000000	9.963939
2027.000000	10.057346
2026.000000	10.168579
2025.000000	10.226329
2024.000000	10.250903
2023.000000	10.307366
2022.000000	10.363208
2021.000000	10.418386
2020.000000	10.445268
2019.000000	10.462491
2018.000000	10.498022
2017.000000	10.529555
2016.000000	10.537998
2015.000000	10.493848
2014.000000	10.464654
2013.000000	10.474130
2012.000000	10.434676
2011.000000	10.409507
2010.000000	10.408997
2009.000000	10.366918
2008.000000	10.294043
2007.000000	10.200697
2006.000000	10.169021
2005.000000	10.110689
2004.000000	10.048057
2003.000000	10.012945
2002.000000	9.922666
2001.000000	9.831848
2000.000000	9.778454
1999.000000	9.692930
1998.000000	9.634117
1997.000000	9.558549
1996.000000	9.491503
1995.000000	9.422178
1994.000000	9.330304
1993.000000	9.263667
1992.000000	9.183266
1991.000000	9.077984
1990.000000	9.036507
1989.000000	8.982964
1988.000000	8.893270
1987.000000	8.799826
1986.000000	8.684348
1985.000000	8.631072
1984.000000	8.588717
1983.000000	8.530555
1982.000000	8.444744
1981.000000	8.354241
1980.000000	8.307606
1979.000000	8.213680
1978.000000	8.119176
1977.000000	8.066289
1976.000000	8.007989
1975.000000	7.956806
1974.000000	7.861084
1973.000000	7.805141
1972.000000	7.744794
1971.000000	7.675623
1970.000000	7.620879
1969.000000	7.583755
1968.000000	7.522670
1967.000000	7.461620
1966.000000	7.368433
1965.000000	7.354607
1964.000000	7.329304
1963.000000	7.208807
1962.000000	7.162790
1961.000000	7.093961
1960.000000	7.049116
1959.000000	7.018647
1958.000000	6.939308
1957.000000	6.887528
1956.000000	6.855047
1955.000000	6.842466
1954.000000	6.865112
1953.000000	6.783908
1952.000000	6.745979
1951.000000	6.749884
1950.000000	6.771806
1949.000000	6.664167
1948.000000	6.666917
1947.000000	6.664966
1946.000000	6.629048
1945.000000	6.657420
1944.000000	6.659539
1943.000000	6.723335
1942.000000	6.837397
1941.000000	6.793015
1940.000000	6.799317
1939.000000	6.881783
1938.000000	6.837741
1937.000000	6.904530
1936.000000	7.051885
1935.000000	7.100661
1934.000000	7.123652
1933.000000	7.241558
1932.000000	7.302320
1931.000000	7.342369
1930.000000	7.587409
1929.000000	7.635482
1928.000000	7.758292
1927.000000	7.909115
1926.000000	8.058395
1925.000000	8.327929
1924.000000	8.484723
1923.000000	8.557885
1922.000000	8.848577
1921.000000	9.099366
1920.000000	9.215197
1919.000000	9.398297
1918.000000	9.612966
1917.000000	9.918505
1916.000000	10.069911
1915.000000	10.348890
1914.000000	10.652055
1913.000000	10.978173
1912.000000	11.184021
1911.000000	11.553160
1910.000000	11.882180
1909.000000	12.168663
1908.000000	12.532264
1907.000000	12.918647
1906.000000	13.223059
1905.000000	13.667142
1904.000000	14.046283
1903.000000	14.524096
1902.000000	14.861333
1901.000000	15.345321
1900.000000	15.709459
1899.000000	16.235666
1898.000000	16.656271
1897.000000	17.056700
1896.000000	17.567425
1895.000000	18.096241
1894.000000	18.517727
1893.000000	19.007777
1892.000000	19.442417
1891.000000	19.917813
1890.000000	20.308442
1889.000000	20.708158
1888.000000	21.083112
1887.000000	21.553285
1886.000000	21.988126
1885.000000	22.400955
1884.000000	22.763545
1883.000000	23.201658
1882.000000	23.583097
1881.000000	23.912492
1880.000000	24.218266
1879.000000	24.510766
1878.000000	24.865687
1877.000000	25.194902
1876.000000	25.487154
1875.000000	25.768415
1874.000000	26.020230
1873.000000	26.262532
1872.000000	26.520177
1871.000000	26.762798
1870.000000	26.920591
1869.000000	27.086413
1868.000000	27.282340
1867.000000	27.422864
1866.000000	27.535908
1865.000000	27.642031
1864.000000	27.739993
1863.000000	27.879439
1862.000000	27.960522
1861.000000	28.007604
1860.000000	28.058017
1859.000000	28.158353
1858.000000	28.198701
1857.000000	28.232226
1856.000000	28.312208
1855.000000	28.321771
1854.000000	28.329494
1853.000000	28.403236
1852.000000	28.425133
1851.000000	28.423215
1850.000000	28.423517
1849.000000	28.436739
1848.000000	28.428906
1847.000000	28.417962
1846.000000	28.419092
1845.000000	28.387390
1844.000000	28.345945
1843.000000	28.309718
1842.000000	28.300421
1841.000000	28.288134
1840.000000	28.249665
1839.000000	28.210972
1838.000000	28.157881
1837.000000	28.086352
1836.000000	28.063954
1835.000000	28.016081
1834.000000	27.939908
1833.000000	27.851026
1832.000000	27.804344
1831.000000	27.752757
1830.000000	27.729637
1829.000000	27.680669
1828.000000	27.633366
1827.000000	27.587568
1826.000000	27.541288
1825.000000	27.487517
1824.000000	27.454845
1823.000000	27.419616
1822.000000	27.374292
1821.000000	27.304690
1820.000000	27.234428
1819.000000	27.190585
1818.000000	27.154011
1817.000000	27.102491
1816.000000	27.060239
1815.000000	27.025834
1814.000000	26.970926
1813.000000	26.914704
1812.000000	26.882993
1811.000000	26.853055
1810.000000	26.809886
1809.000000	26.767967
1808.000000	26.742364
1807.000000	26.695095
1806.000000	26.633967
1805.000000	26.584505
1804.000000	26.554890
1803.000000	26.516835
1802.000000	26.481289
1801.000000	26.463805
1800.000000	26.429635
1799.000000	26.393690
1798.000000	26.363243
1797.000000	26.345530
1796.000000	26.294702
1795.000000	26.244442
1794.000000	26.246363
1793.000000	26.239633
1792.000000	26.209794
1791.000000	26.183160
1790.000000	26.159962
1789.000000	26.119109
1788.000000	26.098160
1787.000000	26.085581
1786.000000	26.046524
1785.000000	26.008642
1784.000000	25.991513
1783.000000	25.962414
1782.000000	25.921770
1781.000000	25.876683
1780.000000	25.851935
1779.000000	25.810550
1778.000000	25.758264
1777.000000	25.692415
1776.000000	25.646119
1775.000000	25.590409
1774.000000	25.541781
1773.000000	25.485132
1772.000000	25.415004
1771.000000	25.362264
1770.000000	25.294800
1769.000000	25.207557
1768.000000	25.170096
1767.000000	25.114372
1766.000000	25.050223
1765.000000	24.989457
1764.000000	24.953149
1763.000000	24.883456
1762.000000	24.808543
1761.000000	24.747127
1760.000000	24.671517
1759.000000	24.616239
1758.000000	24.556236
1757.000000	24.486868
1756.000000	24.427808
1755.000000	24.377251
1754.000000	24.312773
1753.000000	24.260820
1752.000000	24.212345
1751.000000	24.167727
1750.000000	24.063442
1749.000000	24.012979
1748.000000	23.945718
1747.000000	23.888726
1746.000000	23.825482
1745.000000	23.757064
1744.000000	23.675203
1743.000000	23.626405
1742.000000	23.576451
1741.000000	23.523163
1740.000000	23.461620
1739.000000	23.411353
1738.000000	23.362239
1737.000000	23.316287
1736.000000	23.283166
1735.000000	23.291568
1734.000000	23.273404
1733.000000	23.252243
1732.000000	23.261249
1731.000000	23.266224
1730.000000	23.286138
1729.000000	23.293745
1728.000000	23.338139
1727.000000	23.403699
1726.000000	23.474248
1725.000000	23.526973
1724.000000	23.605955
1723.000000	23.701405
1722.000000	23.795657
1721.000000	23.903572
1720.000000	23.967445
1719.000000	24.089156
1718.000000	24.178902
1717.000000	24.285194
1716.000000	24.386981
1715.000000	24.474296
1714.000000	24.551364
1713.000000	24.648166
1712.000000	24.716357
1711.000000	24.756069
1710.000000	24.857715
1709.000000	24.901543
1708.000000	24.962900
1707.000000	25.019533
1706.000000	25.033188
1705.000000	25.083363
1704.000000	25.091336
1703.000000	25.101080
1702.000000	25.137057
1701.000000	25.133356
1700.000000	25.157071
1699.000000	25.188659
1698.000000	25.207410
1697.000000	25.238303
1696.000000	25.288846
1695.000000	25.291281
1694.000000	25.352180
1693.000000	25.395634
1692.000000	25.481989
1691.000000	25.533323
1690.000000	25.629567
1689.000000	25.729215
1688.000000	25.859112
1687.000000	25.970053
1686.000000	26.119498
1685.000000	26.255231
1684.000000	26.428194
1683.000000	26.591399
1682.000000	26.748585
1681.000000	26.957601
1680.000000	27.150883
1679.000000	27.339391
1678.000000	27.550379
1677.000000	27.735804
1676.000000	27.924487
1675.000000	28.149486
1674.000000	28.365013
1673.000000	28.559499
1672.000000	28.730801
1671.000000	28.903080
1670.000000	29.097441
1669.000000	29.276644
1668.000000	29.430070
1667.000000	29.611969
1666.000000	29.712501
1665.000000	29.806445
1664.000000	29.931228
1663.000000	30.004973
1662.000000	30.137158
1661.000000	30.215943
1660.000000	30.293672
1659.000000	30.355526
1658.000000	30.427415
1657.000000	30.473928
1656.000000	30.512893
1655.000000	30.561205
1654.000000	30.566743
1653.000000	30.596384
1652.000000	30.607065
1651.000000	30.603356
1650.000000	30.596039
1649.000000	30.581984
1648.000000	30.568363
1647.000000	30.558504
1646.000000	30.535628
1645.000000	30.499570
1644.000000	30.476074
1643.000000	30.447319
1642.000000	30.426636
1641.000000	30.399495
1640.000000	30.353610
1639.000000	30.308085
1638.000000	30.261281
1637.000000	30.227286
1636.000000	30.184714
1635.000000	30.132829
1634.000000	30.076970
1633.000000	30.022456
1632.000000	29.965622
1631.000000	29.914308
1630.000000	29.858723
1629.000000	29.813554
1628.000000	29.755712
1627.000000	29.698401
1626.000000	29.614893
1625.000000	29.563501
1624.000000	29.506000
1623.000000	29.437206
1622.000000	29.379898
1621.000000	29.305052
1620.000000	29.245014
1619.000000	29.174365
1618.000000	29.104015
1617.000000	29.031402
1616.000000	28.947904
1615.000000	28.891497
1614.000000	28.839791
1613.000000	28.763184
1612.000000	28.680508
1611.000000	28.606195
1610.000000	28.530322
1609.000000	28.446112
1608.000000	28.373495
1607.000000	28.291435
1606.000000	28.215275
1605.000000	28.139170
1604.000000	28.050748
1603.000000	27.962497
1602.000000	27.894095
1601.000000	27.824917
1600.000000	27.752061
1599.000000	27.671374
1598.000000	27.594645
1597.000000	27.528577
1596.000000	27.460090
1595.000000	27.380927
1594.000000	27.319233
1593.000000	27.261643
1592.000000	27.185067
1591.000000	27.111089
1590.000000	27.052167
1589.000000	26.981699
1588.000000	26.910102
1587.000000	26.857868
1586.000000	26.808942
1585.000000	26.750874
1584.000000	26.673756
1583.000000	26.615850
1582.000000	26.571966
1581.000000	26.514675
1580.000000	26.451275
1579.000000	26.393592
1578.000000	26.342170
1577.000000	26.290500
1576.000000	26.235479
1575.000000	26.173585
1574.000000	26.112678
1573.000000	26.058699
1572.000000	26.002309
1571.000000	25.942695
1570.000000	25.895678
1569.000000	25.837989
1568.000000	25.786188
1567.000000	25.738773
1566.000000	25.691696
1565.000000	25.651794
1564.000000	25.624774
1563.000000	25.595050
1562.000000	25.541230
1561.000000	25.507205
1560.000000	25.476711
1559.000000	25.457336
1558.000000	25.432924
1557.000000	25.386613
1556.000000	25.359883
1555.000000	25.332010
1554.000000	25.281612
1553.000000	25.241967
1552.000000	25.223788
1551.000000	25.171383
1550.000000	25.112308
1549.000000	25.078106
1548.000000	25.031785
1547.000000	24.965003
1546.000000	24.887689
1545.000000	24.807080
1544.000000	24.731826
1543.000000	24.657970
1542.000000	24.568495
1541.000000	24.470900
1540.000000	24.399554
1539.000000	24.307534
1538.000000	24.205835
1537.000000	24.098992
1536.000000	24.005166
1535.000000	23.907094
1534.000000	23.803224
1533.000000	23.714196
1532.000000	23.622698
1531.000000	23.522515
1530.000000	23.433961
1529.000000	23.337012
1528.000000	23.251689
1527.000000	23.174354
1526.000000	23.100822
1525.000000	23.030902
1524.000000	22.957648
1523.000000	22.899833
1522.000000	22.841370
1521.000000	22.789427
1520.000000	22.728027
1519.000000	22.679831
1518.000000	22.648834
1517.000000	22.601093
1516.000000	22.554669
1515.000000	22.524952
1514.000000	22.478577
1513.000000	22.443710
1512.000000	22.405091
1511.000000	22.382028
1510.000000	22.361595
1509.000000	22.316649
1508.000000	22.301358
1507.000000	22.297779
1506.000000	22.278518
1505.000000	22.249907
1504.000000	22.248100
1503.000000	22.243547
1502.000000	22.208620
1501.000000	22.227387
1500.000000	22.208327
1499.000000	22.223493
1498.000000	22.247140
1497.000000	22.233710
1496.000000	22.228522
1495.000000	22.245893
1494.000000	22.258544
1493.000000	22.264202
1492.000000	22.274958
1491.000000	22.315029
1490.000000	22.335512
1489.000000	22.357996
1488.000000	22.400659
1487.000000	22.440308
1486.000000	22.467235
1485.000000	22.507322
1484.000000	22.543941
1483.000000	22.614225
1482.000000	22.635236
1481.000000	22.728381
1480.000000	22.745756
1479.000000	22.788350
1478.000000	22.825937
1477.000000	22.866307
1476.000000	22.908412
1475.000000	22.967399
1474.000000	23.005586
1473.000000	23.048786
1472.000000	23.099662
1471.000000	23.132082
1470.000000	23.184214
1469.000000	23.224638
1468.000000	23.259965
1467.000000	23.321743
1466.000000	23.397077
1465.000000	23.426357
1464.000000	23.465488
1463.000000	23.519400
1462.000000	23.579505
1461.000000	23.617248
1460.000000	23.655200
1459.000000	23.735783
1458.000000	23.791705
1457.000000	23.846107
