PE UV       SUBTECH     SPECTRUM    ASCII       PEDS        4.00        
   -1
TDgVeauUK 42.Sample.asc
18/03/08
17:00:08.00
18/03/08
17:00:08.00
Administrator

200.000000
1
Lambda 750
750N8071901
PerkinElmer UV WinLab 6.0.4.0738 / 1.61.00 Lambda 900

0
0
3350/servo 860.8/2
0
0
UV/VIS
1
1
1
CommonBeamDepol,150mm sphere / downward view
0
0
0
0
Program
Program
3350/servo 860.8/2
3350/0.2 860.8/0.2
3350/0.2 860.8/0.2
0
1
 
 
 
0
 
860.8
319.2
860.8
Front
100
on
 
 
0
0
0
 
0
 
 
 
0
 
 
0
0
0
0
0
 
 
 
 
0
0


0
0
#HDR
-1
-1
#GR
nm
%T
1.0
0.0
2350.000000
-1.000000
2151
8
55.013723
0.110122
#DATA
2350.000000	16.492929
2349.000000	16.530971
2348.000000	16.443612
2347.000000	16.961924
2346.000000	16.475585
2345.000000	16.437660
2344.000000	15.994428
2343.000000	16.274313
2342.000000	16.396122
2341.000000	16.280418
2340.000000	16.347559
2339.000000	16.716568
2338.000000	16.604216
2337.000000	16.869216
2336.000000	17.216465
2335.000000	17.243353
2334.000000	17.129147
2333.000000	17.179047
2332.000000	17.469946
2331.000000	17.347267
2330.000000	16.820134
2329.000000	17.049577
2328.000000	17.271142
2327.000000	17.084643
2326.000000	17.193920
2325.000000	17.021796
2324.000000	17.239853
2323.000000	17.034741
2322.000000	16.804549
2321.000000	16.793337
2320.000000	16.968933
2319.000000	17.102444
2318.000000	16.787249
2317.000000	16.728293
2316.000000	16.464846
2315.000000	16.537564
2314.000000	16.273903
2313.000000	16.457750
2312.000000	16.490295
2311.000000	16.565009
2310.000000	16.376827
2309.000000	16.087225
2308.000000	15.884428
2307.000000	15.731051
2306.000000	15.644574
2305.000000	15.856707
2304.000000	15.748390
2303.000000	15.579096
2302.000000	15.285213
2301.000000	15.124583
2300.000000	15.348120
2299.000000	15.100858
2298.000000	15.083187
2297.000000	14.976848
2296.000000	14.701388
2295.000000	14.766878
2294.000000	14.757962
2293.000000	14.614704
2292.000000	14.213673
2291.000000	14.290499
2290.000000	14.389679
2289.000000	14.162236
2288.000000	14.284267
2287.000000	14.307464
2286.000000	14.243409
2285.000000	14.126200
2284.000000	13.935428
2283.000000	13.964561
2282.000000	13.884852
2281.000000	13.963571
2280.000000	14.173511
2279.000000	14.249378
2278.000000	14.060124
2277.000000	13.893554
2276.000000	14.133830
2275.000000	14.050305
2274.000000	14.001044
2273.000000	14.226956
2272.000000	14.494724
2271.000000	14.548103
2270.000000	14.391765
2269.000000	14.395638
2268.000000	14.524399
2267.000000	14.561867
2266.000000	14.651608
2265.000000	14.969558
2264.000000	15.101141
2263.000000	15.157211
2262.000000	15.335939
2261.000000	15.559828
2260.000000	15.747507
2259.000000	15.962158
2258.000000	16.211528
2257.000000	16.339321
2256.000000	16.555670
2255.000000	16.681515
2254.000000	16.887293
2253.000000	17.216160
2252.000000	17.427781
2251.000000	17.641338
2250.000000	17.997223
2249.000000	18.404742
2248.000000	18.476327
2247.000000	18.528945
2246.000000	18.826185
2245.000000	19.021031
2244.000000	19.282044
2243.000000	19.610847
2242.000000	19.833827
2241.000000	19.894202
2240.000000	19.943357
2239.000000	20.119638
2238.000000	20.226268
2237.000000	20.331811
2236.000000	20.436158
2235.000000	20.617345
2234.000000	20.734355
2233.000000	20.768687
2232.000000	20.870596
2231.000000	20.917032
2230.000000	20.964085
2229.000000	20.990078
2228.000000	21.056534
2227.000000	21.021425
2226.000000	20.914835
2225.000000	21.058209
2224.000000	21.061779
2223.000000	20.907185
2222.000000	20.944658
2221.000000	20.950010
2220.000000	20.972168
2219.000000	20.991034
2218.000000	20.906062
2217.000000	20.719586
2216.000000	20.665709
2215.000000	20.707285
2214.000000	20.683389
2213.000000	20.639215
2212.000000	20.628694
2211.000000	20.515493
2210.000000	20.352735
2209.000000	20.219419
2208.000000	20.205929
2207.000000	20.116121
2206.000000	19.961752
2205.000000	19.949717
2204.000000	19.777854
2203.000000	19.698615
2202.000000	19.601784
2201.000000	19.487631
2200.000000	19.544419
2199.000000	19.305266
2198.000000	19.288738
2197.000000	19.212571
2196.000000	18.985370
2195.000000	18.911973
2194.000000	18.839863
2193.000000	18.830396
2192.000000	18.647950
2191.000000	18.443276
2190.000000	18.493811
2189.000000	18.417582
2188.000000	18.463765
2187.000000	18.217175
2186.000000	18.190647
2185.000000	18.110824
2184.000000	18.124003
2183.000000	18.020152
2182.000000	17.997582
2181.000000	17.924452
2180.000000	17.757849
2179.000000	17.884996
2178.000000	17.826185
2177.000000	17.821193
2176.000000	17.973717
2175.000000	17.957599
2174.000000	17.892975
2173.000000	17.871093
2172.000000	18.040058
2171.000000	18.173882
2170.000000	18.131730
2169.000000	18.150808
2168.000000	18.229401
2167.000000	18.427093
2166.000000	18.531780
2165.000000	18.507547
2164.000000	18.689417
2163.000000	18.599412
2162.000000	18.895789
2161.000000	19.013609
2160.000000	19.144438
2159.000000	19.315627
2158.000000	19.247202
2157.000000	19.611552
2156.000000	19.796499
2155.000000	19.873610
2154.000000	20.033566
2153.000000	20.253012
2152.000000	20.446414
2151.000000	20.553250
2150.000000	20.570477
2149.000000	20.783779
2148.000000	21.020044
2147.000000	21.244442
2146.000000	21.388611
2145.000000	21.502604
2144.000000	21.675460
2143.000000	21.725197
2142.000000	21.845900
2141.000000	22.085375
2140.000000	22.362868
2139.000000	22.464317
2138.000000	22.474822
2137.000000	22.676280
2136.000000	22.565907
2135.000000	22.850250
2134.000000	22.941181
2133.000000	22.830911
2132.000000	23.246856
2131.000000	23.256328
2130.000000	23.478381
2129.000000	23.455405
2128.000000	23.367047
2127.000000	23.583119
2126.000000	23.592717
2125.000000	23.583413
2124.000000	23.692521
2123.000000	23.809062
2122.000000	23.935413
2121.000000	23.829968
2120.000000	23.893115
2119.000000	23.970082
2118.000000	24.075588
2117.000000	24.001417
2116.000000	24.183569
2115.000000	24.172375
2114.000000	24.237715
2113.000000	24.036184
2112.000000	24.322885
2111.000000	24.180757
2110.000000	24.194862
2109.000000	24.287371
2108.000000	24.284215
2107.000000	24.440392
2106.000000	24.331653
2105.000000	24.384062
2104.000000	24.279603
2103.000000	24.331204
2102.000000	24.360200
2101.000000	24.385731
2100.000000	24.502782
2099.000000	24.527267
2098.000000	24.465780
2097.000000	24.434448
2096.000000	24.464871
2095.000000	24.298536
2094.000000	24.366729
2093.000000	24.348666
2092.000000	24.490808
2091.000000	24.365597
2090.000000	24.234846
2089.000000	24.313213
2088.000000	24.301720
2087.000000	24.239933
2086.000000	24.177377
2085.000000	24.109492
2084.000000	24.149952
2083.000000	23.980133
2082.000000	23.857657
2081.000000	23.812077
2080.000000	23.728102
2079.000000	23.670535
2078.000000	23.489939
2077.000000	23.418412
2076.000000	23.334065
2075.000000	23.218016
2074.000000	23.157985
2073.000000	22.986989
2072.000000	22.767769
2071.000000	22.681527
2070.000000	22.584766
2069.000000	22.394139
2068.000000	22.182134
2067.000000	22.032762
2066.000000	21.832986
2065.000000	21.652994
2064.000000	21.505189
2063.000000	21.298394
2062.000000	21.093322
2061.000000	20.891887
2060.000000	20.716914
2059.000000	20.603042
2058.000000	20.413650
2057.000000	20.239511
2056.000000	20.064896
2055.000000	19.896022
2054.000000	19.722214
2053.000000	19.568355
2052.000000	19.393093
2051.000000	19.225157
2050.000000	19.085612
2049.000000	19.034622
2048.000000	18.895342
2047.000000	18.764548
2046.000000	18.694725
2045.000000	18.615610
2044.000000	18.600337
2043.000000	18.589542
2042.000000	18.594060
2041.000000	18.665680
2040.000000	18.721236
2039.000000	18.745338
2038.000000	18.751622
2037.000000	18.827135
2036.000000	18.924402
2035.000000	19.056246
2034.000000	19.189873
2033.000000	19.276774
2032.000000	19.378565
2031.000000	19.497871
2030.000000	19.633933
2029.000000	19.794962
2028.000000	19.971221
2027.000000	20.172328
2026.000000	20.306586
2025.000000	20.404512
2024.000000	20.443059
2023.000000	20.483513
2022.000000	20.567551
2021.000000	20.650429
2020.000000	20.729349
2019.000000	20.800814
2018.000000	20.835529
2017.000000	20.852378
2016.000000	20.853616
2015.000000	20.846392
2014.000000	20.880797
2013.000000	20.865944
2012.000000	20.812577
2011.000000	20.758889
2010.000000	20.672231
2009.000000	20.574889
2008.000000	20.503691
2007.000000	20.430220
2006.000000	20.359970
2005.000000	20.250506
2004.000000	20.139378
2003.000000	20.074677
2002.000000	19.967119
2001.000000	19.796398
2000.000000	19.676827
1999.000000	19.571050
1998.000000	19.450723
1997.000000	19.360636
1996.000000	19.219302
1995.000000	19.098211
1994.000000	18.962584
1993.000000	18.817622
1992.000000	18.672421
1991.000000	18.586759
1990.000000	18.450732
1989.000000	18.306120
1988.000000	18.183685
1987.000000	18.063261
1986.000000	17.894685
1985.000000	17.809784
1984.000000	17.717112
1983.000000	17.571953
1982.000000	17.443235
1981.000000	17.383603
1980.000000	17.221661
1979.000000	17.081899
1978.000000	16.937903
1977.000000	16.835871
1976.000000	16.709489
1975.000000	16.622742
1974.000000	16.481060
1973.000000	16.357008
1972.000000	16.240343
1971.000000	16.117525
1970.000000	16.044860
1969.000000	15.920791
1968.000000	15.822215
1967.000000	15.727837
1966.000000	15.616563
1965.000000	15.492448
1964.000000	15.357959
1963.000000	15.294116
1962.000000	15.173780
1961.000000	15.040957
1960.000000	14.930339
1959.000000	14.861264
1958.000000	14.764643
1957.000000	14.682505
1956.000000	14.644554
1955.000000	14.587843
1954.000000	14.501996
1953.000000	14.418581
1952.000000	14.356323
1951.000000	14.339136
1950.000000	14.303584
1949.000000	14.241981
1948.000000	14.239068
1947.000000	14.232960
1946.000000	14.162859
1945.000000	14.207961
1944.000000	14.232125
1943.000000	14.250582
1942.000000	14.239432
1941.000000	14.304354
1940.000000	14.395004
1939.000000	14.487841
1938.000000	14.545182
1937.000000	14.674756
1936.000000	14.793617
1935.000000	14.977406
1934.000000	15.042695
1933.000000	15.236051
1932.000000	15.395185
1931.000000	15.539493
1930.000000	15.762221
1929.000000	15.965399
1928.000000	16.156718
1927.000000	16.419727
1926.000000	16.646791
1925.000000	16.985635
1924.000000	17.174596
1923.000000	17.560112
1922.000000	17.861450
1921.000000	18.215677
1920.000000	18.453725
1919.000000	18.826961
1918.000000	19.245504
1917.000000	19.726772
1916.000000	19.939314
1915.000000	20.459378
1914.000000	20.897267
1913.000000	21.400535
1912.000000	21.764860
1911.000000	22.195694
1910.000000	22.663073
1909.000000	23.155843
1908.000000	23.622379
1907.000000	24.183786
1906.000000	24.713893
1905.000000	25.300557
1904.000000	25.789576
1903.000000	26.444339
1902.000000	26.966145
1901.000000	27.468371
1900.000000	28.095169
1899.000000	28.690582
1898.000000	29.303870
1897.000000	29.746199
1896.000000	30.364732
1895.000000	30.899898
1894.000000	31.437150
1893.000000	32.025159
1892.000000	32.524974
1891.000000	33.061815
1890.000000	33.585987
1889.000000	34.064236
1888.000000	34.560027
1887.000000	35.009640
1886.000000	35.473345
1885.000000	35.934686
1884.000000	36.366420
1883.000000	36.784897
1882.000000	37.170452
1881.000000	37.581521
1880.000000	37.961775
1879.000000	38.319273
1878.000000	38.653273
1877.000000	39.005760
1876.000000	39.303553
1875.000000	39.581033
1874.000000	39.845295
1873.000000	40.127210
1872.000000	40.383928
1871.000000	40.577546
1870.000000	40.802972
1869.000000	40.966965
1868.000000	41.122560
1867.000000	41.255276
1866.000000	41.393990
1865.000000	41.520302
1864.000000	41.605966
1863.000000	41.712789
1862.000000	41.784409
1861.000000	41.825590
1860.000000	41.898914
1859.000000	41.972334
1858.000000	42.019301
1857.000000	42.083921
1856.000000	42.164241
1855.000000	42.161128
1854.000000	42.203328
1853.000000	42.250482
1852.000000	42.247351
1851.000000	42.244163
1850.000000	42.244579
1849.000000	42.237905
1848.000000	42.221713
1847.000000	42.261884
1846.000000	42.240349
1845.000000	42.188993
1844.000000	42.197340
1843.000000	42.194502
1842.000000	42.143773
1841.000000	42.107018
1840.000000	42.068270
1839.000000	42.063819
1838.000000	41.995322
1837.000000	41.910883
1836.000000	41.861524
1835.000000	41.798229
1834.000000	41.749535
1833.000000	41.704856
1832.000000	41.651472
1831.000000	41.590133
1830.000000	41.530657
1829.000000	41.493751
1828.000000	41.434089
1827.000000	41.382298
1826.000000	41.340058
1825.000000	41.274984
1824.000000	41.241587
1823.000000	41.199535
1822.000000	41.150778
1821.000000	41.111257
1820.000000	41.036550
1819.000000	40.974191
1818.000000	40.960114
1817.000000	40.943705
1816.000000	40.892745
1815.000000	40.840457
1814.000000	40.807842
1813.000000	40.746688
1812.000000	40.707762
1811.000000	40.660352
1810.000000	40.609598
1809.000000	40.561802
1808.000000	40.524338
1807.000000	40.476094
1806.000000	40.413686
1805.000000	40.372065
1804.000000	40.323014
1803.000000	40.282839
1802.000000	40.245216
1801.000000	40.209381
1800.000000	40.173192
1799.000000	40.138713
1798.000000	40.104810
1797.000000	40.076963
1796.000000	40.045475
1795.000000	40.006589
1794.000000	39.990175
1793.000000	39.949772
1792.000000	39.919313
1791.000000	39.917823
1790.000000	39.871065
1789.000000	39.824752
1788.000000	39.828657
1787.000000	39.788203
1786.000000	39.754745
1785.000000	39.729251
1784.000000	39.689353
1783.000000	39.633617
1782.000000	39.587374
1781.000000	39.557110
1780.000000	39.533885
1779.000000	39.484464
1778.000000	39.425471
1777.000000	39.375951
1776.000000	39.332917
1775.000000	39.275379
1774.000000	39.217414
1773.000000	39.188597
1772.000000	39.100759
1771.000000	39.022902
1770.000000	38.968280
1769.000000	38.913939
1768.000000	38.843336
1767.000000	38.775263
1766.000000	38.712535
1765.000000	38.641474
1764.000000	38.570820
1763.000000	38.510260
1762.000000	38.471819
1761.000000	38.420722
1760.000000	38.334318
1759.000000	38.274195
1758.000000	38.220592
1757.000000	38.127810
1756.000000	38.077347
1755.000000	38.033269
1754.000000	37.956825
1753.000000	37.883187
1752.000000	37.832378
1751.000000	37.769010
1750.000000	37.702582
1749.000000	37.665991
1748.000000	37.582883
1747.000000	37.495412
1746.000000	37.441655
1745.000000	37.382754
1744.000000	37.321660
1743.000000	37.247424
1742.000000	37.165851
1741.000000	37.137495
1740.000000	37.060744
1739.000000	37.007738
1738.000000	36.960740
1737.000000	36.911562
1736.000000	36.866838
1735.000000	36.843615
1734.000000	36.855700
1733.000000	36.828789
1732.000000	36.843475
1731.000000	36.847812
1730.000000	36.869968
1729.000000	36.877562
1728.000000	36.940068
1727.000000	37.002573
1726.000000	37.084557
1725.000000	37.145240
1724.000000	37.231393
1723.000000	37.328992
1722.000000	37.414713
1721.000000	37.509393
1720.000000	37.606507
1719.000000	37.732003
1718.000000	37.820275
1717.000000	37.937014
1716.000000	38.038215
1715.000000	38.122294
1714.000000	38.238768
1713.000000	38.310382
1712.000000	38.396261
1711.000000	38.474631
1710.000000	38.558552
1709.000000	38.614850
1708.000000	38.652951
1707.000000	38.683195
1706.000000	38.720714
1705.000000	38.732912
1704.000000	38.794388
1703.000000	38.777647
1702.000000	38.814714
1701.000000	38.839689
1700.000000	38.830290
1699.000000	38.838485
1698.000000	38.877938
1697.000000	38.924081
1696.000000	38.956058
1695.000000	38.977923
1694.000000	39.026751
1693.000000	39.089311
1692.000000	39.122756
1691.000000	39.200963
1690.000000	39.270768
1689.000000	39.390889
1688.000000	39.506020
1687.000000	39.621682
1686.000000	39.768935
1685.000000	39.910810
1684.000000	40.072376
1683.000000	40.230014
1682.000000	40.411547
1681.000000	40.612369
1680.000000	40.796377
1679.000000	40.977498
1678.000000	41.193306
1677.000000	41.355058
1676.000000	41.586158
1675.000000	41.764835
1674.000000	41.965638
1673.000000	42.152586
1672.000000	42.345092
1671.000000	42.521364
1670.000000	42.700691
1669.000000	42.879208
1668.000000	43.010223
1667.000000	43.154622
1666.000000	43.288889
1665.000000	43.416843
1664.000000	43.517648
1663.000000	43.581584
1662.000000	43.696145
1661.000000	43.780567
1660.000000	43.854628
1659.000000	43.924418
1658.000000	43.976104
1657.000000	44.020136
1656.000000	44.057671
1655.000000	44.093366
1654.000000	44.120645
1653.000000	44.140241
1652.000000	44.150777
1651.000000	44.129098
1650.000000	44.124248
1649.000000	44.121463
1648.000000	44.099807
1647.000000	44.084160
1646.000000	44.068189
1645.000000	44.043266
1644.000000	44.008302
1643.000000	43.991612
1642.000000	43.963721
1641.000000	43.933246
1640.000000	43.895468
1639.000000	43.862417
1638.000000	43.833343
1637.000000	43.793745
1636.000000	43.727899
1635.000000	43.682831
1634.000000	43.641942
1633.000000	43.575706
1632.000000	43.531920
1631.000000	43.481791
1630.000000	43.416121
1629.000000	43.359590
1628.000000	43.300635
1627.000000	43.244773
1626.000000	43.188883
1625.000000	43.138155
1624.000000	43.081200
1623.000000	43.013471
1622.000000	42.953016
1621.000000	42.895603
1620.000000	42.832611
1619.000000	42.758073
1618.000000	42.693763
1617.000000	42.617724
1616.000000	42.564804
1615.000000	42.502405
1614.000000	42.414508
1613.000000	42.329024
1612.000000	42.262946
1611.000000	42.197383
1610.000000	42.121797
1609.000000	42.058315
1608.000000	41.964222
1607.000000	41.879177
1606.000000	41.805260
1605.000000	41.723644
1604.000000	41.648153
1603.000000	41.568920
1602.000000	41.499859
1601.000000	41.421001
1600.000000	41.338610
1599.000000	41.262263
1598.000000	41.185590
1597.000000	41.116053
1596.000000	41.050926
1595.000000	40.985328
1594.000000	40.910028
1593.000000	40.850495
1592.000000	40.796442
1591.000000	40.732127
1590.000000	40.665260
1589.000000	40.576503
1588.000000	40.501545
1587.000000	40.465782
1586.000000	40.399964
1585.000000	40.334211
1584.000000	40.284453
1583.000000	40.222027
1582.000000	40.160285
1581.000000	40.106329
1580.000000	40.059360
1579.000000	40.018487
1578.000000	39.966681
1577.000000	39.890557
1576.000000	39.818549
1575.000000	39.772552
1574.000000	39.710616
1573.000000	39.652917
1572.000000	39.597007
1571.000000	39.526451
1570.000000	39.478894
1569.000000	39.428044
1568.000000	39.383730
1567.000000	39.335400
1566.000000	39.294306
1565.000000	39.257315
1564.000000	39.220914
1563.000000	39.196005
1562.000000	39.156142
1561.000000	39.113202
1560.000000	39.077204
1559.000000	39.055354
1558.000000	39.020930
1557.000000	38.984824
1556.000000	38.959775
1555.000000	38.914468
1554.000000	38.879976
1553.000000	38.867915
1552.000000	38.815616
1551.000000	38.763915
1550.000000	38.726838
1549.000000	38.676576
1548.000000	38.626202
1547.000000	38.568579
1546.000000	38.492009
1545.000000	38.428847
1544.000000	38.341281
1543.000000	38.262432
1542.000000	38.167085
1541.000000	38.075046
1540.000000	37.989239
1539.000000	37.889939
1538.000000	37.784809
1537.000000	37.671896
1536.000000	37.571763
1535.000000	37.469705
1534.000000	37.360452
1533.000000	37.277291
1532.000000	37.174523
1531.000000	37.069979
1530.000000	36.993533
1529.000000	36.895745
1528.000000	36.811680
1527.000000	36.717840
1526.000000	36.638515
1525.000000	36.569700
1524.000000	36.488758
1523.000000	36.421998
1522.000000	36.374668
1521.000000	36.291796
1520.000000	36.247762
1519.000000	36.190268
1518.000000	36.147900
1517.000000	36.099776
1516.000000	36.044190
1515.000000	36.002965
1514.000000	35.972965
1513.000000	35.941944
1512.000000	35.904927
1511.000000	35.860284
1510.000000	35.828982
1509.000000	35.801206
1508.000000	35.777192
1507.000000	35.758677
1506.000000	35.740127
1505.000000	35.720018
1504.000000	35.687207
1503.000000	35.682004
1502.000000	35.656728
1501.000000	35.644416
1500.000000	35.625677
1499.000000	35.646568
1498.000000	35.638929
1497.000000	35.651858
1496.000000	35.673970
1495.000000	35.666371
1494.000000	35.679977
1493.000000	35.691826
1492.000000	35.695473
1491.000000	35.729758
1490.000000	35.768998
1489.000000	35.796527
1488.000000	35.846121
1487.000000	35.871282
1486.000000	35.923111
1485.000000	35.950509
1484.000000	35.987412
1483.000000	36.070138
1482.000000	36.071236
1481.000000	36.158107
1480.000000	36.211603
1479.000000	36.264357
1478.000000	36.295183
1477.000000	36.333336
1476.000000	36.389509
1475.000000	36.428310
1474.000000	36.485596
1473.000000	36.543090
1472.000000	36.595381
1471.000000	36.619801
1470.000000	36.669549
