PE UV       SUBTECH     SPECTRUM    ASCII       PEDS        4.00        
   -1
TDgVeauUK 62.Sample.asc
18/03/08
17:49:31.00
18/03/08
17:49:31.00
Administrator

200.000000
1
Lambda 750
750N8071901
PerkinElmer UV WinLab 6.0.4.0738 / 1.61.00 Lambda 900

0
0
3350/servo 860.8/2
0
0
UV/VIS
1
1
1
CommonBeamDepol,150mm sphere / downward view
0
0
0
0
Program
Program
3350/servo 860.8/2
3350/0.2 860.8/0.2
3350/0.2 860.8/0.2
0
1
 
 
 
0
 
860.8
319.2
860.8
Front
100
on
 
 
0
0
0
 
0
 
 
 
0
 
 
0
0
0
0
0
 
 
 
 
0
0


0
0
#HDR
-1
-1
#GR
nm
%T
1.0
0.0
2350.000000
-1.000000
2151
8
49.060569
0.079648
#DATA
2350.000000	12.070753
2349.000000	12.448375
2348.000000	12.234613
2347.000000	12.952122
2346.000000	12.610176
2345.000000	12.168856
2344.000000	12.505438
2343.000000	12.089218
2342.000000	12.501804
2341.000000	12.414559
2340.000000	12.686178
2339.000000	12.876341
2338.000000	12.477100
2337.000000	12.726826
2336.000000	12.976700
2335.000000	13.249974
2334.000000	13.126581
2333.000000	13.160210
2332.000000	13.632410
2331.000000	13.081491
2330.000000	13.171165
2329.000000	13.078155
2328.000000	12.779141
2327.000000	13.019878
2326.000000	13.128256
2325.000000	12.929713
2324.000000	12.869161
2323.000000	12.911417
2322.000000	12.871600
2321.000000	12.822441
2320.000000	12.949554
2319.000000	12.741240
2318.000000	12.989512
2317.000000	12.906537
2316.000000	12.861438
2315.000000	12.712412
2314.000000	12.655986
2313.000000	12.705978
2312.000000	12.463128
2311.000000	12.284372
2310.000000	12.189129
2309.000000	12.250939
2308.000000	12.117189
2307.000000	12.180755
2306.000000	12.157433
2305.000000	11.753419
2304.000000	11.527072
2303.000000	11.836897
2302.000000	11.751041
2301.000000	11.792550
2300.000000	11.608580
2299.000000	11.439204
2298.000000	11.312499
2297.000000	11.190728
2296.000000	11.158361
2295.000000	11.084581
2294.000000	11.207806
2293.000000	11.059695
2292.000000	11.001821
2291.000000	10.874634
2290.000000	10.659986
2289.000000	10.672379
2288.000000	10.532785
2287.000000	10.736288
2286.000000	10.749003
2285.000000	10.500054
2284.000000	10.535102
2283.000000	10.624276
2282.000000	10.544860
2281.000000	10.428916
2280.000000	10.399384
2279.000000	10.423997
2278.000000	10.363727
2277.000000	10.418958
2276.000000	10.692430
2275.000000	10.831140
2274.000000	10.646622
2273.000000	10.731328
2272.000000	10.912934
2271.000000	10.865403
2270.000000	10.752799
2269.000000	10.888568
2268.000000	10.841691
2267.000000	10.970473
2266.000000	11.193336
2265.000000	11.260512
2264.000000	11.343444
2263.000000	11.414165
2262.000000	11.547147
2261.000000	11.821229
2260.000000	11.910059
2259.000000	11.973648
2258.000000	12.116713
2257.000000	12.321180
2256.000000	12.525552
2255.000000	12.713587
2254.000000	12.834173
2253.000000	13.041790
2252.000000	13.289091
2251.000000	13.470445
2250.000000	13.676739
2249.000000	13.782562
2248.000000	13.906026
2247.000000	14.281236
2246.000000	14.460366
2245.000000	14.577168
2244.000000	14.883155
2243.000000	15.022190
2242.000000	15.176684
2241.000000	15.254129
2240.000000	15.317822
2239.000000	15.456700
2238.000000	15.519917
2237.000000	15.663312
2236.000000	15.775396
2235.000000	15.879768
2234.000000	15.951638
2233.000000	15.929111
2232.000000	16.058487
2231.000000	16.149518
2230.000000	16.183951
2229.000000	16.229665
2228.000000	16.359071
2227.000000	16.365419
2226.000000	16.172343
2225.000000	16.138217
2224.000000	16.202870
2223.000000	16.198506
2222.000000	16.204164
2221.000000	16.217101
2220.000000	16.275218
2219.000000	16.213738
2218.000000	16.008517
2217.000000	15.990757
2216.000000	16.064030
2215.000000	16.008879
2214.000000	15.936523
2213.000000	15.830326
2212.000000	15.776356
2211.000000	15.666508
2210.000000	15.549138
2209.000000	15.507156
2208.000000	15.439904
2207.000000	15.399549
2206.000000	15.266210
2205.000000	15.155952
2204.000000	15.174881
2203.000000	15.088895
2202.000000	15.017349
2201.000000	14.962242
2200.000000	14.945995
2199.000000	14.842557
2198.000000	14.722523
2197.000000	14.668785
2196.000000	14.521494
2195.000000	14.490292
2194.000000	14.399302
2193.000000	14.196510
2192.000000	14.098880
2191.000000	14.254545
2190.000000	14.139261
2189.000000	13.979694
2188.000000	13.987160
2187.000000	13.872083
2186.000000	13.805275
2185.000000	13.809015
2184.000000	13.813651
2183.000000	13.816683
2182.000000	13.719002
2181.000000	13.541138
2180.000000	13.557184
2179.000000	13.653628
2178.000000	13.652387
2177.000000	13.632629
2176.000000	13.595441
2175.000000	13.517476
2174.000000	13.706152
2173.000000	13.638057
2172.000000	13.616670
2171.000000	13.620734
2170.000000	13.846177
2169.000000	13.905329
2168.000000	13.959062
2167.000000	14.044587
2166.000000	14.053244
2165.000000	14.063175
2164.000000	14.291126
2163.000000	14.111874
2162.000000	14.441112
2161.000000	14.600621
2160.000000	14.730853
2159.000000	14.828968
2158.000000	14.820288
2157.000000	14.982038
2156.000000	15.162440
2155.000000	15.271031
2154.000000	15.402902
2153.000000	15.692715
2152.000000	15.510940
2151.000000	15.591760
2150.000000	15.805815
2149.000000	16.150460
2148.000000	16.156151
2147.000000	16.359737
2146.000000	16.326923
2145.000000	16.649611
2144.000000	16.727927
2143.000000	16.719024
2142.000000	16.979627
2141.000000	17.159770
2140.000000	17.180555
2139.000000	17.295250
2138.000000	17.455155
2137.000000	17.649211
2136.000000	17.427451
2135.000000	17.711361
2134.000000	17.801471
2133.000000	17.601318
2132.000000	17.899126
2131.000000	18.107026
2130.000000	18.218223
2129.000000	18.263725
2128.000000	18.153995
2127.000000	18.206455
2126.000000	18.425835
2125.000000	18.410988
2124.000000	18.389536
2123.000000	18.453707
2122.000000	18.560458
2121.000000	18.605846
2120.000000	18.506749
2119.000000	18.606673
2118.000000	18.711700
2117.000000	18.646482
2116.000000	18.819264
2115.000000	18.912113
2114.000000	18.751296
2113.000000	18.776965
2112.000000	18.834374
2111.000000	18.660793
2110.000000	18.805776
2109.000000	18.890310
2108.000000	18.708123
2107.000000	18.800464
2106.000000	18.933472
2105.000000	18.839346
2104.000000	19.075261
2103.000000	19.073225
2102.000000	19.023464
2101.000000	19.075682
2100.000000	19.092982
2099.000000	19.021747
2098.000000	19.005870
2097.000000	18.874040
2096.000000	19.018460
2095.000000	18.926432
2094.000000	18.974293
2093.000000	19.014901
2092.000000	19.117303
2091.000000	18.946994
2090.000000	18.956045
2089.000000	18.924798
2088.000000	18.924270
2087.000000	18.797131
2086.000000	18.789333
2085.000000	18.833323
2084.000000	18.691837
2083.000000	18.623674
2082.000000	18.625593
2081.000000	18.540071
2080.000000	18.377399
2079.000000	18.330844
2078.000000	18.219876
2077.000000	18.149347
2076.000000	18.031739
2075.000000	17.909529
2074.000000	17.895072
2073.000000	17.819424
2072.000000	17.722914
2071.000000	17.655592
2070.000000	17.467038
2069.000000	17.296461
2068.000000	17.127074
2067.000000	16.999828
2066.000000	16.870717
2065.000000	16.674830
2064.000000	16.539522
2063.000000	16.428864
2062.000000	16.277045
2061.000000	16.085340
2060.000000	15.932174
2059.000000	15.806155
2058.000000	15.602401
2057.000000	15.451213
2056.000000	15.330789
2055.000000	15.261345
2054.000000	15.112892
2053.000000	14.915767
2052.000000	14.802417
2051.000000	14.680462
2050.000000	14.519113
2049.000000	14.386331
2048.000000	14.356305
2047.000000	14.338485
2046.000000	14.244279
2045.000000	14.222509
2044.000000	14.167002
2043.000000	14.089819
2042.000000	14.091622
2041.000000	14.157659
2040.000000	14.207272
2039.000000	14.238102
2038.000000	14.261170
2037.000000	14.272176
2036.000000	14.348104
2035.000000	14.460748
2034.000000	14.550093
2033.000000	14.634758
2032.000000	14.755593
2031.000000	14.861513
2030.000000	14.961823
2029.000000	15.082132
2028.000000	15.221267
2027.000000	15.358748
2026.000000	15.480258
2025.000000	15.536673
2024.000000	15.584245
2023.000000	15.672784
2022.000000	15.764279
2021.000000	15.797423
2020.000000	15.875010
2019.000000	15.946814
2018.000000	15.940631
2017.000000	15.948598
2016.000000	15.981138
2015.000000	16.005490
2014.000000	15.982410
2013.000000	15.918430
2012.000000	15.859241
2011.000000	15.831256
2010.000000	15.773871
2009.000000	15.742080
2008.000000	15.709040
2007.000000	15.594402
2006.000000	15.474567
2005.000000	15.381165
2004.000000	15.304925
2003.000000	15.264598
2002.000000	15.170872
2001.000000	15.046781
2000.000000	14.982866
1999.000000	14.881113
1998.000000	14.781627
1997.000000	14.678485
1996.000000	14.601791
1995.000000	14.505725
1994.000000	14.354189
1993.000000	14.219862
1992.000000	14.153426
1991.000000	14.045669
1990.000000	13.959740
1989.000000	13.857906
1988.000000	13.717431
1987.000000	13.605528
1986.000000	13.498512
1985.000000	13.420673
1984.000000	13.323743
1983.000000	13.241457
1982.000000	13.157198
1981.000000	13.060870
1980.000000	12.972465
1979.000000	12.884486
1978.000000	12.745119
1977.000000	12.646094
1976.000000	12.512914
1975.000000	12.466917
1974.000000	12.374431
1973.000000	12.300660
1972.000000	12.211969
1971.000000	12.139685
1970.000000	12.027946
1969.000000	11.944931
1968.000000	11.851222
1967.000000	11.787534
1966.000000	11.695652
1965.000000	11.589554
1964.000000	11.480219
1963.000000	11.427897
1962.000000	11.325322
1961.000000	11.238119
1960.000000	11.178462
1959.000000	11.109782
1958.000000	11.070404
1957.000000	11.041560
1956.000000	10.941458
1955.000000	10.894323
1954.000000	10.846781
1953.000000	10.755454
1952.000000	10.704140
1951.000000	10.725906
1950.000000	10.683049
1949.000000	10.689521
1948.000000	10.648308
1947.000000	10.605909
1946.000000	10.556691
1945.000000	10.626864
1944.000000	10.642970
1943.000000	10.707004
1942.000000	10.690006
1941.000000	10.700542
1940.000000	10.795629
1939.000000	10.816745
1938.000000	10.921867
1937.000000	11.014902
1936.000000	11.077432
1935.000000	11.184665
1934.000000	11.301412
1933.000000	11.353647
1932.000000	11.461535
1931.000000	11.684611
1930.000000	11.887325
1929.000000	11.970669
1928.000000	12.186793
1927.000000	12.476941
1926.000000	12.602246
1925.000000	12.796968
1924.000000	13.036311
1923.000000	13.269927
1922.000000	13.433659
1921.000000	13.850514
1920.000000	14.037996
1919.000000	14.334398
1918.000000	14.660081
1917.000000	14.993948
1916.000000	15.263219
1915.000000	15.673416
1914.000000	16.086538
1913.000000	16.377517
1912.000000	16.687401
1911.000000	17.083261
1910.000000	17.576016
1909.000000	17.855583
1908.000000	18.358686
1907.000000	18.724030
1906.000000	19.266287
1905.000000	19.700096
1904.000000	20.270773
1903.000000	20.699687
1902.000000	21.158627
1901.000000	21.759747
1900.000000	22.248514
1899.000000	22.785236
1898.000000	23.336600
1897.000000	23.825216
1896.000000	24.311872
1895.000000	24.854919
1894.000000	25.365975
1893.000000	25.892744
1892.000000	26.330471
1891.000000	26.825437
1890.000000	27.345779
1889.000000	27.781743
1888.000000	28.218675
1887.000000	28.662472
1886.000000	29.143211
1885.000000	29.592792
1884.000000	30.005553
1883.000000	30.448946
1882.000000	30.785460
1881.000000	31.120251
1880.000000	31.488546
1879.000000	31.839702
1878.000000	32.159923
1877.000000	32.480717
1876.000000	32.792214
1875.000000	33.087081
1874.000000	33.362029
1873.000000	33.631655
1872.000000	33.844526
1871.000000	34.063340
1870.000000	34.260550
1869.000000	34.439497
1868.000000	34.650710
1867.000000	34.782921
1866.000000	34.889138
1865.000000	35.018569
1864.000000	35.110621
1863.000000	35.235808
1862.000000	35.273696
1861.000000	35.348004
1860.000000	35.411428
1859.000000	35.475887
1858.000000	35.520388
1857.000000	35.567830
1856.000000	35.617482
1855.000000	35.631088
1854.000000	35.680165
1853.000000	35.754468
1852.000000	35.750452
1851.000000	35.782381
1850.000000	35.813355
1849.000000	35.796127
1848.000000	35.779031
1847.000000	35.765800
1846.000000	35.771305
1845.000000	35.764531
1844.000000	35.715036
1843.000000	35.683282
1842.000000	35.654840
1841.000000	35.641734
1840.000000	35.556746
1839.000000	35.551737
1838.000000	35.521788
1837.000000	35.446109
1836.000000	35.415302
1835.000000	35.339351
1834.000000	35.258357
1833.000000	35.235788
1832.000000	35.192204
1831.000000	35.121166
1830.000000	35.057615
1829.000000	35.000531
1828.000000	34.944038
1827.000000	34.895351
1826.000000	34.837313
1825.000000	34.774008
1824.000000	34.743174
1823.000000	34.704937
1822.000000	34.652320
1821.000000	34.611324
1820.000000	34.553580
1819.000000	34.511329
1818.000000	34.464679
1817.000000	34.421832
1816.000000	34.378095
1815.000000	34.327220
1814.000000	34.290410
1813.000000	34.227760
1812.000000	34.171963
1811.000000	34.142824
1810.000000	34.101598
1809.000000	34.066600
1808.000000	34.019869
1807.000000	33.974940
1806.000000	33.941399
1805.000000	33.896265
1804.000000	33.843583
1803.000000	33.789881
1802.000000	33.750781
1801.000000	33.724769
1800.000000	33.707103
1799.000000	33.668093
1798.000000	33.635561
1797.000000	33.616407
1796.000000	33.576971
1795.000000	33.542814
1794.000000	33.524823
1793.000000	33.499030
1792.000000	33.469825
1791.000000	33.462627
1790.000000	33.433136
1789.000000	33.383689
1788.000000	33.372781
1787.000000	33.351725
1786.000000	33.309163
1785.000000	33.275263
1784.000000	33.252691
1783.000000	33.210148
1782.000000	33.174581
1781.000000	33.127150
1780.000000	33.084666
1779.000000	33.066640
1778.000000	33.010002
1777.000000	32.933917
1776.000000	32.903939
1775.000000	32.834187
1774.000000	32.756677
1773.000000	32.733400
1772.000000	32.658126
1771.000000	32.570653
1770.000000	32.506575
1769.000000	32.449208
1768.000000	32.393482
1767.000000	32.343069
1766.000000	32.277322
1765.000000	32.220294
1764.000000	32.170672
1763.000000	32.073432
1762.000000	32.010650
1761.000000	31.940434
1760.000000	31.873159
1759.000000	31.822390
1758.000000	31.766457
1757.000000	31.704634
1756.000000	31.661346
1755.000000	31.579118
1754.000000	31.535365
1753.000000	31.465648
1752.000000	31.387290
1751.000000	31.334891
1750.000000	31.259457
1749.000000	31.221668
1748.000000	31.166477
1747.000000	31.079593
1746.000000	30.995180
1745.000000	30.968308
1744.000000	30.887482
1743.000000	30.827062
1742.000000	30.758317
1741.000000	30.703700
1740.000000	30.659257
1739.000000	30.588368
1738.000000	30.533376
1737.000000	30.483076
1736.000000	30.452316
1735.000000	30.425992
1734.000000	30.440323
1733.000000	30.412752
1732.000000	30.413144
1731.000000	30.441164
1730.000000	30.458222
1729.000000	30.500422
1728.000000	30.524095
1727.000000	30.568425
1726.000000	30.622610
1725.000000	30.687440
1724.000000	30.774430
1723.000000	30.856219
1722.000000	30.953980
1721.000000	31.074451
1720.000000	31.146342
1719.000000	31.288620
1718.000000	31.386317
1717.000000	31.475158
1716.000000	31.594220
1715.000000	31.678484
1714.000000	31.759340
1713.000000	31.822968
1712.000000	31.930494
1711.000000	32.006866
1710.000000	32.082913
1709.000000	32.122219
1708.000000	32.185402
1707.000000	32.216600
1706.000000	32.294029
1705.000000	32.288379
1704.000000	32.302666
1703.000000	32.328174
1702.000000	32.349268
1701.000000	32.388130
1700.000000	32.379570
1699.000000	32.381698
1698.000000	32.416185
1697.000000	32.450231
1696.000000	32.503010
1695.000000	32.514958
1694.000000	32.555747
1693.000000	32.602909
1692.000000	32.667405
1691.000000	32.734993
1690.000000	32.837421
1689.000000	32.936946
1688.000000	33.029175
1687.000000	33.183157
1686.000000	33.336712
1685.000000	33.467427
1684.000000	33.629684
1683.000000	33.790024
1682.000000	33.965397
1681.000000	34.173476
1680.000000	34.364575
1679.000000	34.540027
1678.000000	34.743639
1677.000000	34.942096
1676.000000	35.135179
1675.000000	35.329623
1674.000000	35.546573
1673.000000	35.729929
1672.000000	35.919734
1671.000000	36.116561
1670.000000	36.288831
1669.000000	36.491969
1668.000000	36.628497
1667.000000	36.784702
1666.000000	36.893185
1665.000000	36.999854
1664.000000	37.100994
1663.000000	37.221636
1662.000000	37.304646
1661.000000	37.375553
1660.000000	37.445826
1659.000000	37.545459
1658.000000	37.596143
1657.000000	37.609681
1656.000000	37.657465
1655.000000	37.689955
1654.000000	37.739452
1653.000000	37.767909
1652.000000	37.776004
1651.000000	37.763216
1650.000000	37.763458
1649.000000	37.747769
1648.000000	37.735037
1647.000000	37.707770
1646.000000	37.698368
1645.000000	37.662272
1644.000000	37.640474
1643.000000	37.616291
1642.000000	37.585105
1641.000000	37.547098
1640.000000	37.498848
1639.000000	37.470604
1638.000000	37.444393
1637.000000	37.399794
1636.000000	37.321472
1635.000000	37.285722
1634.000000	37.248061
1633.000000	37.175738
1632.000000	37.118970
1631.000000	37.071022
1630.000000	37.012932
1629.000000	36.958488
1628.000000	36.900624
1627.000000	36.849723
1626.000000	36.774727
1625.000000	36.718468
1624.000000	36.662588
1623.000000	36.595828
1622.000000	36.533939
1621.000000	36.462776
1620.000000	36.404679
1619.000000	36.331996
1618.000000	36.252935
1617.000000	36.198632
1616.000000	36.129106
1615.000000	36.051556
1614.000000	35.978083
1613.000000	35.901238
1612.000000	35.840381
1611.000000	35.766579
1610.000000	35.696402
1609.000000	35.609168
1608.000000	35.526017
1607.000000	35.447170
1606.000000	35.359847
1605.000000	35.292872
1604.000000	35.203552
1603.000000	35.114194
1602.000000	35.055472
1601.000000	34.988184
1600.000000	34.917347
1599.000000	34.832919
1598.000000	34.751285
1597.000000	34.673684
1596.000000	34.597118
1595.000000	34.533962
1594.000000	34.474352
1593.000000	34.405021
1592.000000	34.341047
1591.000000	34.273812
1590.000000	34.194113
1589.000000	34.129440
1588.000000	34.077041
1587.000000	34.024983
1586.000000	33.958614
1585.000000	33.890989
1584.000000	33.843139
1583.000000	33.787221
1582.000000	33.717485
1581.000000	33.658176
1580.000000	33.602471
1579.000000	33.546343
1578.000000	33.501995
1577.000000	33.442565
1576.000000	33.361686
1575.000000	33.305724
1574.000000	33.250971
1573.000000	33.186533
1572.000000	33.127677
1571.000000	33.086984
1570.000000	33.041457
1569.000000	32.980954
1568.000000	32.928127
1567.000000	32.870905
1566.000000	32.823553
1565.000000	32.793437
1564.000000	32.764861
1563.000000	32.725424
1562.000000	32.672342
1561.000000	32.634346
1560.000000	32.605205
1559.000000	32.580818
1558.000000	32.547930
1557.000000	32.501101
1556.000000	32.483026
1555.000000	32.465589
1554.000000	32.424982
1553.000000	32.382170
1552.000000	32.354028
1551.000000	32.303148
1550.000000	32.246084
1549.000000	32.190620
1548.000000	32.138418
1547.000000	32.083560
1546.000000	32.013641
1545.000000	31.935512
1544.000000	31.854011
1543.000000	31.758092
1542.000000	31.683947
1541.000000	31.584952
1540.000000	31.502463
1539.000000	31.403680
1538.000000	31.306860
1537.000000	31.196837
1536.000000	31.086178
1535.000000	30.991652
1534.000000	30.893646
1533.000000	30.814547
1532.000000	30.700975
1531.000000	30.603670
1530.000000	30.518967
1529.000000	30.407066
1528.000000	30.324404
1527.000000	30.244574
1526.000000	30.169538
1525.000000	30.093326
1524.000000	30.013777
1523.000000	29.963254
1522.000000	29.899196
1521.000000	29.836175
1520.000000	29.781843
1519.000000	29.735817
1518.000000	29.688313
1517.000000	29.637670
1516.000000	29.609255
1515.000000	29.558822
1514.000000	29.533316
1513.000000	29.474545
1512.000000	29.448129
1511.000000	29.420497
1510.000000	29.385631
1509.000000	29.361715
1508.000000	29.340690
1507.000000	29.327260
1506.000000	29.315539
1505.000000	29.286168
1504.000000	29.261516
1503.000000	29.272872
1502.000000	29.229308
1501.000000	29.222289
1500.000000	29.234977
1499.000000	29.221355
1498.000000	29.227360
1497.000000	29.262370
1496.000000	29.268330
1495.000000	29.266510
1494.000000	29.272442
1493.000000	29.283622
1492.000000	29.303364
1491.000000	29.335808
1490.000000	29.352800
1489.000000	29.385153
1488.000000	29.423766
1487.000000	29.459592
1486.000000	29.489555
1485.000000	29.525743
1484.000000	29.585272
1483.000000	29.641731
1482.000000	29.655717
1481.000000	29.729024
1480.000000	29.771003
1479.000000	29.806073
1478.000000	29.854455
1477.000000	29.897056
1476.000000	29.937939
1475.000000	29.978081
1474.000000	30.039771
1473.000000	30.078965
1472.000000	30.120622
1471.000000	30.176671
1470.000000	30.210559
