PE UV       SUBTECH     SPECTRUM    ASCII       PEDS        4.00        
   -1
TDgVeauAl 22.Sample.Cycle1.asc
18/03/08
18:39:15.00
18/03/08
18:39:15.00
Administrator

200.000000
1
Lambda 750
750N8071901
PerkinElmer UV WinLab 6.0.4.0738 / 1.61.00 Lambda 900

0
0
3350/servo 860.8/2
0
0
UV/VIS
1
1
1
CommonBeamDepol,150mm sphere / downward view
0
0
0
0
Program
Program
3350/servo 860.8/2
3350/0.2 860.8/0.2
3350/0.2 860.8/0.2
0
1
 
 
 
0
 
860.8
319.2
860.8
Front
100
on
 
 
0
0
0
 
0
 
 
 
0
 
 
0
0
0
0
0
 
 
 
 
0
0


0
0
#HDR
-1
-1
#GR
nm
%T
1.0
0.0
2350.000000
-1.000000
2151
8
34.810834
0.095307
#DATA
2350.000000	7.080483
2349.000000	7.027910
2348.000000	7.256490
2347.000000	7.620964
2346.000000	7.421090
2345.000000	6.891552
2344.000000	7.103845
2343.000000	6.914142
2342.000000	6.724450
2341.000000	7.018156
2340.000000	6.938405
2339.000000	7.200968
2338.000000	7.535134
2337.000000	7.891835
2336.000000	7.795082
2335.000000	7.686905
2334.000000	7.588954
2333.000000	7.746665
2332.000000	8.149979
2331.000000	8.057721
2330.000000	7.995976
2329.000000	8.049405
2328.000000	7.621342
2327.000000	7.998672
2326.000000	7.899378
2325.000000	8.165194
2324.000000	7.735024
2323.000000	7.559671
2322.000000	7.366482
2321.000000	7.301103
2320.000000	7.517714
2319.000000	7.405787
2318.000000	7.622025
2317.000000	7.623164
2316.000000	7.667034
2315.000000	7.482220
2314.000000	7.491875
2313.000000	7.211545
2312.000000	7.105851
2311.000000	7.122755
2310.000000	7.168752
2309.000000	7.061937
2308.000000	6.838930
2307.000000	7.195959
2306.000000	7.081643
2305.000000	7.043940
2304.000000	6.856975
2303.000000	7.015056
2302.000000	6.896548
2301.000000	6.672770
2300.000000	6.884736
2299.000000	6.676230
2298.000000	6.723256
2297.000000	6.616854
2296.000000	6.633497
2295.000000	6.641299
2294.000000	6.334935
2293.000000	6.419723
2292.000000	6.330782
2291.000000	6.270967
2290.000000	6.383844
2289.000000	6.327275
2288.000000	6.379855
2287.000000	6.450547
2286.000000	6.382884
2285.000000	6.267259
2284.000000	6.165998
2283.000000	6.232560
2282.000000	6.114869
2281.000000	5.998520
2280.000000	6.292108
2279.000000	6.551949
2278.000000	6.314575
2277.000000	6.285632
2276.000000	6.198783
2275.000000	6.225118
2274.000000	6.365358
2273.000000	6.484504
2272.000000	6.398736
2271.000000	6.387377
2270.000000	6.312973
2269.000000	6.293069
2268.000000	6.402597
2267.000000	6.493704
2266.000000	6.428283
2265.000000	6.511756
2264.000000	6.670410
2263.000000	6.596160
2262.000000	6.597388
2261.000000	6.871970
2260.000000	7.073846
2259.000000	7.173692
2258.000000	7.297034
2257.000000	7.377847
2256.000000	7.383968
2255.000000	7.321365
2254.000000	7.606166
2253.000000	7.821697
2252.000000	7.769893
2251.000000	7.860061
2250.000000	8.037466
2249.000000	8.218290
2248.000000	8.332667
2247.000000	8.462970
2246.000000	8.550475
2245.000000	8.593765
2244.000000	8.663061
2243.000000	8.833572
2242.000000	9.009598
2241.000000	9.074912
2240.000000	9.102171
2239.000000	9.135913
2238.000000	9.163223
2237.000000	9.176108
2236.000000	9.267432
2235.000000	9.337639
2234.000000	9.420254
2233.000000	9.547203
2232.000000	9.535150
2231.000000	9.556599
2230.000000	9.711663
2229.000000	9.772798
2228.000000	9.668582
2227.000000	9.562609
2226.000000	9.608001
2225.000000	9.680645
2224.000000	9.688222
2223.000000	9.668898
2222.000000	9.713612
2221.000000	9.656387
2220.000000	9.709098
2219.000000	9.581989
2218.000000	9.419374
2217.000000	9.423765
2216.000000	9.422594
2215.000000	9.379287
2214.000000	9.377349
2213.000000	9.375597
2212.000000	9.325102
2211.000000	9.341734
2210.000000	9.253014
2209.000000	9.203080
2208.000000	9.041325
2207.000000	8.984132
2206.000000	8.918628
2205.000000	8.890286
2204.000000	8.871949
2203.000000	8.790062
2202.000000	8.926022
2201.000000	8.910444
2200.000000	8.848070
2199.000000	8.683588
2198.000000	8.604275
2197.000000	8.695393
2196.000000	8.627820
2195.000000	8.627675
2194.000000	8.515251
2193.000000	8.353922
2192.000000	8.427494
2191.000000	8.423209
2190.000000	8.206648
2189.000000	8.205014
2188.000000	8.274186
2187.000000	8.195129
2186.000000	8.251720
2185.000000	8.186044
2184.000000	8.067061
2183.000000	7.979255
2182.000000	8.015731
2181.000000	8.038313
2180.000000	8.025488
2179.000000	7.935127
2178.000000	7.959807
2177.000000	7.974610
2176.000000	7.821378
2175.000000	7.966363
2174.000000	8.007226
2173.000000	8.043315
2172.000000	8.044911
2171.000000	8.126379
2170.000000	8.010327
2169.000000	8.102116
2168.000000	8.139436
2167.000000	8.214398
2166.000000	8.228465
2165.000000	8.253097
2164.000000	8.312118
2163.000000	8.320487
2162.000000	8.537781
2161.000000	8.368873
2160.000000	8.693351
2159.000000	8.666792
2158.000000	8.755472
2157.000000	8.703660
2156.000000	8.815234
2155.000000	8.944605
2154.000000	9.032959
2153.000000	9.237309
2152.000000	9.196956
2151.000000	9.192086
2150.000000	9.408024
2149.000000	9.454469
2148.000000	9.405869
2147.000000	9.456511
2146.000000	9.664107
2145.000000	9.548361
2144.000000	9.882371
2143.000000	9.934013
2142.000000	9.959354
2141.000000	10.130712
2140.000000	10.017127
2139.000000	10.262146
2138.000000	10.356851
2137.000000	10.357375
2136.000000	10.348256
2135.000000	10.355387
2134.000000	10.523644
2133.000000	10.263293
2132.000000	10.668734
2131.000000	10.753088
2130.000000	10.758700
2129.000000	10.768714
2128.000000	10.665087
2127.000000	10.653737
2126.000000	10.738140
2125.000000	10.759037
2124.000000	10.900725
2123.000000	10.932763
2122.000000	10.970413
2121.000000	10.973309
2120.000000	11.053359
2119.000000	10.936068
2118.000000	10.953808
2117.000000	10.967715
2116.000000	11.095507
2115.000000	11.256386
2114.000000	11.212531
2113.000000	11.105816
2112.000000	11.159159
2111.000000	11.216439
2110.000000	11.031307
2109.000000	11.099419
2108.000000	11.278392
2107.000000	11.191361
2106.000000	11.252227
2105.000000	11.175290
2104.000000	11.121639
2103.000000	11.302159
2102.000000	11.293369
2101.000000	11.384289
2100.000000	11.355712
2099.000000	11.327811
2098.000000	11.418542
2097.000000	11.401201
2096.000000	11.313130
2095.000000	11.145819
2094.000000	11.282195
2093.000000	11.288361
2092.000000	11.310427
2091.000000	11.333917
2090.000000	11.328278
2089.000000	11.194537
2088.000000	11.183801
2087.000000	11.203999
2086.000000	11.298668
2085.000000	11.249219
2084.000000	11.117230
2083.000000	11.115697
2082.000000	11.052780
2081.000000	11.007253
2080.000000	11.056540
2079.000000	10.979773
2078.000000	10.925847
2077.000000	10.991667
2076.000000	10.837700
2075.000000	10.721094
2074.000000	10.712891
2073.000000	10.628106
2072.000000	10.532741
2071.000000	10.428252
2070.000000	10.455622
2069.000000	10.266339
2068.000000	10.144341
2067.000000	10.086657
2066.000000	9.998486
2065.000000	9.897016
2064.000000	9.848729
2063.000000	9.722543
2062.000000	9.668492
2061.000000	9.497965
2060.000000	9.459214
2059.000000	9.418102
2058.000000	9.281898
2057.000000	9.170560
2056.000000	9.098130
2055.000000	8.985287
2054.000000	8.877665
2053.000000	8.783589
2052.000000	8.734155
2051.000000	8.648067
2050.000000	8.566347
2049.000000	8.516130
2048.000000	8.470250
2047.000000	8.440055
2046.000000	8.411268
2045.000000	8.351318
2044.000000	8.323316
2043.000000	8.333047
2042.000000	8.339857
2041.000000	8.406432
2040.000000	8.439993
2039.000000	8.406311
2038.000000	8.440045
2037.000000	8.472202
2036.000000	8.521496
2035.000000	8.618998
2034.000000	8.633748
2033.000000	8.688238
2032.000000	8.806703
2031.000000	8.881412
2030.000000	8.928932
2029.000000	9.023136
2028.000000	9.098700
2027.000000	9.169550
2026.000000	9.298978
2025.000000	9.360438
2024.000000	9.374652
2023.000000	9.418744
2022.000000	9.449825
2021.000000	9.470846
2020.000000	9.526079
2019.000000	9.538420
2018.000000	9.560391
2017.000000	9.595052
2016.000000	9.607529
2015.000000	9.620601
2014.000000	9.589689
2013.000000	9.599632
2012.000000	9.612855
2011.000000	9.562384
2010.000000	9.519036
2009.000000	9.495700
2008.000000	9.485055
2007.000000	9.457866
2006.000000	9.376111
2005.000000	9.318316
2004.000000	9.284821
2003.000000	9.254157
2002.000000	9.200900
2001.000000	9.119676
2000.000000	9.046486
1999.000000	8.983659
1998.000000	8.927214
1997.000000	8.908630
1996.000000	8.854186
1995.000000	8.800029
1994.000000	8.725423
1993.000000	8.619103
1992.000000	8.565886
1991.000000	8.480014
1990.000000	8.440422
1989.000000	8.390076
1988.000000	8.339829
1987.000000	8.280603
1986.000000	8.196495
1985.000000	8.186605
1984.000000	8.121793
1983.000000	8.061909
1982.000000	8.009915
1981.000000	7.936798
1980.000000	7.855507
1979.000000	7.812186
1978.000000	7.739375
1977.000000	7.666837
1976.000000	7.625777
1975.000000	7.630592
1974.000000	7.576807
1973.000000	7.518935
1972.000000	7.520700
1971.000000	7.383488
1970.000000	7.354067
1969.000000	7.316542
1968.000000	7.246768
1967.000000	7.201578
1966.000000	7.132919
1965.000000	7.103174
1964.000000	7.035155
1963.000000	7.025769
1962.000000	6.946676
1961.000000	6.926930
1960.000000	6.860446
1959.000000	6.792471
1958.000000	6.815598
1957.000000	6.786445
1956.000000	6.731692
1955.000000	6.671625
1954.000000	6.684624
1953.000000	6.621031
1952.000000	6.590825
1951.000000	6.619272
1950.000000	6.592013
1949.000000	6.543581
1948.000000	6.509111
1947.000000	6.485450
1946.000000	6.484892
1945.000000	6.513549
1944.000000	6.431324
1943.000000	6.502453
1942.000000	6.572181
1941.000000	6.538922
1940.000000	6.572295
1939.000000	6.552505
1938.000000	6.631841
1937.000000	6.649092
1936.000000	6.741497
1935.000000	6.828361
1934.000000	6.734795
1933.000000	6.849339
1932.000000	7.004266
1931.000000	6.978974
1930.000000	7.105572
1929.000000	7.181997
1928.000000	7.344911
1927.000000	7.414921
1926.000000	7.506749
1925.000000	7.734953
1924.000000	7.790617
1923.000000	7.922234
1922.000000	8.076280
1921.000000	8.195425
1920.000000	8.368131
1919.000000	8.591791
1918.000000	8.794714
1917.000000	8.948942
1916.000000	9.030744
1915.000000	9.326155
1914.000000	9.577409
1913.000000	9.831081
1912.000000	9.999586
1911.000000	10.238977
1910.000000	10.517068
1909.000000	10.775370
1908.000000	10.955377
1907.000000	11.316450
1906.000000	11.612131
1905.000000	11.889478
1904.000000	12.322103
1903.000000	12.506717
1902.000000	12.837615
1901.000000	13.284322
1900.000000	13.642455
1899.000000	14.031067
1898.000000	14.389297
1897.000000	14.734013
1896.000000	15.073593
1895.000000	15.491311
1894.000000	15.803019
1893.000000	16.208469
1892.000000	16.543878
1891.000000	16.914745
1890.000000	17.272644
1889.000000	17.593602
1888.000000	17.958995
1887.000000	18.267514
1886.000000	18.594317
1885.000000	18.941937
1884.000000	19.253050
1883.000000	19.602243
1882.000000	19.869048
1881.000000	20.085575
1880.000000	20.363736
1879.000000	20.645400
1878.000000	20.916705
1877.000000	21.145218
1876.000000	21.405664
1875.000000	21.698022
1874.000000	21.912938
1873.000000	22.045172
1872.000000	22.252587
1871.000000	22.396591
1870.000000	22.547926
1869.000000	22.696999
1868.000000	22.838756
1867.000000	22.922845
1866.000000	22.966211
1865.000000	23.096604
1864.000000	23.142738
1863.000000	23.213827
1862.000000	23.287482
1861.000000	23.371456
1860.000000	23.438195
1859.000000	23.482835
1858.000000	23.540309
1857.000000	23.577897
1856.000000	23.569652
1855.000000	23.621979
1854.000000	23.658564
1853.000000	23.717691
1852.000000	23.689951
1851.000000	23.708915
1850.000000	23.725864
1849.000000	23.724204
1848.000000	23.736740
1847.000000	23.756096
1846.000000	23.735037
1845.000000	23.694885
1844.000000	23.653024
1843.000000	23.666939
1842.000000	23.649122
1841.000000	23.657593
1840.000000	23.618783
1839.000000	23.585838
1838.000000	23.554352
1837.000000	23.518572
1836.000000	23.462714
1835.000000	23.417533
1834.000000	23.380885
1833.000000	23.322728
1832.000000	23.289832
1831.000000	23.241149
1830.000000	23.207269
1829.000000	23.169123
1828.000000	23.136679
1827.000000	23.094737
1826.000000	23.064276
1825.000000	23.038132
1824.000000	23.014747
1823.000000	22.980658
1822.000000	22.917689
1821.000000	22.878596
1820.000000	22.853687
1819.000000	22.815489
1818.000000	22.782614
1817.000000	22.749915
1816.000000	22.694479
1815.000000	22.671170
1814.000000	22.648741
1813.000000	22.613378
1812.000000	22.581034
1811.000000	22.544461
1810.000000	22.524344
1809.000000	22.501046
1808.000000	22.464112
1807.000000	22.428965
1806.000000	22.402564
1805.000000	22.371182
1804.000000	22.327494
1803.000000	22.294733
1802.000000	22.272598
1801.000000	22.251946
1800.000000	22.227154
1799.000000	22.189689
1798.000000	22.158772
1797.000000	22.131952
1796.000000	22.109968
1795.000000	22.112702
1794.000000	22.107209
1793.000000	22.091305
1792.000000	22.068417
1791.000000	22.055510
1790.000000	22.010034
1789.000000	21.984143
1788.000000	21.978508
1787.000000	21.941236
1786.000000	21.913366
1785.000000	21.896095
1784.000000	21.883508
1783.000000	21.856858
1782.000000	21.818652
1781.000000	21.780899
1780.000000	21.751617
1779.000000	21.734810
1778.000000	21.686479
1777.000000	21.643102
1776.000000	21.580210
1775.000000	21.538805
1774.000000	21.496569
1773.000000	21.452391
1772.000000	21.378160
1771.000000	21.339897
1770.000000	21.310869
1769.000000	21.258442
1768.000000	21.208632
1767.000000	21.127230
1766.000000	21.084709
1765.000000	21.048977
1764.000000	21.019369
1763.000000	20.960563
1762.000000	20.917959
1761.000000	20.847664
1760.000000	20.822387
1759.000000	20.796125
1758.000000	20.712820
1757.000000	20.657807
1756.000000	20.633306
1755.000000	20.592392
1754.000000	20.548241
1753.000000	20.487201
1752.000000	20.440807
1751.000000	20.398790
1750.000000	20.351262
1749.000000	20.334636
1748.000000	20.270152
1747.000000	20.187553
1746.000000	20.136905
1745.000000	20.104307
1744.000000	20.040684
1743.000000	19.985015
1742.000000	19.936331
1741.000000	19.908870
1740.000000	19.866298
1739.000000	19.823352
1738.000000	19.774744
1737.000000	19.753060
1736.000000	19.720381
1735.000000	19.701655
1734.000000	19.708141
1733.000000	19.695403
1732.000000	19.675974
1731.000000	19.659545
1730.000000	19.667004
1729.000000	19.691978
1728.000000	19.755197
1727.000000	19.795737
1726.000000	19.839841
1725.000000	19.867771
1724.000000	19.955288
1723.000000	20.016841
1722.000000	20.066589
1721.000000	20.189746
1720.000000	20.240259
1719.000000	20.393972
1718.000000	20.424254
1717.000000	20.493439
1716.000000	20.567932
1715.000000	20.645582
1714.000000	20.739424
1713.000000	20.779441
1712.000000	20.856261
1711.000000	20.931199
1710.000000	20.984416
1709.000000	21.011997
1708.000000	21.072489
1707.000000	21.125948
1706.000000	21.165691
1705.000000	21.187133
1704.000000	21.218377
1703.000000	21.231970
1702.000000	21.247562
1701.000000	21.256034
1700.000000	21.266849
1699.000000	21.258744
1698.000000	21.306346
1697.000000	21.340314
1696.000000	21.372598
1695.000000	21.377291
1694.000000	21.434712
1693.000000	21.463158
1692.000000	21.518142
1691.000000	21.560928
1690.000000	21.606841
1689.000000	21.729807
1688.000000	21.806137
1687.000000	21.879121
1686.000000	22.027088
1685.000000	22.105951
1684.000000	22.234832
1683.000000	22.365670
1682.000000	22.513991
1681.000000	22.671605
1680.000000	22.815574
1679.000000	22.959048
1678.000000	23.115127
1677.000000	23.262807
1676.000000	23.402175
1675.000000	23.567909
1674.000000	23.739507
1673.000000	23.883766
1672.000000	24.019864
1671.000000	24.207466
1670.000000	24.350708
1669.000000	24.457546
1668.000000	24.564768
1667.000000	24.720548
1666.000000	24.777554
1665.000000	24.879852
1664.000000	24.955302
1663.000000	25.020486
1662.000000	25.114873
1661.000000	25.182840
1660.000000	25.259970
1659.000000	25.311652
1658.000000	25.366899
1657.000000	25.393758
1656.000000	25.436831
1655.000000	25.470861
1654.000000	25.506961
1653.000000	25.519408
1652.000000	25.512454
1651.000000	25.530585
1650.000000	25.528790
1649.000000	25.531546
1648.000000	25.514336
1647.000000	25.519249
1646.000000	25.530654
1645.000000	25.507820
1644.000000	25.470544
1643.000000	25.462075
1642.000000	25.442163
1641.000000	25.406160
1640.000000	25.373022
1639.000000	25.340848
1638.000000	25.313080
1637.000000	25.307076
1636.000000	25.253036
1635.000000	25.210568
1634.000000	25.177380
1633.000000	25.146336
1632.000000	25.100734
1631.000000	25.057363
1630.000000	25.014865
1629.000000	24.970246
1628.000000	24.935276
1627.000000	24.896381
1626.000000	24.853383
1625.000000	24.813441
1624.000000	24.771808
1623.000000	24.730494
1622.000000	24.679811
1621.000000	24.628410
1620.000000	24.569317
1619.000000	24.521899
1618.000000	24.471154
1617.000000	24.412597
1616.000000	24.356966
1615.000000	24.305211
1614.000000	24.256481
1613.000000	24.206303
1612.000000	24.147060
1611.000000	24.080861
1610.000000	24.019884
1609.000000	23.963416
1608.000000	23.911423
1607.000000	23.862375
1606.000000	23.806056
1605.000000	23.749857
1604.000000	23.678206
1603.000000	23.611871
1602.000000	23.560625
1601.000000	23.507610
1600.000000	23.449041
1599.000000	23.383806
1598.000000	23.306658
1597.000000	23.259905
1596.000000	23.220123
1595.000000	23.162774
1594.000000	23.111358
1593.000000	23.068907
1592.000000	23.029439
1591.000000	22.975001
1590.000000	22.907218
1589.000000	22.858732
1588.000000	22.808299
1587.000000	22.767424
1586.000000	22.727567
1585.000000	22.681022
1584.000000	22.627110
1583.000000	22.577744
1582.000000	22.547592
1581.000000	22.504063
1580.000000	22.463515
1579.000000	22.431834
1578.000000	22.391604
1577.000000	22.335381
1576.000000	22.293408
1575.000000	22.253871
1574.000000	22.202419
1573.000000	22.156153
1572.000000	22.120761
1571.000000	22.078142
1570.000000	22.037731
1569.000000	21.980755
1568.000000	21.945740
1567.000000	21.930271
1566.000000	21.888444
1565.000000	21.857161
1564.000000	21.832745
1563.000000	21.818502
1562.000000	21.792260
1561.000000	21.753733
1560.000000	21.737444
1559.000000	21.714706
1558.000000	21.684715
1557.000000	21.657918
1556.000000	21.634089
1555.000000	21.633298
1554.000000	21.598669
1553.000000	21.565168
1552.000000	21.537904
1551.000000	21.504422
1550.000000	21.469452
1549.000000	21.439187
1548.000000	21.397437
1547.000000	21.345650
1546.000000	21.285639
1545.000000	21.231223
1544.000000	21.175238
1543.000000	21.107655
1542.000000	21.040734
1541.000000	20.963474
1540.000000	20.893094
1539.000000	20.813771
1538.000000	20.733312
1537.000000	20.669046
1536.000000	20.598252
1535.000000	20.507223
1534.000000	20.424308
1533.000000	20.352092
1532.000000	20.272090
1531.000000	20.199313
1530.000000	20.125147
1529.000000	20.047783
1528.000000	19.981332
1527.000000	19.910335
1526.000000	19.860639
1525.000000	19.809662
1524.000000	19.737461
1523.000000	19.708458
1522.000000	19.644052
1521.000000	19.606658
1520.000000	19.565407
1519.000000	19.530465
1518.000000	19.489449
1517.000000	19.461012
1516.000000	19.423831
1515.000000	19.375217
1514.000000	19.357798
1513.000000	19.350948
1512.000000	19.318264
1511.000000	19.299160
1510.000000	19.294205
1509.000000	19.300344
1508.000000	19.312622
1507.000000	19.312921
1506.000000	19.286768
1505.000000	19.249235
1504.000000	19.249830
1503.000000	19.215469
1502.000000	19.202039
1501.000000	19.196384
1500.000000	19.176204
1499.000000	19.173325
1498.000000	19.185150
1497.000000	19.189298
1496.000000	19.195942
1495.000000	19.215013
1494.000000	19.226041
1493.000000	19.239725
1492.000000	19.246155
1491.000000	19.273553
1490.000000	19.312121
1489.000000	19.336754
1488.000000	19.360221
1487.000000	19.411158
1486.000000	19.423879
1485.000000	19.456965
1484.000000	19.489455
1483.000000	19.551825
1482.000000	19.558095
1481.000000	19.638395
1480.000000	19.672697
1479.000000	19.710678
1478.000000	19.744245
1477.000000	19.797534
1476.000000	19.806898
1475.000000	19.867394
1474.000000	19.912666
1473.000000	19.938236
1472.000000	19.975975
1471.000000	20.018051
1470.000000	20.061305
1469.000000	20.093298
1468.000000	20.156822
1467.000000	20.200091
1466.000000	20.241931
1465.000000	20.266419
1464.000000	20.303113
1463.000000	20.360064
1462.000000	20.380822
1461.000000	20.428184
1460.000000	20.485042
1459.000000	20.525006
1458.000000	20.576634
1457.000000	20.593997
1456.000000	20.652346
1455.000000	20.687548
1454.000000	20.766510
1453.000000	20.819208
