PE UV       SUBTECH     SPECTRUM    ASCII       PEDS        4.00        
   -1
TDgVeauUK 22.Sample.asc
18/03/08
16:40:04.00
18/03/08
16:40:04.00
Administrator

200.000000
1
Lambda 750
750N8071901
PerkinElmer UV WinLab 6.0.4.0738 / 1.61.00 Lambda 900

0
0
3350/servo 860.8/2
0
0
UV/VIS
1
1
1
CommonBeamDepol,150mm sphere / downward view
0
0
0
0
Program
Program
3350/servo 860.8/2
3350/0.2 860.8/0.2
3350/0.2 860.8/0.2
0
1
 
 
 
0
 
860.8
319.2
860.8
Front
100
on
 
 
0
0
0
 
0
 
 
 
0
 
 
0
0
0
0
0
 
 
 
 
0
0


0
0
#HDR
-1
-1
#GR
nm
%T
1.0
0.0
2350.000000
-1.000000
2151
8
51.272552
0.077683
#DATA
2350.000000	14.251791
2349.000000	14.283538
2348.000000	14.539090
2347.000000	15.134626
2346.000000	14.670995
2345.000000	14.463286
2344.000000	14.438592
2343.000000	14.449140
2342.000000	14.314853
2341.000000	14.711981
2340.000000	14.387864
2339.000000	14.659680
2338.000000	15.077513
2337.000000	14.801776
2336.000000	15.165313
2335.000000	15.291310
2334.000000	15.090820
2333.000000	15.319232
2332.000000	15.152237
2331.000000	15.128446
2330.000000	15.187353
2329.000000	15.319857
2328.000000	15.200011
2327.000000	14.977836
2326.000000	15.011629
2325.000000	15.135116
2324.000000	15.266320
2323.000000	15.084860
2322.000000	15.098120
2321.000000	14.834456
2320.000000	14.741352
2319.000000	14.740471
2318.000000	14.796169
2317.000000	14.770726
2316.000000	14.840774
2315.000000	14.732516
2314.000000	14.604011
2313.000000	14.506538
2312.000000	14.517481
2311.000000	14.550845
2310.000000	14.545633
2309.000000	14.299722
2308.000000	14.159879
2307.000000	14.178982
2306.000000	13.975477
2305.000000	13.969804
2304.000000	13.858685
2303.000000	13.878826
2302.000000	13.868047
2301.000000	13.652838
2300.000000	13.335379
2299.000000	13.202778
2298.000000	13.389143
2297.000000	13.324728
2296.000000	13.133463
2295.000000	12.893746
2294.000000	12.744102
2293.000000	12.802101
2292.000000	12.746576
2291.000000	12.694615
2290.000000	12.578008
2289.000000	12.469512
2288.000000	12.572088
2287.000000	12.537732
2286.000000	12.430994
2285.000000	12.313013
2284.000000	12.328185
2283.000000	12.329344
2282.000000	12.331690
2281.000000	12.385508
2280.000000	12.503517
2279.000000	12.419962
2278.000000	12.332584
2277.000000	12.369669
2276.000000	12.511813
2275.000000	12.479566
2274.000000	12.491273
2273.000000	12.659192
2272.000000	12.786745
2271.000000	12.715940
2270.000000	12.615673
2269.000000	12.725610
2268.000000	12.807070
2267.000000	13.040977
2266.000000	13.173411
2265.000000	13.283551
2264.000000	13.324620
2263.000000	13.224934
2262.000000	13.521047
2261.000000	13.876107
2260.000000	14.043163
2259.000000	14.124685
2258.000000	14.301617
2257.000000	14.630786
2256.000000	14.639754
2255.000000	14.728497
2254.000000	15.054684
2253.000000	15.224838
2252.000000	15.475958
2251.000000	15.610125
2250.000000	15.746290
2249.000000	16.084951
2248.000000	16.367255
2247.000000	16.554973
2246.000000	16.777422
2245.000000	16.999268
2244.000000	17.149816
2243.000000	17.322572
2242.000000	17.544182
2241.000000	17.574155
2240.000000	17.777866
2239.000000	18.018159
2238.000000	17.984179
2237.000000	18.064942
2236.000000	18.266328
2235.000000	18.354213
2234.000000	18.470666
2233.000000	18.597709
2232.000000	18.630048
2231.000000	18.590970
2230.000000	18.642850
2229.000000	18.713597
2228.000000	18.766636
2227.000000	18.814812
2226.000000	18.725970
2225.000000	18.656757
2224.000000	18.660878
2223.000000	18.524694
2222.000000	18.537676
2221.000000	18.472791
2220.000000	18.514430
2219.000000	18.574279
2218.000000	18.498637
2217.000000	18.519848
2216.000000	18.552823
2215.000000	18.354396
2214.000000	18.338097
2213.000000	18.385992
2212.000000	18.345999
2211.000000	18.216670
2210.000000	18.043230
2209.000000	17.941022
2208.000000	17.834675
2207.000000	17.727561
2206.000000	17.810872
2205.000000	17.748853
2204.000000	17.536412
2203.000000	17.363602
2202.000000	17.297952
2201.000000	17.317207
2200.000000	17.273706
2199.000000	17.172016
2198.000000	16.986960
2197.000000	16.995210
2196.000000	16.909022
2195.000000	16.835443
2194.000000	16.708254
2193.000000	16.631945
2192.000000	16.583475
2191.000000	16.540714
2190.000000	16.374014
2189.000000	16.248965
2188.000000	16.143045
2187.000000	16.032582
2186.000000	16.091812
2185.000000	16.031339
2184.000000	16.099674
2183.000000	16.085937
2182.000000	15.936601
2181.000000	15.908663
2180.000000	15.821084
2179.000000	15.880571
2178.000000	15.896686
2177.000000	15.805990
2176.000000	15.862935
2175.000000	16.004009
2174.000000	15.850038
2173.000000	15.872307
2172.000000	15.987429
2171.000000	16.028301
2170.000000	15.947297
2169.000000	16.039521
2168.000000	16.289897
2167.000000	16.309770
2166.000000	16.274014
2165.000000	16.345517
2164.000000	16.451417
2163.000000	16.532362
2162.000000	16.779607
2161.000000	16.832477
2160.000000	16.873940
2159.000000	17.110644
2158.000000	17.162716
2157.000000	17.335560
2156.000000	17.637182
2155.000000	17.834624
2154.000000	17.878194
2153.000000	18.015043
2152.000000	18.191951
2151.000000	18.177409
2150.000000	18.417116
2149.000000	18.486663
2148.000000	18.644081
2147.000000	18.657661
2146.000000	18.881800
2145.000000	19.142513
2144.000000	19.428645
2143.000000	19.280697
2142.000000	19.531907
2141.000000	19.541151
2140.000000	19.698501
2139.000000	20.025915
2138.000000	20.057909
2137.000000	20.183036
2136.000000	20.195677
2135.000000	20.343730
2134.000000	20.443720
2133.000000	20.238520
2132.000000	20.528713
2131.000000	20.697237
2130.000000	20.770334
2129.000000	20.964146
2128.000000	20.962071
2127.000000	20.996027
2126.000000	21.121631
2125.000000	20.963471
2124.000000	21.072164
2123.000000	21.075260
2122.000000	21.359005
2121.000000	21.360973
2120.000000	21.262670
2119.000000	21.282573
2118.000000	21.308608
2117.000000	21.385286
2116.000000	21.492665
2115.000000	21.415089
2114.000000	21.471254
2113.000000	21.539723
2112.000000	21.544492
2111.000000	21.453430
2110.000000	21.456252
2109.000000	21.602518
2108.000000	21.607718
2107.000000	21.652409
2106.000000	21.719685
2105.000000	21.755437
2104.000000	21.759058
2103.000000	21.713116
2102.000000	21.739645
2101.000000	21.803232
2100.000000	21.799014
2099.000000	21.829204
2098.000000	21.714621
2097.000000	21.772088
2096.000000	21.732806
2095.000000	21.659659
2094.000000	21.652796
2093.000000	21.698894
2092.000000	21.709339
2091.000000	21.686603
2090.000000	21.715639
2089.000000	21.573344
2088.000000	21.582711
2087.000000	21.508342
2086.000000	21.486507
2085.000000	21.432940
2084.000000	21.422518
2083.000000	21.323702
2082.000000	21.186097
2081.000000	21.203893
2080.000000	21.115713
2079.000000	21.006294
2078.000000	20.942285
2077.000000	20.872110
2076.000000	20.730089
2075.000000	20.567709
2074.000000	20.467640
2073.000000	20.363718
2072.000000	20.300009
2071.000000	20.164730
2070.000000	19.998604
2069.000000	19.864820
2068.000000	19.641394
2067.000000	19.501280
2066.000000	19.344324
2065.000000	19.124898
2064.000000	19.018174
2063.000000	18.851089
2062.000000	18.710583
2061.000000	18.582765
2060.000000	18.399304
2059.000000	18.227318
2058.000000	18.039812
2057.000000	17.872458
2056.000000	17.747675
2055.000000	17.579455
2054.000000	17.411183
2053.000000	17.307361
2052.000000	17.165245
2051.000000	17.041004
2050.000000	16.849319
2049.000000	16.742595
2048.000000	16.691340
2047.000000	16.677975
2046.000000	16.518794
2045.000000	16.382830
2044.000000	16.425680
2043.000000	16.395594
2042.000000	16.390042
2041.000000	16.505556
2040.000000	16.555402
2039.000000	16.515787
2038.000000	16.554046
2037.000000	16.608803
2036.000000	16.615495
2035.000000	16.688496
2034.000000	16.846353
2033.000000	16.994919
2032.000000	17.177716
2031.000000	17.246842
2030.000000	17.322401
2029.000000	17.469256
2028.000000	17.614215
2027.000000	17.739539
2026.000000	17.845885
2025.000000	17.937419
2024.000000	18.013143
2023.000000	18.115251
2022.000000	18.175482
2021.000000	18.214540
2020.000000	18.309821
2019.000000	18.344095
2018.000000	18.324455
2017.000000	18.357648
2016.000000	18.390410
2015.000000	18.395930
2014.000000	18.414955
2013.000000	18.400328
2012.000000	18.328198
2011.000000	18.272071
2010.000000	18.213376
2009.000000	18.142338
2008.000000	18.080521
2007.000000	17.998997
2006.000000	17.906886
2005.000000	17.824983
2004.000000	17.730946
2003.000000	17.622734
2002.000000	17.519468
2001.000000	17.407999
2000.000000	17.314811
1999.000000	17.206655
1998.000000	17.086084
1997.000000	16.990226
1996.000000	16.900187
1995.000000	16.774993
1994.000000	16.633470
1993.000000	16.541527
1992.000000	16.413318
1991.000000	16.297546
1990.000000	16.185350
1989.000000	16.036069
1988.000000	15.959240
1987.000000	15.869317
1986.000000	15.760778
1985.000000	15.639855
1984.000000	15.509931
1983.000000	15.395565
1982.000000	15.291924
1981.000000	15.209864
1980.000000	15.077620
1979.000000	14.959344
1978.000000	14.867478
1977.000000	14.725415
1976.000000	14.637732
1975.000000	14.525237
1974.000000	14.406140
1973.000000	14.340681
1972.000000	14.228473
1971.000000	14.097611
1970.000000	14.015348
1969.000000	13.947472
1968.000000	13.866013
1967.000000	13.732796
1966.000000	13.625431
1965.000000	13.554901
1964.000000	13.477947
1963.000000	13.310455
1962.000000	13.233658
1961.000000	13.171523
1960.000000	13.152654
1959.000000	13.015186
1958.000000	12.930055
1957.000000	12.888745
1956.000000	12.822981
1955.000000	12.731282
1954.000000	12.661734
1953.000000	12.605997
1952.000000	12.605872
1951.000000	12.575984
1950.000000	12.544089
1949.000000	12.500470
1948.000000	12.464164
1947.000000	12.420991
1946.000000	12.423378
1945.000000	12.380074
1944.000000	12.434081
1943.000000	12.506854
1942.000000	12.544926
1941.000000	12.556768
1940.000000	12.621639
1939.000000	12.647735
1938.000000	12.739560
1937.000000	12.897119
1936.000000	12.980681
1935.000000	13.083147
1934.000000	13.244823
1933.000000	13.363575
1932.000000	13.538409
1931.000000	13.600504
1930.000000	13.846018
1929.000000	13.983034
1928.000000	14.220419
1927.000000	14.508853
1926.000000	14.667693
1925.000000	14.889584
1924.000000	15.208702
1923.000000	15.425634
1922.000000	15.765612
1921.000000	16.054868
1920.000000	16.320890
1919.000000	16.533520
1918.000000	16.941941
1917.000000	17.379985
1916.000000	17.539150
1915.000000	18.010709
1914.000000	18.385498
1913.000000	18.916333
1912.000000	19.202129
1911.000000	19.577220
1910.000000	20.076564
1909.000000	20.488871
1908.000000	20.965742
1907.000000	21.468804
1906.000000	22.002336
1905.000000	22.547607
1904.000000	22.954162
1903.000000	23.468159
1902.000000	23.981503
1901.000000	24.602108
1900.000000	25.072718
1899.000000	25.566149
1898.000000	26.153765
1897.000000	26.748247
1896.000000	27.238730
1895.000000	27.787013
1894.000000	28.241679
1893.000000	28.759562
1892.000000	29.289576
1891.000000	29.749492
1890.000000	30.255127
1889.000000	30.745330
1888.000000	31.200492
1887.000000	31.618048
1886.000000	32.101800
1885.000000	32.541379
1884.000000	32.947962
1883.000000	33.393827
1882.000000	33.754889
1881.000000	34.158762
1880.000000	34.487681
1879.000000	34.815865
1878.000000	35.170968
1877.000000	35.500348
1876.000000	35.797809
1875.000000	36.097238
1874.000000	36.394658
1873.000000	36.610096
1872.000000	36.847506
1871.000000	36.998217
1870.000000	37.179289
1869.000000	37.345304
1868.000000	37.561593
1867.000000	37.671741
1866.000000	37.780347
1865.000000	37.928403
1864.000000	38.050968
1863.000000	38.135391
1862.000000	38.200957
1861.000000	38.241249
1860.000000	38.335259
1859.000000	38.377297
1858.000000	38.454732
1857.000000	38.503822
1856.000000	38.559200
1855.000000	38.522151
1854.000000	38.558642
1853.000000	38.635537
1852.000000	38.669517
1851.000000	38.691508
1850.000000	38.661444
1849.000000	38.707497
1848.000000	38.679380
1847.000000	38.684293
1846.000000	38.679983
1845.000000	38.596875
1844.000000	38.575679
1843.000000	38.564028
1842.000000	38.547679
1841.000000	38.507567
1840.000000	38.459691
1839.000000	38.433572
1838.000000	38.405989
1837.000000	38.308397
1836.000000	38.230645
1835.000000	38.182526
1834.000000	38.138071
1833.000000	38.102582
1832.000000	38.059767
1831.000000	37.992186
1830.000000	37.940354
1829.000000	37.881438
1828.000000	37.816806
1827.000000	37.762912
1826.000000	37.724590
1825.000000	37.675745
1824.000000	37.632041
1823.000000	37.608849
1822.000000	37.565919
1821.000000	37.524133
1820.000000	37.483953
1819.000000	37.419050
1818.000000	37.377538
1817.000000	37.338236
1816.000000	37.284290
1815.000000	37.229773
1814.000000	37.178773
1813.000000	37.144663
1812.000000	37.108384
1811.000000	37.042569
1810.000000	36.979121
1809.000000	36.961254
1808.000000	36.947050
1807.000000	36.896800
1806.000000	36.842737
1805.000000	36.794677
1804.000000	36.747068
1803.000000	36.709275
1802.000000	36.653202
1801.000000	36.624429
1800.000000	36.621713
1799.000000	36.588819
1798.000000	36.532252
1797.000000	36.510808
1796.000000	36.488621
1795.000000	36.436994
1794.000000	36.430003
1793.000000	36.401771
1792.000000	36.360196
1791.000000	36.357846
1790.000000	36.334906
1789.000000	36.294659
1788.000000	36.273924
1787.000000	36.234951
1786.000000	36.203996
1785.000000	36.197147
1784.000000	36.174891
1783.000000	36.134480
1782.000000	36.096648
1781.000000	36.064537
1780.000000	36.009545
1779.000000	35.976522
1778.000000	35.900594
1777.000000	35.854639
1776.000000	35.809098
1775.000000	35.761112
1774.000000	35.700190
1773.000000	35.643934
1772.000000	35.579283
1771.000000	35.510629
1770.000000	35.465262
1769.000000	35.393414
1768.000000	35.331674
1767.000000	35.278659
1766.000000	35.219629
1765.000000	35.146918
1764.000000	35.117732
1763.000000	35.057133
1762.000000	34.976535
1761.000000	34.928558
1760.000000	34.843489
1759.000000	34.794779
1758.000000	34.710278
1757.000000	34.657235
1756.000000	34.617869
1755.000000	34.565075
1754.000000	34.491622
1753.000000	34.436423
1752.000000	34.389974
1751.000000	34.311931
1750.000000	34.234952
1749.000000	34.212446
1748.000000	34.106672
1747.000000	34.032679
1746.000000	33.981553
1745.000000	33.889010
1744.000000	33.834434
1743.000000	33.770775
1742.000000	33.734670
1741.000000	33.693821
1740.000000	33.625637
1739.000000	33.572749
1738.000000	33.545972
1737.000000	33.470972
1736.000000	33.444969
1735.000000	33.421507
1734.000000	33.420655
1733.000000	33.400041
1732.000000	33.380823
1731.000000	33.418881
1730.000000	33.423989
1729.000000	33.463425
1728.000000	33.489856
1727.000000	33.555858
1726.000000	33.612761
1725.000000	33.674714
1724.000000	33.759932
1723.000000	33.832100
1722.000000	33.913454
1721.000000	34.015475
1720.000000	34.118751
1719.000000	34.219758
1718.000000	34.318416
1717.000000	34.440595
1716.000000	34.549975
1715.000000	34.633463
1714.000000	34.736020
1713.000000	34.781344
1712.000000	34.853469
1711.000000	34.927542
1710.000000	35.004053
1709.000000	35.048855
1708.000000	35.128212
1707.000000	35.183427
1706.000000	35.193929
1705.000000	35.215528
1704.000000	35.269002
1703.000000	35.255540
1702.000000	35.290882
1701.000000	35.311656
1700.000000	35.335009
1699.000000	35.329824
1698.000000	35.346916
1697.000000	35.377266
1696.000000	35.430192
1695.000000	35.460390
1694.000000	35.504355
1693.000000	35.551979
1692.000000	35.600684
1691.000000	35.647044
1690.000000	35.734824
1689.000000	35.840774
1688.000000	35.972883
1687.000000	36.086838
1686.000000	36.207515
1685.000000	36.362518
1684.000000	36.519423
1683.000000	36.675637
1682.000000	36.873847
1681.000000	37.054519
1680.000000	37.206328
1679.000000	37.413560
1678.000000	37.592099
1677.000000	37.770693
1676.000000	38.002855
1675.000000	38.187662
1674.000000	38.377470
1673.000000	38.565180
1672.000000	38.734810
1671.000000	38.923802
1670.000000	39.090789
1669.000000	39.269477
1668.000000	39.411770
1667.000000	39.557802
1666.000000	39.662503
1665.000000	39.764897
1664.000000	39.885080
1663.000000	39.967608
1662.000000	40.054105
1661.000000	40.126979
1660.000000	40.221953
1659.000000	40.298065
1658.000000	40.328966
1657.000000	40.386816
1656.000000	40.426328
1655.000000	40.439333
1654.000000	40.470836
1653.000000	40.476113
1652.000000	40.520575
1651.000000	40.498315
1650.000000	40.495396
1649.000000	40.473063
1648.000000	40.457234
1647.000000	40.426509
1646.000000	40.408692
1645.000000	40.393441
1644.000000	40.355091
1643.000000	40.337438
1642.000000	40.298342
1641.000000	40.276612
1640.000000	40.229477
1639.000000	40.206132
1638.000000	40.183537
1637.000000	40.125434
1636.000000	40.084076
1635.000000	40.025709
1634.000000	39.986728
1633.000000	39.941586
1632.000000	39.891421
1631.000000	39.839127
1630.000000	39.772234
1629.000000	39.706488
1628.000000	39.657494
1627.000000	39.601395
1626.000000	39.531744
1625.000000	39.468115
1624.000000	39.411169
1623.000000	39.362728
1622.000000	39.299589
1621.000000	39.233608
1620.000000	39.176646
1619.000000	39.130099
1618.000000	39.044835
1617.000000	38.970121
1616.000000	38.911364
1615.000000	38.839335
1614.000000	38.772224
1613.000000	38.716416
1612.000000	38.635389
1611.000000	38.555328
1610.000000	38.480718
1609.000000	38.409255
1608.000000	38.351906
1607.000000	38.271197
1606.000000	38.185740
1605.000000	38.108323
1604.000000	38.036145
1603.000000	37.949788
1602.000000	37.880512
1601.000000	37.816887
1600.000000	37.739350
1599.000000	37.664972
1598.000000	37.594035
1597.000000	37.510145
1596.000000	37.440075
1595.000000	37.391243
1594.000000	37.325515
1593.000000	37.255270
1592.000000	37.194177
1591.000000	37.135803
1590.000000	37.068591
1589.000000	36.995961
1588.000000	36.935453
1587.000000	36.882405
1586.000000	36.830785
1585.000000	36.781199
1584.000000	36.718833
1583.000000	36.647717
1582.000000	36.593990
1581.000000	36.547441
1580.000000	36.494095
1579.000000	36.438980
1578.000000	36.391461
1577.000000	36.322321
1576.000000	36.250973
1575.000000	36.206028
1574.000000	36.152178
1573.000000	36.086821
1572.000000	36.032275
1571.000000	35.979759
1570.000000	35.927588
1569.000000	35.883642
1568.000000	35.843872
1567.000000	35.789267
1566.000000	35.733951
1565.000000	35.698965
1564.000000	35.668764
1563.000000	35.642141
1562.000000	35.593446
1561.000000	35.552377
1560.000000	35.522395
1559.000000	35.491350
1558.000000	35.466085
1557.000000	35.436206
1556.000000	35.406206
1555.000000	35.371952
1554.000000	35.330313
1553.000000	35.290815
1552.000000	35.257243
1551.000000	35.215839
1550.000000	35.171739
1549.000000	35.130006
1548.000000	35.081781
1547.000000	35.012268
1546.000000	34.935272
1545.000000	34.874773
1544.000000	34.790424
1543.000000	34.702115
1542.000000	34.607438
1541.000000	34.518838
1540.000000	34.438405
1539.000000	34.342569
1538.000000	34.248189
1537.000000	34.129187
1536.000000	34.034239
1535.000000	33.946856
1534.000000	33.847836
1533.000000	33.757309
1532.000000	33.650547
1531.000000	33.553560
1530.000000	33.455587
1529.000000	33.370707
1528.000000	33.305337
1527.000000	33.222639
1526.000000	33.145351
1525.000000	33.069676
1524.000000	33.004957
1523.000000	32.935166
1522.000000	32.861725
1521.000000	32.818686
1520.000000	32.766409
1519.000000	32.724799
1518.000000	32.684164
1517.000000	32.633860
1516.000000	32.585119
1515.000000	32.541915
1514.000000	32.489663
1513.000000	32.483097
1512.000000	32.431082
1511.000000	32.402109
1510.000000	32.378797
1509.000000	32.346970
1508.000000	32.331245
1507.000000	32.306069
1506.000000	32.286036
1505.000000	32.261020
1504.000000	32.233039
1503.000000	32.240825
1502.000000	32.218158
1501.000000	32.220966
1500.000000	32.204834
1499.000000	32.208605
1498.000000	32.233757
1497.000000	32.251051
1496.000000	32.247623
1495.000000	32.246754
1494.000000	32.254421
1493.000000	32.267886
1492.000000	32.260347
1491.000000	32.305327
1490.000000	32.322403
1489.000000	32.355686
1488.000000	32.383117
1487.000000	32.430209
1486.000000	32.472094
1485.000000	32.490586
1484.000000	32.559131
1483.000000	32.625371
1482.000000	32.615237
1481.000000	32.706771
1480.000000	32.735102
1479.000000	32.778377
1478.000000	32.812465
1477.000000	32.833711
1476.000000	32.905321
1475.000000	32.941107
1474.000000	32.993951
1473.000000	33.037071
1472.000000	33.079934
1471.000000	33.123723
1470.000000	33.157225
