PE UV       SUBTECH     SPECTRUM    ASCII       PEDS        4.00        
   -1
TDgVeauAl 32.Sample.asc
18/03/08
18:17:48.00
18/03/08
18:17:48.00
Administrator

200.000000
1
Lambda 750
750N8071901
PerkinElmer UV WinLab 6.0.4.0738 / 1.61.00 Lambda 900

0
0
3350/servo 860.8/2
0
0
UV/VIS
1
1
1
CommonBeamDepol,150mm sphere / downward view
0
0
0
0
Program
Program
3350/servo 860.8/2
3350/0.2 860.8/0.2
3350/0.2 860.8/0.2
0
1
 
 
 
0
 
860.8
319.2
860.8
Front
100
on
 
 
0
0
0
 
0
 
 
 
0
 
 
0
0
0
0
0
 
 
 
 
0
0


0
0
#HDR
-1
-1
#GR
nm
%T
1.0
0.0
2350.000000
-1.000000
2151
8
40.465013
0.121982
#DATA
2350.000000	12.973513
2349.000000	12.836782
2348.000000	12.679674
2347.000000	13.218423
2346.000000	12.826484
2345.000000	12.533041
2344.000000	12.405068
2343.000000	12.561649
2342.000000	12.652706
2341.000000	12.671680
2340.000000	13.128617
2339.000000	13.223131
2338.000000	13.093622
2337.000000	13.058686
2336.000000	13.256714
2335.000000	13.069147
2334.000000	13.198329
2333.000000	13.357002
2332.000000	13.613868
2331.000000	13.507529
2330.000000	13.132056
2329.000000	13.257091
2328.000000	13.154746
2327.000000	13.341581
2326.000000	13.420074
2325.000000	13.427067
2324.000000	13.343105
2323.000000	13.131533
2322.000000	12.707312
2321.000000	12.833517
2320.000000	13.020713
2319.000000	13.050999
2318.000000	13.191610
2317.000000	13.090895
2316.000000	12.975704
2315.000000	12.899147
2314.000000	12.724566
2313.000000	12.815665
2312.000000	12.942646
2311.000000	12.711480
2310.000000	12.499054
2309.000000	12.502981
2308.000000	12.500013
2307.000000	12.369492
2306.000000	12.461601
2305.000000	12.331385
2304.000000	12.269182
2303.000000	12.292205
2302.000000	12.231013
2301.000000	11.984562
2300.000000	12.177620
2299.000000	11.926996
2298.000000	11.839609
2297.000000	11.606949
2296.000000	11.830763
2295.000000	11.619086
2294.000000	11.656341
2293.000000	11.795543
2292.000000	11.604343
2291.000000	11.448226
2290.000000	11.451106
2289.000000	11.418457
2288.000000	11.449570
2287.000000	11.530465
2286.000000	11.323402
2285.000000	11.279915
2284.000000	11.245018
2283.000000	11.419814
2282.000000	11.385126
2281.000000	11.371448
2280.000000	11.328021
2279.000000	11.253179
2278.000000	11.076571
2277.000000	11.359121
2276.000000	11.496249
2275.000000	11.329129
2274.000000	11.363430
2273.000000	11.501604
2272.000000	11.511136
2271.000000	11.481166
2270.000000	11.386150
2269.000000	11.425472
2268.000000	11.459527
2267.000000	11.624094
2266.000000	11.727021
2265.000000	11.721747
2264.000000	11.866800
2263.000000	11.947409
2262.000000	11.980197
2261.000000	12.154955
2260.000000	12.334996
2259.000000	12.465393
2258.000000	12.663811
2257.000000	12.835742
2256.000000	12.846730
2255.000000	12.964661
2254.000000	13.098974
2253.000000	13.189116
2252.000000	13.266633
2251.000000	13.476616
2250.000000	13.734036
2249.000000	13.966369
2248.000000	14.075409
2247.000000	14.198520
2246.000000	14.266430
2245.000000	14.450156
2244.000000	14.596080
2243.000000	14.738968
2242.000000	14.850014
2241.000000	14.878338
2240.000000	15.058613
2239.000000	15.133884
2238.000000	15.184216
2237.000000	15.310198
2236.000000	15.420944
2235.000000	15.571223
2234.000000	15.586851
2233.000000	15.604834
2232.000000	15.599373
2231.000000	15.548315
2230.000000	15.603703
2229.000000	15.748527
2228.000000	15.897602
2227.000000	15.905908
2226.000000	15.864400
2225.000000	15.805061
2224.000000	15.668028
2223.000000	15.603215
2222.000000	15.617878
2221.000000	15.619074
2220.000000	15.625512
2219.000000	15.580554
2218.000000	15.491752
2217.000000	15.452542
2216.000000	15.578845
2215.000000	15.584195
2214.000000	15.524459
2213.000000	15.474313
2212.000000	15.500852
2211.000000	15.386980
2210.000000	15.211907
2209.000000	15.184101
2208.000000	14.979571
2207.000000	14.973655
2206.000000	15.025051
2205.000000	15.107825
2204.000000	14.975794
2203.000000	14.866671
2202.000000	14.781460
2201.000000	14.872253
2200.000000	14.791105
2199.000000	14.537103
2198.000000	14.625752
2197.000000	14.643230
2196.000000	14.468006
2195.000000	14.393187
2194.000000	14.342357
2193.000000	14.245358
2192.000000	14.192427
2191.000000	14.201084
2190.000000	14.005494
2189.000000	13.881007
2188.000000	13.927651
2187.000000	13.860794
2186.000000	13.755354
2185.000000	13.767773
2184.000000	13.843288
2183.000000	13.942507
2182.000000	13.764628
2181.000000	13.685827
2180.000000	13.534316
2179.000000	13.538488
2178.000000	13.523841
2177.000000	13.546143
2176.000000	13.666960
2175.000000	13.769882
2174.000000	13.771876
2173.000000	13.649937
2172.000000	13.689383
2171.000000	13.908316
2170.000000	13.946632
2169.000000	14.035550
2168.000000	14.165063
2167.000000	13.896152
2166.000000	13.982571
2165.000000	14.079500
2164.000000	14.015895
2163.000000	13.926138
2162.000000	14.177898
2161.000000	14.403785
2160.000000	14.479760
2159.000000	14.591244
2158.000000	14.692137
2157.000000	14.820848
2156.000000	14.996872
2155.000000	14.943860
2154.000000	14.969227
2153.000000	15.115075
2152.000000	15.247904
2151.000000	15.361631
2150.000000	15.476839
2149.000000	15.459485
2148.000000	15.710601
2147.000000	15.620795
2146.000000	15.771042
2145.000000	15.994466
2144.000000	16.071147
2143.000000	16.211604
2142.000000	16.459782
2141.000000	16.407601
2140.000000	16.387096
2139.000000	16.593910
2138.000000	16.686841
2137.000000	16.772912
2136.000000	16.824358
2135.000000	17.002336
2134.000000	17.065042
2133.000000	16.737064
2132.000000	16.984903
2131.000000	17.327322
2130.000000	17.358163
2129.000000	17.203374
2128.000000	17.276046
2127.000000	17.261875
2126.000000	17.285559
2125.000000	17.320957
2124.000000	17.377377
2123.000000	17.422349
2122.000000	17.485818
2121.000000	17.536279
2120.000000	17.501688
2119.000000	17.680274
2118.000000	17.629671
2117.000000	17.787679
2116.000000	17.748163
2115.000000	17.665530
2114.000000	17.821707
2113.000000	17.790061
2112.000000	17.755859
2111.000000	17.839624
2110.000000	17.734963
2109.000000	17.755079
2108.000000	17.770607
2107.000000	17.818469
2106.000000	17.766224
2105.000000	17.834613
2104.000000	17.940079
2103.000000	17.926701
2102.000000	17.842052
2101.000000	17.960324
2100.000000	18.073979
2099.000000	17.998012
2098.000000	18.016035
2097.000000	18.056177
2096.000000	18.074792
2095.000000	17.903041
2094.000000	17.984763
2093.000000	17.952978
2092.000000	17.898878
2091.000000	17.934942
2090.000000	17.933323
2089.000000	17.946765
2088.000000	17.787139
2087.000000	17.804086
2086.000000	17.865365
2085.000000	17.880813
2084.000000	17.814678
2083.000000	17.745962
2082.000000	17.691190
2081.000000	17.595267
2080.000000	17.541577
2079.000000	17.507015
2078.000000	17.414410
2077.000000	17.323142
2076.000000	17.296304
2075.000000	17.231375
2074.000000	17.192199
2073.000000	17.079130
2072.000000	16.974337
2071.000000	16.856726
2070.000000	16.803263
2069.000000	16.633188
2068.000000	16.584256
2067.000000	16.516953
2066.000000	16.377443
2065.000000	16.276712
2064.000000	16.053903
2063.000000	16.020076
2062.000000	15.894830
2061.000000	15.677605
2060.000000	15.602106
2059.000000	15.501323
2058.000000	15.353238
2057.000000	15.244280
2056.000000	15.179093
2055.000000	15.115533
2054.000000	14.960828
2053.000000	14.746868
2052.000000	14.692617
2051.000000	14.598347
2050.000000	14.535574
2049.000000	14.431184
2048.000000	14.364183
2047.000000	14.342224
2046.000000	14.280964
2045.000000	14.236452
2044.000000	14.248828
2043.000000	14.193149
2042.000000	14.150211
2041.000000	14.248814
2040.000000	14.293684
2039.000000	14.283187
2038.000000	14.373216
2037.000000	14.405272
2036.000000	14.459915
2035.000000	14.509062
2034.000000	14.558281
2033.000000	14.654268
2032.000000	14.722126
2031.000000	14.810242
2030.000000	14.926960
2029.000000	15.020815
2028.000000	15.112013
2027.000000	15.170492
2026.000000	15.286350
2025.000000	15.430776
2024.000000	15.511443
2023.000000	15.570406
2022.000000	15.598945
2021.000000	15.654184
2020.000000	15.725067
2019.000000	15.767707
2018.000000	15.800670
2017.000000	15.835632
2016.000000	15.895813
2015.000000	15.889603
2014.000000	15.869635
2013.000000	15.846348
2012.000000	15.789980
2011.000000	15.805233
2010.000000	15.804043
2009.000000	15.718788
2008.000000	15.634906
2007.000000	15.570913
2006.000000	15.487325
2005.000000	15.460554
2004.000000	15.439929
2003.000000	15.351508
2002.000000	15.271174
2001.000000	15.191930
2000.000000	15.119008
1999.000000	15.062356
1998.000000	14.975754
1997.000000	14.904477
1996.000000	14.849000
1995.000000	14.757846
1994.000000	14.658504
1993.000000	14.584520
1992.000000	14.503927
1991.000000	14.424151
1990.000000	14.338201
1989.000000	14.254652
1988.000000	14.168293
1987.000000	14.093630
1986.000000	14.038769
1985.000000	13.931125
1984.000000	13.847740
1983.000000	13.787281
1982.000000	13.725244
1981.000000	13.621752
1980.000000	13.512064
1979.000000	13.465029
1978.000000	13.341891
1977.000000	13.279539
1976.000000	13.237189
1975.000000	13.153924
1974.000000	13.054749
1973.000000	13.005525
1972.000000	12.892774
1971.000000	12.832049
1970.000000	12.777596
1969.000000	12.743632
1968.000000	12.685418
1967.000000	12.581447
1966.000000	12.504852
1965.000000	12.422802
1964.000000	12.338145
1963.000000	12.266972
1962.000000	12.218162
1961.000000	12.181521
1960.000000	12.138032
1959.000000	12.028171
1958.000000	11.946817
1957.000000	11.911157
1956.000000	11.903461
1955.000000	11.811454
1954.000000	11.799686
1953.000000	11.743554
1952.000000	11.710315
1951.000000	11.711932
1950.000000	11.700993
1949.000000	11.608003
1948.000000	11.530822
1947.000000	11.552290
1946.000000	11.540272
1945.000000	11.568551
1944.000000	11.550261
1943.000000	11.555406
1942.000000	11.528572
1941.000000	11.472434
1940.000000	11.523252
1939.000000	11.565813
1938.000000	11.618913
1937.000000	11.722489
1936.000000	11.799819
1935.000000	11.880342
1934.000000	11.903549
1933.000000	12.063503
1932.000000	12.055521
1931.000000	12.241324
1930.000000	12.382613
1929.000000	12.555006
1928.000000	12.647284
1927.000000	12.696391
1926.000000	12.882213
1925.000000	13.081839
1924.000000	13.177314
1923.000000	13.451960
1922.000000	13.611073
1921.000000	13.898542
1920.000000	14.062945
1919.000000	14.234809
1918.000000	14.459790
1917.000000	14.782197
1916.000000	14.938529
1915.000000	15.349814
1914.000000	15.585804
1913.000000	15.825408
1912.000000	16.129140
1911.000000	16.390128
1910.000000	16.772312
1909.000000	17.061770
1908.000000	17.396229
1907.000000	17.757006
1906.000000	18.067575
1905.000000	18.408353
1904.000000	18.855188
1903.000000	19.271250
1902.000000	19.653429
1901.000000	20.082574
1900.000000	20.438784
1899.000000	20.867983
1898.000000	21.287120
1897.000000	21.747331
1896.000000	22.097181
1895.000000	22.540404
1894.000000	22.933534
1893.000000	23.362573
1892.000000	23.726158
1891.000000	24.088966
1890.000000	24.496667
1889.000000	24.824418
1888.000000	25.177754
1887.000000	25.612136
1886.000000	25.920792
1885.000000	26.296575
1884.000000	26.633030
1883.000000	26.938960
1882.000000	27.278545
1881.000000	27.560150
1880.000000	27.788125
1879.000000	28.061345
1878.000000	28.342880
1877.000000	28.635709
1876.000000	28.855867
1875.000000	29.061653
1874.000000	29.308591
1873.000000	29.477298
1872.000000	29.650834
1871.000000	29.796914
1870.000000	29.983233
1869.000000	30.090068
1868.000000	30.208136
1867.000000	30.304828
1866.000000	30.437265
1865.000000	30.536928
1864.000000	30.614945
1863.000000	30.648135
1862.000000	30.702735
1861.000000	30.769767
1860.000000	30.814750
1859.000000	30.850919
1858.000000	30.924792
1857.000000	30.994259
1856.000000	30.979946
1855.000000	31.000537
1854.000000	31.040151
1853.000000	31.097020
1852.000000	31.074886
1851.000000	31.069698
1850.000000	31.100542
1849.000000	31.115516
1848.000000	31.104544
1847.000000	31.113840
1846.000000	31.087857
1845.000000	31.072935
1844.000000	31.069094
1843.000000	31.050202
1842.000000	31.028497
1841.000000	31.022710
1840.000000	30.983051
1839.000000	30.947626
1838.000000	30.931199
1837.000000	30.906935
1836.000000	30.868864
1835.000000	30.785405
1834.000000	30.717846
1833.000000	30.694743
1832.000000	30.672330
1831.000000	30.613808
1830.000000	30.569652
1829.000000	30.521980
1828.000000	30.492999
1827.000000	30.473879
1826.000000	30.426309
1825.000000	30.402376
1824.000000	30.394899
1823.000000	30.330161
1822.000000	30.256553
1821.000000	30.224914
1820.000000	30.205939
1819.000000	30.184013
1818.000000	30.154430
1817.000000	30.113812
1816.000000	30.077352
1815.000000	30.063799
1814.000000	30.012577
1813.000000	29.968856
1812.000000	29.971862
1811.000000	29.960327
1810.000000	29.929711
1809.000000	29.883842
1808.000000	29.839269
1807.000000	29.791481
1806.000000	29.755287
1805.000000	29.743535
1804.000000	29.718116
1803.000000	29.681359
1802.000000	29.640770
1801.000000	29.601167
1800.000000	29.601410
1799.000000	29.588650
1798.000000	29.552901
1797.000000	29.535685
1796.000000	29.515559
1795.000000	29.507047
1794.000000	29.474252
1793.000000	29.439598
1792.000000	29.438648
1791.000000	29.436890
1790.000000	29.398488
1789.000000	29.379816
1788.000000	29.374208
1787.000000	29.353733
1786.000000	29.331876
1785.000000	29.295150
1784.000000	29.279033
1783.000000	29.246737
1782.000000	29.209637
1781.000000	29.176930
1780.000000	29.161649
1779.000000	29.135485
1778.000000	29.054499
1777.000000	28.989730
1776.000000	28.965176
1775.000000	28.913976
1774.000000	28.867491
1773.000000	28.843013
1772.000000	28.794655
1771.000000	28.729646
1770.000000	28.679195
1769.000000	28.646371
1768.000000	28.600999
1767.000000	28.539207
1766.000000	28.483711
1765.000000	28.438061
1764.000000	28.403407
1763.000000	28.336016
1762.000000	28.287062
1761.000000	28.243046
1760.000000	28.210083
1759.000000	28.165321
1758.000000	28.094280
1757.000000	28.054027
1756.000000	28.038948
1755.000000	27.981530
1754.000000	27.929594
1753.000000	27.888271
1752.000000	27.851814
1751.000000	27.793124
1750.000000	27.750284
1749.000000	27.733086
1748.000000	27.679576
1747.000000	27.616764
1746.000000	27.535554
1745.000000	27.460302
1744.000000	27.426383
1743.000000	27.372227
1742.000000	27.335430
1741.000000	27.299240
1740.000000	27.226907
1739.000000	27.190719
1738.000000	27.159606
1737.000000	27.129332
1736.000000	27.075200
1735.000000	27.061170
1734.000000	27.085312
1733.000000	27.053064
1732.000000	27.032463
1731.000000	27.041479
1730.000000	27.032070
1729.000000	27.067334
1728.000000	27.089771
1727.000000	27.130480
1726.000000	27.170100
1725.000000	27.251559
1724.000000	27.295133
1723.000000	27.367627
1722.000000	27.427760
1721.000000	27.529205
1720.000000	27.597369
1719.000000	27.702625
1718.000000	27.772878
1717.000000	27.838673
1716.000000	27.875107
1715.000000	27.970175
1714.000000	28.053707
1713.000000	28.132097
1712.000000	28.222559
1711.000000	28.265291
1710.000000	28.330335
1709.000000	28.367666
1708.000000	28.446126
1707.000000	28.462662
1706.000000	28.509932
1705.000000	28.536983
1704.000000	28.578885
1703.000000	28.602552
1702.000000	28.592471
1701.000000	28.615931
1700.000000	28.632457
1699.000000	28.625143
1698.000000	28.679165
1697.000000	28.713408
1696.000000	28.720340
1695.000000	28.751790
1694.000000	28.795817
1693.000000	28.801645
1692.000000	28.878993
1691.000000	28.924132
1690.000000	28.981080
1689.000000	29.080432
1688.000000	29.160459
1687.000000	29.265848
1686.000000	29.374249
1685.000000	29.434779
1684.000000	29.563793
1683.000000	29.708689
1682.000000	29.838899
1681.000000	29.964790
1680.000000	30.103546
1679.000000	30.232457
1678.000000	30.416939
1677.000000	30.554736
1676.000000	30.691088
1675.000000	30.847445
1674.000000	31.010462
1673.000000	31.146521
1672.000000	31.299602
1671.000000	31.420542
1670.000000	31.561555
1669.000000	31.703465
1668.000000	31.823772
1667.000000	31.968768
1666.000000	32.031981
1665.000000	32.106488
1664.000000	32.159510
1663.000000	32.238871
1662.000000	32.327539
1661.000000	32.403742
1660.000000	32.442408
1659.000000	32.510500
1658.000000	32.552338
1657.000000	32.594632
1656.000000	32.630629
1655.000000	32.657241
1654.000000	32.682101
1653.000000	32.704506
1652.000000	32.709552
1651.000000	32.709489
1650.000000	32.718492
1649.000000	32.714956
1648.000000	32.702281
1647.000000	32.696569
1646.000000	32.704943
1645.000000	32.682271
1644.000000	32.647503
1643.000000	32.617982
1642.000000	32.603063
1641.000000	32.583440
1640.000000	32.569208
1639.000000	32.536586
1638.000000	32.520501
1637.000000	32.487181
1636.000000	32.434157
1635.000000	32.415021
1634.000000	32.377546
1633.000000	32.329600
1632.000000	32.286191
1631.000000	32.253078
1630.000000	32.224078
1629.000000	32.195199
1628.000000	32.153015
1627.000000	32.117897
1626.000000	32.073779
1625.000000	32.034140
1624.000000	31.972151
1623.000000	31.943610
1622.000000	31.910317
1621.000000	31.859566
1620.000000	31.808904
1619.000000	31.747599
1618.000000	31.703631
1617.000000	31.658826
1616.000000	31.603385
1615.000000	31.542238
1614.000000	31.492913
1613.000000	31.461641
1612.000000	31.406290
1611.000000	31.355585
1610.000000	31.316113
1609.000000	31.261787
1608.000000	31.202499
1607.000000	31.144107
1606.000000	31.088884
1605.000000	31.025912
1604.000000	30.954568
1603.000000	30.904031
1602.000000	30.856708
1601.000000	30.804480
1600.000000	30.746916
1599.000000	30.696271
1598.000000	30.640549
1597.000000	30.583055
1596.000000	30.538419
1595.000000	30.487878
1594.000000	30.429741
1593.000000	30.380598
1592.000000	30.351312
1591.000000	30.306765
1590.000000	30.248187
1589.000000	30.197489
1588.000000	30.166246
1587.000000	30.117867
1586.000000	30.062292
1585.000000	30.029765
1584.000000	29.992556
1583.000000	29.946591
1582.000000	29.909424
1581.000000	29.858894
1580.000000	29.822590
1579.000000	29.794085
1578.000000	29.751919
1577.000000	29.709926
1576.000000	29.663451
1575.000000	29.614043
1574.000000	29.568458
1573.000000	29.524085
1572.000000	29.488239
1571.000000	29.439244
1570.000000	29.406898
1569.000000	29.373525
1568.000000	29.344349
1567.000000	29.311775
1566.000000	29.276558
1565.000000	29.242005
1564.000000	29.208132
1563.000000	29.202206
1562.000000	29.174775
1561.000000	29.147677
1560.000000	29.110470
1559.000000	29.087879
1558.000000	29.073706
1557.000000	29.056386
1556.000000	29.029890
1555.000000	29.012094
1554.000000	28.990572
1553.000000	28.954702
1552.000000	28.913923
1551.000000	28.885820
1550.000000	28.866613
1549.000000	28.825046
1548.000000	28.779913
1547.000000	28.737908
1546.000000	28.671036
1545.000000	28.618197
1544.000000	28.570734
1543.000000	28.496139
1542.000000	28.419999
1541.000000	28.362169
1540.000000	28.289558
1539.000000	28.206623
1538.000000	28.131516
1537.000000	28.048368
1536.000000	27.968007
1535.000000	27.900280
1534.000000	27.826771
1533.000000	27.753985
1532.000000	27.663249
1531.000000	27.597368
1530.000000	27.521402
1529.000000	27.431666
1528.000000	27.381851
1527.000000	27.346362
1526.000000	27.270518
1525.000000	27.207071
1524.000000	27.146665
1523.000000	27.103913
1522.000000	27.047744
1521.000000	26.996645
1520.000000	26.966350
1519.000000	26.918565
1518.000000	26.888272
1517.000000	26.871644
1516.000000	26.833309
1515.000000	26.794666
1514.000000	26.771432
1513.000000	26.748545
1512.000000	26.718490
1511.000000	26.689193
1510.000000	26.675745
1509.000000	26.675908
1508.000000	26.679310
1507.000000	26.674052
1506.000000	26.690796
1505.000000	26.677311
1504.000000	26.666775
1503.000000	26.651522
1502.000000	26.627763
1501.000000	26.612973
1500.000000	26.605781
1499.000000	26.599245
1498.000000	26.588680
1497.000000	26.601648
1496.000000	26.599712
1495.000000	26.620691
1494.000000	26.632661
1493.000000	26.640102
1492.000000	26.642293
1491.000000	26.683919
1490.000000	26.704005
1489.000000	26.732899
1488.000000	26.762004
1487.000000	26.805948
1486.000000	26.828782
1485.000000	26.834454
1484.000000	26.870286
1483.000000	26.932701
1482.000000	26.945177
1481.000000	27.019366
1480.000000	27.071071
1479.000000	27.096605
1478.000000	27.146945
1477.000000	27.189309
1476.000000	27.210771
1475.000000	27.242783
1474.000000	27.297401
1473.000000	27.354136
1472.000000	27.395669
1471.000000	27.421628
1470.000000	27.447097
