PE UV       SUBTECH     SPECTRUM    ASCII       PEDS        4.00        
   -1
Empty Chamber 2.Sample.asc
18/03/12
17:21:32.00
18/03/12
17:21:32.00
Administrator

200.000000
1
Lambda 750
750N8071901
PerkinElmer UV WinLab 6.0.4.0738 / 1.61.00 Lambda 900

0
0
3350/servo 860.8/2
0
0
UV/VIS
1
1
1
CommonBeamDepol,150mm sphere / downward view
0
0
0
0
Program
Program
3350/servo 860.8/2
3350/0.2 860.8/0.2
3350/0.2 860.8/0.2
0
1
 
 
 
0
 
860.8
319.2
860.8
Front
100
on
 
 
0
0
0
 
0
 
 
 
0
 
 
0
0
0
0
0
 
 
 
 
0
0


0
0
#HDR
-1
-1
#GR
nm
%T
1.0
0.0
2350.000000
-1.000000
2151
8
100.513960
98.895722
#DATA
2350.000000	100.406728
2349.000000	100.183139
2348.000000	100.034624
2347.000000	100.054929
2346.000000	99.975771
2345.000000	99.809655
2344.000000	100.485647
2343.000000	99.780193
2342.000000	99.835382
2341.000000	99.927938
2340.000000	99.512147
2339.000000	99.767295
2338.000000	99.917852
2337.000000	99.808541
2336.000000	99.768647
2335.000000	99.924540
2334.000000	100.129428
2333.000000	100.144472
2332.000000	100.164891
2331.000000	99.775652
2330.000000	100.016304
2329.000000	99.772241
2328.000000	99.947910
2327.000000	99.889746
2326.000000	99.777954
2325.000000	99.867848
2324.000000	99.884252
2323.000000	100.028568
2322.000000	99.609026
2321.000000	99.861255
2320.000000	99.926961
2319.000000	99.823342
2318.000000	100.137485
2317.000000	100.219290
2316.000000	100.085248
2315.000000	100.285171
2314.000000	100.177206
2313.000000	99.882013
2312.000000	99.911055
2311.000000	100.204159
2310.000000	99.806278
2309.000000	99.837313
2308.000000	99.861102
2307.000000	99.756938
2306.000000	100.099977
2305.000000	99.938387
2304.000000	99.926900
2303.000000	99.847215
2302.000000	99.950701
2301.000000	100.025040
2300.000000	100.258262
2299.000000	100.094592
2298.000000	100.127484
2297.000000	99.882171
2296.000000	100.132914
2295.000000	100.029683
2294.000000	99.941341
2293.000000	100.031604
2292.000000	99.801897
2291.000000	99.866923
2290.000000	99.866301
2289.000000	100.057483
2288.000000	99.993146
2287.000000	100.157196
2286.000000	100.037749
2285.000000	100.012003
2284.000000	100.121255
2283.000000	100.057290
2282.000000	99.831786
2281.000000	99.882451
2280.000000	99.962562
2279.000000	100.038851
2278.000000	100.047131
2277.000000	99.859180
2276.000000	99.839293
2275.000000	99.877528
2274.000000	99.811527
2273.000000	100.171527
2272.000000	100.159816
2271.000000	100.018469
2270.000000	99.981826
2269.000000	100.098992
2268.000000	99.984246
2267.000000	99.878584
2266.000000	100.117264
2265.000000	100.015462
2264.000000	99.978381
2263.000000	99.979108
2262.000000	99.957358
2261.000000	100.009988
2260.000000	100.070006
2259.000000	100.021371
2258.000000	99.942013
2257.000000	100.036020
2256.000000	100.224415
2255.000000	100.191507
2254.000000	100.040976
2253.000000	100.014333
2252.000000	100.069108
2251.000000	99.976364
2250.000000	99.926681
2249.000000	100.051419
2248.000000	99.865012
2247.000000	99.816218
2246.000000	100.007765
2245.000000	99.964313
2244.000000	99.954236
2243.000000	100.234926
2242.000000	100.235947
2241.000000	99.952993
2240.000000	99.940655
2239.000000	100.025241
2238.000000	100.019284
2237.000000	99.936187
2236.000000	100.009601
2235.000000	100.084692
2234.000000	100.110423
2233.000000	99.934302
2232.000000	99.907519
2231.000000	99.945928
2230.000000	99.884556
2229.000000	100.072744
2228.000000	100.109083
2227.000000	100.155393
2226.000000	100.104061
2225.000000	99.970922
2224.000000	99.937398
2223.000000	99.953282
2222.000000	100.018176
2221.000000	100.025751
2220.000000	100.061706
2219.000000	100.070344
2218.000000	99.900308
2217.000000	99.885864
2216.000000	100.032901
2215.000000	100.132948
2214.000000	99.979124
2213.000000	100.009182
2212.000000	99.971240
2211.000000	100.012719
2210.000000	100.153080
2209.000000	100.020084
2208.000000	99.852074
2207.000000	100.052527
2206.000000	100.076682
2205.000000	99.865597
2204.000000	99.950544
2203.000000	100.013121
2202.000000	100.045278
2201.000000	99.791369
2200.000000	99.924937
2199.000000	100.084808
2198.000000	100.130186
2197.000000	99.881168
2196.000000	99.982259
2195.000000	100.179511
2194.000000	100.116633
2193.000000	99.949388
2192.000000	100.023909
2191.000000	99.951480
2190.000000	100.000101
2189.000000	99.916826
2188.000000	99.837611
2187.000000	99.969802
2186.000000	99.860138
2185.000000	99.948266
2184.000000	99.875181
2183.000000	100.077640
2182.000000	99.875242
2181.000000	99.937702
2180.000000	100.067619
2179.000000	99.931109
2178.000000	99.818408
2177.000000	100.084198
2176.000000	100.129789
2175.000000	99.965295
2174.000000	99.952313
2173.000000	99.925477
2172.000000	99.731124
2171.000000	99.964687
2170.000000	100.027138
2169.000000	99.965346
2168.000000	99.990851
2167.000000	100.065677
2166.000000	100.138594
2165.000000	100.102312
2164.000000	99.713502
2163.000000	99.957981
2162.000000	99.976089
2161.000000	100.129209
2160.000000	100.168759
2159.000000	100.203203
2158.000000	100.063677
2157.000000	99.851881
2156.000000	99.978423
2155.000000	99.996488
2154.000000	100.076613
2153.000000	100.344507
2152.000000	99.822682
2151.000000	99.995885
2150.000000	100.251776
2149.000000	100.130581
2148.000000	99.889799
2147.000000	100.083429
2146.000000	99.913898
2145.000000	99.819294
2144.000000	99.912792
2143.000000	100.233001
2142.000000	99.848652
2141.000000	99.766184
2140.000000	99.998996
2139.000000	99.932270
2138.000000	99.960822
2137.000000	99.794190
2136.000000	99.837017
2135.000000	99.866892
2134.000000	100.021601
2133.000000	100.033199
2132.000000	100.114825
2131.000000	99.984534
2130.000000	100.236745
2129.000000	99.828809
2128.000000	99.999799
2127.000000	100.074528
2126.000000	99.808455
2125.000000	100.044135
2124.000000	99.913826
2123.000000	99.949185
2122.000000	100.058984
2121.000000	100.019909
2120.000000	100.122845
2119.000000	100.036293
2118.000000	99.849235
2117.000000	100.124647
2116.000000	100.025735
2115.000000	100.179550
2114.000000	100.027067
2113.000000	100.062767
2112.000000	99.999899
2111.000000	99.939566
2110.000000	100.162938
2109.000000	100.175183
2108.000000	99.943856
2107.000000	99.884764
2106.000000	99.946346
2105.000000	99.948409
2104.000000	99.722476
2103.000000	99.983205
2102.000000	100.021738
2101.000000	99.885014
2100.000000	100.114049
2099.000000	100.030610
2098.000000	100.043620
2097.000000	100.073370
2096.000000	99.984196
2095.000000	99.906478
2094.000000	100.025099
2093.000000	100.014612
2092.000000	100.036464
2091.000000	99.884304
2090.000000	99.995969
2089.000000	99.975621
2088.000000	99.963442
2087.000000	100.014300
2086.000000	99.992547
2085.000000	100.064783
2084.000000	99.958516
2083.000000	99.948317
2082.000000	99.975916
2081.000000	99.901296
2080.000000	100.010878
2079.000000	100.069956
2078.000000	100.067779
2077.000000	99.970067
2076.000000	100.089694
2075.000000	100.007760
2074.000000	100.025595
2073.000000	100.049885
2072.000000	100.034663
2071.000000	99.906441
2070.000000	99.918975
2069.000000	99.949609
2068.000000	100.065442
2067.000000	99.982361
2066.000000	99.938237
2065.000000	100.015937
2064.000000	100.093197
2063.000000	100.094588
2062.000000	100.011894
2061.000000	100.028322
2060.000000	100.025817
2059.000000	99.881795
2058.000000	99.942876
2057.000000	99.998086
2056.000000	100.039621
2055.000000	100.066449
2054.000000	99.911519
2053.000000	100.062332
2052.000000	100.064662
2051.000000	99.960769
2050.000000	99.963283
2049.000000	99.989208
2048.000000	100.031065
2047.000000	100.033792
2046.000000	100.068108
2045.000000	100.004841
2044.000000	99.981853
2043.000000	100.009580
2042.000000	99.959863
2041.000000	99.968536
2040.000000	99.979111
2039.000000	99.967508
2038.000000	99.974076
2037.000000	100.014329
2036.000000	100.017461
2035.000000	100.005753
2034.000000	100.019890
2033.000000	100.012421
2032.000000	100.011006
2031.000000	99.987988
2030.000000	99.946007
2029.000000	99.994346
2028.000000	100.046754
2027.000000	99.989398
2026.000000	100.020499
2025.000000	100.032319
2024.000000	100.030303
2023.000000	100.032625
2022.000000	100.020104
2021.000000	100.057692
2020.000000	100.017682
2019.000000	100.000809
2018.000000	99.976854
2017.000000	99.964317
2016.000000	99.996159
2015.000000	99.948678
2014.000000	99.947561
2013.000000	99.973518
2012.000000	99.947856
2011.000000	100.013241
2010.000000	100.015369
2009.000000	99.977147
2008.000000	100.010921
2007.000000	99.973820
2006.000000	99.981297
2005.000000	100.003843
2004.000000	100.014769
2003.000000	99.991807
2002.000000	100.012443
2001.000000	99.994842
2000.000000	99.961162
1999.000000	99.965516
1998.000000	100.015272
1997.000000	100.022966
1996.000000	100.058996
1995.000000	100.005665
1994.000000	99.990894
1993.000000	100.014678
1992.000000	99.993925
1991.000000	99.989170
1990.000000	100.008098
1989.000000	100.060150
1988.000000	100.036963
1987.000000	100.004455
1986.000000	99.987045
1985.000000	99.981781
1984.000000	100.006176
1983.000000	99.992003
1982.000000	99.977939
1981.000000	99.990993
1980.000000	100.005466
1979.000000	99.970144
1978.000000	100.009110
1977.000000	99.970947
1976.000000	100.010428
1975.000000	100.015289
1974.000000	100.037361
1973.000000	100.018728
1972.000000	100.027030
1971.000000	100.017412
1970.000000	99.975613
1969.000000	99.984316
1968.000000	99.958308
1967.000000	100.009817
1966.000000	100.049194
1965.000000	99.988158
1964.000000	99.960117
1963.000000	100.023484
1962.000000	99.978039
1961.000000	99.977738
1960.000000	100.006679
1959.000000	100.004857
1958.000000	99.931532
1957.000000	100.000405
1956.000000	100.011025
1955.000000	99.949138
1954.000000	99.989784
1953.000000	100.011631
1952.000000	100.034385
1951.000000	99.973606
1950.000000	100.036424
1949.000000	99.997472
1948.000000	99.994540
1947.000000	99.936021
1946.000000	99.984126
1945.000000	100.025685
1944.000000	100.020926
1943.000000	99.978676
1942.000000	99.955424
1941.000000	100.008792
1940.000000	99.955864
1939.000000	99.973546
1938.000000	100.007470
1937.000000	100.006763
1936.000000	99.964169
1935.000000	100.000707
1934.000000	99.989505
1933.000000	100.005553
1932.000000	99.988498
1931.000000	99.978513
1930.000000	99.963191
1929.000000	100.103874
1928.000000	100.007767
1927.000000	100.097685
1926.000000	100.047998
1925.000000	99.912717
1924.000000	99.983260
1923.000000	99.912179
1922.000000	100.026124
1921.000000	99.976610
1920.000000	99.942517
1919.000000	99.973171
1918.000000	100.007160
1917.000000	99.978107
1916.000000	99.931957
1915.000000	99.861681
1914.000000	100.001110
1913.000000	100.007666
1912.000000	100.007571
1911.000000	100.013530
1910.000000	100.001211
1909.000000	99.885704
1908.000000	100.002926
1907.000000	100.015448
1906.000000	99.921294
1905.000000	99.954400
1904.000000	100.093197
1903.000000	100.048473
1902.000000	99.984548
1901.000000	99.990612
1900.000000	100.008181
1899.000000	99.995255
1898.000000	99.963954
1897.000000	99.988284
1896.000000	100.053584
1895.000000	100.000606
1894.000000	99.981097
1893.000000	100.046079
1892.000000	100.072498
1891.000000	100.041042
1890.000000	99.997676
1889.000000	100.048297
1888.000000	99.984946
1887.000000	99.919322
1886.000000	99.979404
1885.000000	100.049385
1884.000000	100.003533
1883.000000	100.019378
1882.000000	100.015841
1881.000000	100.046018
1880.000000	99.979218
1879.000000	99.967125
1878.000000	99.984980
1877.000000	100.057406
1876.000000	100.031682
1875.000000	100.027430
1874.000000	100.017441
1873.000000	99.966039
1872.000000	100.000605
1871.000000	99.989112
1870.000000	100.018650
1869.000000	100.056463
1868.000000	99.951407
1867.000000	99.938209
1866.000000	100.026329
1865.000000	99.987090
1864.000000	99.984266
1863.000000	99.966120
1862.000000	99.968229
1861.000000	99.976193
1860.000000	99.987289
1859.000000	99.995863
1858.000000	99.979015
1857.000000	99.964291
1856.000000	100.007567
1855.000000	99.981339
1854.000000	99.984266
1853.000000	99.953313
1852.000000	99.995160
1851.000000	99.986488
1850.000000	99.954324
1849.000000	99.932775
1848.000000	100.041854
1847.000000	99.994454
1846.000000	99.998992
1845.000000	100.037217
1844.000000	99.979030
1843.000000	99.967636
1842.000000	99.998689
1841.000000	99.960575
1840.000000	99.944438
1839.000000	99.984367
1838.000000	100.012510
1837.000000	100.004540
1836.000000	100.047332
1835.000000	100.031191
1834.000000	99.986070
1833.000000	100.008584
1832.000000	99.989296
1831.000000	99.967084
1830.000000	100.002828
1829.000000	100.012324
1828.000000	100.012123
1827.000000	99.976563
1826.000000	99.965247
1825.000000	99.996564
1824.000000	99.987066
1823.000000	99.959682
1822.000000	99.984434
1821.000000	100.008491
1820.000000	99.986861
1819.000000	99.996866
1818.000000	100.006068
1817.000000	100.015475
1816.000000	99.976134
1815.000000	99.991909
1814.000000	100.007687
1813.000000	99.983109
1812.000000	99.981792
1811.000000	99.993728
1810.000000	100.007082
1809.000000	100.006779
1808.000000	100.001316
1807.000000	100.001619
1806.000000	99.986641
1805.000000	99.974496
1804.000000	99.976320
1803.000000	99.985831
1802.000000	99.992004
1801.000000	99.994736
1800.000000	100.003341
1799.000000	99.979552
1798.000000	99.965385
1797.000000	99.977731
1796.000000	99.984309
1795.000000	99.977933
1794.000000	99.985826
1793.000000	99.988557
1792.000000	100.009013
1791.000000	100.025423
1790.000000	100.016005
1789.000000	99.993822
1788.000000	100.024109
1787.000000	100.026645
1786.000000	99.997670
1785.000000	100.016919
1784.000000	100.023401
1783.000000	99.992708
1782.000000	99.984808
1781.000000	99.995949
1780.000000	100.018129
1779.000000	100.008002
1778.000000	100.003444
1777.000000	100.011649
1776.000000	100.025629
1775.000000	99.999088
1774.000000	99.972049
1773.000000	99.995746
1772.000000	100.024314
1771.000000	99.979946
1770.000000	100.007698
1769.000000	100.019550
1768.000000	100.032004
1767.000000	99.983393
1766.000000	99.986835
1765.000000	99.996253
1764.000000	100.003241
1763.000000	100.009116
1762.000000	99.997063
1761.000000	100.002836
1760.000000	99.988252
1759.000000	99.986127
1758.000000	100.012660
1757.000000	100.005267
1756.000000	100.019244
1755.000000	100.025424
1754.000000	100.044670
1753.000000	100.000608
1752.000000	99.999190
1751.000000	99.981470
1750.000000	100.008405
1749.000000	99.998177
1748.000000	99.992405
1747.000000	100.030182
1746.000000	99.999392
1745.000000	99.985822
1744.000000	99.973572
1743.000000	100.005772
1742.000000	100.002329
1741.000000	99.999696
1740.000000	100.030081
1739.000000	100.003038
1738.000000	100.002126
1737.000000	99.981875
1736.000000	99.981066
1735.000000	99.971957
1734.000000	100.004050
1733.000000	100.007798
1732.000000	100.010630
1731.000000	99.979141
1730.000000	100.012252
1729.000000	99.982893
1728.000000	100.019850
1727.000000	100.018432
1726.000000	100.004759
1725.000000	100.019542
1724.000000	100.011543
1723.000000	99.991194
1722.000000	99.982586
1721.000000	99.998481
1720.000000	99.983400
1719.000000	100.014376
1718.000000	99.974793
1717.000000	99.991294
1716.000000	100.005671
1715.000000	100.039196
1714.000000	99.998988
1713.000000	99.993116
1712.000000	99.989473
1711.000000	99.996153
1710.000000	100.013060
1709.000000	100.023389
1708.000000	99.973987
1707.000000	99.996254
1706.000000	99.986946
1705.000000	100.015795
1704.000000	99.973782
1703.000000	100.002328
1702.000000	100.015994
1701.000000	100.009821
1700.000000	99.990283
1699.000000	100.003340
1698.000000	100.022369
1697.000000	100.002733
1696.000000	99.985120
1695.000000	100.014880
1694.000000	99.969534
1693.000000	100.008505
1692.000000	99.981376
1691.000000	99.985321
1690.000000	100.003543
1689.000000	99.955472
1688.000000	100.031188
1687.000000	99.989269
1686.000000	100.012753
1685.000000	99.982188
1684.000000	99.991196
1683.000000	100.029254
1682.000000	100.015081
1681.000000	100.015285
1680.000000	100.016195
1679.000000	100.001417
1678.000000	100.010528
1677.000000	99.995851
1676.000000	100.009919
1675.000000	100.015489
1674.000000	99.994736
1673.000000	99.982997
1672.000000	100.015994
1671.000000	99.973176
1670.000000	99.989069
1669.000000	99.992917
1668.000000	99.990895
1667.000000	100.018820
1666.000000	100.016394
1665.000000	100.037548
1664.000000	100.004249
1663.000000	99.983510
1662.000000	99.986343
1661.000000	99.998078
1660.000000	100.021857
1659.000000	99.992311
1658.000000	99.996257
1657.000000	99.995346
1656.000000	99.965814
1655.000000	99.990187
1654.000000	99.965609
1653.000000	100.012242
1652.000000	100.027623
1651.000000	99.999494
1650.000000	100.011939
1649.000000	100.013558
1648.000000	99.987456
1647.000000	100.011635
1646.000000	99.992615
1645.000000	99.989176
1644.000000	100.010117
1643.000000	99.996358
1642.000000	99.990593
1641.000000	99.996257
1640.000000	99.978857
1639.000000	99.975622
1638.000000	99.996561
1637.000000	99.990896
1636.000000	99.996257
1635.000000	99.992007
1634.000000	100.002125
1633.000000	100.012240
1632.000000	100.021952
1631.000000	99.991604
1630.000000	100.003946
1629.000000	99.995548
1628.000000	99.991400
1627.000000	100.006373
1626.000000	100.002327
1625.000000	99.986041
1624.000000	99.991705
1623.000000	99.996257
1622.000000	100.002832
1621.000000	99.993425
1620.000000	99.996864
1619.000000	100.004451
1618.000000	99.995044
1617.000000	100.002225
1616.000000	100.010014
1615.000000	99.997066
1614.000000	100.013252
1613.000000	100.005057
1612.000000	99.992415
1611.000000	99.990291
1610.000000	99.994842
1609.000000	100.001618
1608.000000	100.001113
1607.000000	99.992009
1606.000000	99.993527
1605.000000	99.991404
1604.000000	99.977852
1603.000000	99.989988
1602.000000	100.010418
1601.000000	100.006980
1600.000000	99.998786
1599.000000	99.990189
1598.000000	99.996359
1597.000000	99.995752
1596.000000	99.984425
1595.000000	99.978661
1594.000000	99.995348
1593.000000	99.993427
1592.000000	99.984325
1591.000000	99.988774
1590.000000	99.994943
1589.000000	99.993123
1588.000000	99.998786
1587.000000	99.998179
1586.000000	99.987054
1585.000000	99.992516
1584.000000	100.015375
1583.000000	100.017801
1582.000000	100.004349
1581.000000	99.997169
1580.000000	99.988372
1579.000000	99.991304
1578.000000	100.004247
1577.000000	99.986854
1576.000000	99.980283
1575.000000	99.984934
1574.000000	99.975532
1573.000000	99.979070
1572.000000	100.003540
1571.000000	100.011834
1570.000000	100.007888
1569.000000	100.014057
1568.000000	100.001921
1567.000000	99.998382
1566.000000	99.991406
1565.000000	99.991609
1564.000000	99.997169
1563.000000	99.985240
1562.000000	99.986251
1561.000000	99.989486
1560.000000	99.997169
1559.000000	99.987262
1558.000000	99.997574
1557.000000	99.997877
1556.000000	99.987665
1555.000000	100.008494
1554.000000	100.013954
1553.000000	100.015875
1552.000000	99.992317
1551.000000	99.992620
1550.000000	99.997877
1549.000000	99.997675
1548.000000	99.987164
1547.000000	99.988983
1546.000000	99.992823
1545.000000	100.011930
1544.000000	100.005459
1543.000000	100.004953
1542.000000	100.015770
1541.000000	99.999090
1540.000000	100.014960
1539.000000	100.015163
1538.000000	100.006166
1537.000000	99.984135
1536.000000	100.005256
1535.000000	99.998585
1534.000000	99.996867
1533.000000	100.016071
1532.000000	99.998181
1531.000000	100.005964
1530.000000	100.003639
1529.000000	100.009604
1528.000000	99.989993
1527.000000	100.001415
1526.000000	100.002528
1525.000000	100.006876
1524.000000	99.985039
1523.000000	99.994743
1522.000000	100.007683
1521.000000	100.001415
1520.000000	99.986555
1519.000000	99.992217
1518.000000	99.963203
1517.000000	99.983119
1516.000000	100.013346
1515.000000	99.997472
1514.000000	100.011428
1513.000000	100.010515
1512.000000	100.009807
1511.000000	100.007987
1510.000000	100.015066
1509.000000	100.005359
1508.000000	99.992820
1507.000000	99.998382
1506.000000	100.017595
1505.000000	100.005157
1504.000000	100.005461
1503.000000	100.001820
1502.000000	99.983317
1501.000000	99.998079
1500.000000	99.996361
1499.000000	99.988475
1498.000000	99.991205
1497.000000	99.995350
1496.000000	100.006875
1495.000000	100.016985
1494.000000	100.006369
1493.000000	99.997877
1492.000000	100.001213
1491.000000	99.964526
1490.000000	99.996462
1489.000000	99.985747
1488.000000	99.983625
