PE UV       SUBTECH     SPECTRUM    ASCII       PEDS        4.00        
   -1
RDmshap21.Sample.asc
18/03/12
18:07:35.00
18/03/12
18:07:35.00
Administrator

200.000000
1
Lambda 750
750N8071901
PerkinElmer UV WinLab 6.0.4.0738 / 1.61.00 Lambda 900

0
0
3350/servo 860.8/2
0
0
UV/VIS
1
1
1
CommonBeamDepol,150mm sphere / downward view
0
0
0
0
Program
Program
3350/servo 860.8/2
3350/0.2 860.8/0.2
3350/0.2 860.8/0.2
0
1
 
 
 
0
 
860.8
319.2
860.8
Front
100
on
 
 
0
0
0
 
0
 
 
 
0
 
 
0
0
0
0
0
 
 
 
 
0
0


0
0
#HDR
-1
-1
#GR
nm
%R
1.0
0.0
2350.000000
-1.000000
2151
8
55.858068
9.444281
#DATA
2350.000000	28.803614
2349.000000	28.862738
2348.000000	28.863636
2347.000000	29.593901
2346.000000	28.952001
2345.000000	28.989946
2344.000000	28.921933
2343.000000	28.600865
2342.000000	28.952227
2341.000000	29.327852
2340.000000	28.750216
2339.000000	29.095501
2338.000000	29.534010
2337.000000	29.502206
2336.000000	29.342645
2335.000000	29.603807
2334.000000	29.676411
2333.000000	30.005501
2332.000000	29.960027
2331.000000	29.285664
2330.000000	29.573575
2329.000000	29.414877
2328.000000	29.454781
2327.000000	29.332241
2326.000000	29.253440
2325.000000	29.462480
2324.000000	29.236237
2323.000000	29.347213
2322.000000	29.329497
2321.000000	29.370406
2320.000000	29.212753
2319.000000	29.142588
2318.000000	29.366519
2317.000000	29.154811
2316.000000	29.223726
2315.000000	29.144468
2314.000000	28.923489
2313.000000	28.822991
2312.000000	28.894297
2311.000000	28.880707
2310.000000	28.804804
2309.000000	28.809140
2308.000000	28.789956
2307.000000	28.594553
2306.000000	28.577473
2305.000000	28.548653
2304.000000	28.592746
2303.000000	28.596032
2302.000000	28.528323
2301.000000	28.322720
2300.000000	28.246698
2299.000000	28.131303
2298.000000	28.170706
2297.000000	28.055682
2296.000000	28.049021
2295.000000	27.960668
2294.000000	28.102476
2293.000000	27.906998
2292.000000	27.727241
2291.000000	27.480989
2290.000000	27.548418
2289.000000	27.881824
2288.000000	27.967623
2287.000000	27.901253
2286.000000	27.694188
2285.000000	27.504839
2284.000000	27.386389
2283.000000	27.551016
2282.000000	27.540373
2281.000000	27.625834
2280.000000	27.678750
2279.000000	27.651841
2278.000000	27.655430
2277.000000	27.563513
2276.000000	27.626155
2275.000000	27.743125
2274.000000	27.814011
2273.000000	27.876517
2272.000000	27.849385
2271.000000	27.863973
2270.000000	27.932124
2269.000000	27.907954
2268.000000	27.980546
2267.000000	28.044860
2266.000000	28.277353
2265.000000	28.376685
2264.000000	28.441052
2263.000000	28.455263
2262.000000	28.455729
2261.000000	28.612821
2260.000000	28.775525
2259.000000	28.848184
2258.000000	29.035365
2257.000000	29.159520
2256.000000	29.261339
2255.000000	29.513234
2254.000000	29.711028
2253.000000	29.834579
2252.000000	29.944168
2251.000000	30.198130
2250.000000	30.332813
2249.000000	30.335476
2248.000000	30.490710
2247.000000	30.775411
2246.000000	30.988921
2245.000000	31.158124
2244.000000	31.373911
2243.000000	31.574840
2242.000000	31.723719
2241.000000	31.817700
2240.000000	31.922068
2239.000000	31.990772
2238.000000	32.056561
2237.000000	32.104593
2236.000000	32.138410
2235.000000	32.241741
2234.000000	32.344981
2233.000000	32.441581
2232.000000	32.563703
2231.000000	32.601788
2230.000000	32.728060
2229.000000	32.835881
2228.000000	32.843842
2227.000000	32.801289
2226.000000	32.754923
2225.000000	32.737307
2224.000000	32.819426
2223.000000	32.682741
2222.000000	32.696726
2221.000000	32.774924
2220.000000	32.653494
2219.000000	32.483169
2218.000000	32.403214
2217.000000	32.517609
2216.000000	32.642450
2215.000000	32.618051
2214.000000	32.613256
2213.000000	32.511785
2212.000000	32.374931
2211.000000	32.267820
2210.000000	32.290080
2209.000000	32.268339
2208.000000	32.146562
2207.000000	32.155044
2206.000000	32.133627
2205.000000	32.113120
2204.000000	32.042201
2203.000000	32.027712
2202.000000	31.964076
2201.000000	31.825894
2200.000000	31.714660
2199.000000	31.580699
2198.000000	31.617861
2197.000000	31.575285
2196.000000	31.495676
2195.000000	31.377078
2194.000000	31.367995
2193.000000	31.196930
2192.000000	31.232270
2191.000000	31.339083
2190.000000	31.249370
2189.000000	31.125270
2188.000000	30.880143
2187.000000	30.999013
2186.000000	30.838218
2185.000000	30.850169
2184.000000	30.801318
2183.000000	30.786977
2182.000000	30.783912
2181.000000	30.700244
2180.000000	30.651226
2179.000000	30.613264
2178.000000	30.547181
2177.000000	30.717060
2176.000000	30.815982
2175.000000	30.748462
2174.000000	30.720004
2173.000000	30.756729
2172.000000	30.793567
2171.000000	30.915612
2170.000000	30.986993
2169.000000	31.087549
2168.000000	31.128771
2167.000000	31.218809
2166.000000	31.190812
2165.000000	31.359895
2164.000000	31.303674
2163.000000	31.307142
2162.000000	31.525039
2161.000000	31.867358
2160.000000	31.841707
2159.000000	31.926952
2158.000000	31.783700
2157.000000	31.918506
2156.000000	32.335491
2155.000000	32.324958
2154.000000	32.382320
2153.000000	32.746951
2152.000000	32.668384
2151.000000	32.884210
2150.000000	32.770896
2149.000000	32.920028
2148.000000	33.031368
2147.000000	33.146271
2146.000000	33.096469
2145.000000	33.433692
2144.000000	33.581527
2143.000000	33.615077
2142.000000	33.852337
2141.000000	33.773182
2140.000000	33.886200
2139.000000	34.146327
2138.000000	34.143607
2137.000000	34.169337
2136.000000	34.278166
2135.000000	34.313915
2134.000000	34.527273
2133.000000	34.234476
2132.000000	34.499864
2131.000000	34.634655
2130.000000	34.781406
2129.000000	34.719362
2128.000000	34.612317
2127.000000	34.745268
2126.000000	34.703280
2125.000000	34.895750
2124.000000	35.020690
2123.000000	34.885421
2122.000000	34.941097
2121.000000	35.009391
2120.000000	34.963484
2119.000000	35.141678
2118.000000	35.160428
2117.000000	35.188656
2116.000000	35.201197
2115.000000	35.189589
2114.000000	35.096318
2113.000000	35.160217
2112.000000	35.139299
2111.000000	35.119008
2110.000000	35.146187
2109.000000	35.317465
2108.000000	35.299042
2107.000000	35.247431
2106.000000	35.315121
2105.000000	35.282901
2104.000000	35.379094
2103.000000	35.467145
2102.000000	35.337150
2101.000000	35.349784
2100.000000	35.439288
2099.000000	35.447661
2098.000000	35.300441
2097.000000	35.292618
2096.000000	35.220391
2095.000000	35.262798
2094.000000	35.248349
2093.000000	35.248633
2092.000000	35.273332
2091.000000	35.301302
2090.000000	35.210464
2089.000000	35.202959
2088.000000	35.247951
2087.000000	35.261567
2086.000000	35.218102
2085.000000	35.231687
2084.000000	35.067855
2083.000000	35.035906
2082.000000	34.975070
2081.000000	34.841923
2080.000000	34.718470
2079.000000	34.691187
2078.000000	34.677077
2077.000000	34.590309
2076.000000	34.481817
2075.000000	34.430379
2074.000000	34.407781
2073.000000	34.232536
2072.000000	34.188493
2071.000000	34.016309
2070.000000	33.996852
2069.000000	33.867416
2068.000000	33.806017
2067.000000	33.663059
2066.000000	33.499278
2065.000000	33.406597
2064.000000	33.248642
2063.000000	33.105166
2062.000000	32.985800
2061.000000	32.872280
2060.000000	32.714258
2059.000000	32.521147
2058.000000	32.430197
2057.000000	32.291994
2056.000000	32.232594
2055.000000	32.197512
2054.000000	31.956872
2053.000000	31.814601
2052.000000	31.728966
2051.000000	31.648566
2050.000000	31.531501
2049.000000	31.447315
2048.000000	31.375893
2047.000000	31.312717
2046.000000	31.212774
2045.000000	31.173082
2044.000000	31.145368
2043.000000	31.158798
2042.000000	31.174270
2041.000000	31.214829
2040.000000	31.228594
2039.000000	31.207720
2038.000000	31.196071
2037.000000	31.256143
2036.000000	31.306446
2035.000000	31.382749
2034.000000	31.449849
2033.000000	31.492367
2032.000000	31.589433
2031.000000	31.662205
2030.000000	31.743417
2029.000000	31.812386
2028.000000	31.865772
2027.000000	31.969944
2026.000000	32.068940
2025.000000	32.105590
2024.000000	32.133914
2023.000000	32.218014
2022.000000	32.286426
2021.000000	32.245839
2020.000000	32.253000
2019.000000	32.318800
2018.000000	32.321367
2017.000000	32.331514
2016.000000	32.317286
2015.000000	32.298306
2014.000000	32.294960
2013.000000	32.302033
2012.000000	32.259561
2011.000000	32.185588
2010.000000	32.146743
2009.000000	32.040969
2008.000000	31.982224
2007.000000	31.898605
2006.000000	31.809248
2005.000000	31.772799
2004.000000	31.690715
2003.000000	31.613944
2002.000000	31.542731
2001.000000	31.409527
2000.000000	31.317391
1999.000000	31.242264
1998.000000	31.169032
1997.000000	31.114290
1996.000000	31.005789
1995.000000	30.872982
1994.000000	30.759759
1993.000000	30.700506
1992.000000	30.660160
1991.000000	30.528312
1990.000000	30.396540
1989.000000	30.327972
1988.000000	30.226355
1987.000000	30.120128
1986.000000	30.005213
1985.000000	29.910634
1984.000000	29.871153
1983.000000	29.760338
1982.000000	29.652432
1981.000000	29.548171
1980.000000	29.474254
1979.000000	29.383260
1978.000000	29.302788
1977.000000	29.188651
1976.000000	29.075087
1975.000000	28.989898
1974.000000	28.913338
1973.000000	28.857759
1972.000000	28.750729
1971.000000	28.638934
1970.000000	28.546492
1969.000000	28.467665
1968.000000	28.409722
1967.000000	28.340838
1966.000000	28.271262
1965.000000	28.184398
1964.000000	28.039259
1963.000000	27.987845
1962.000000	27.938563
1961.000000	27.853664
1960.000000	27.774286
1959.000000	27.568726
1958.000000	27.575406
1957.000000	27.535424
1956.000000	27.403009
1955.000000	27.412849
1954.000000	27.381405
1953.000000	27.314187
1952.000000	27.247932
1951.000000	27.234778
1950.000000	27.160217
1949.000000	27.056797
1948.000000	27.072294
1947.000000	27.026855
1946.000000	27.057786
1945.000000	26.986154
1944.000000	27.056330
1943.000000	27.060923
1942.000000	27.094210
1941.000000	27.103328
1940.000000	27.154092
1939.000000	27.204169
1938.000000	27.308078
1937.000000	27.356574
1936.000000	27.413820
1935.000000	27.469064
1934.000000	27.500797
1933.000000	27.629833
1932.000000	27.702202
1931.000000	27.812503
1930.000000	27.972699
1929.000000	28.070779
1928.000000	28.189307
1927.000000	28.384926
1926.000000	28.553926
1925.000000	28.733497
1924.000000	28.998404
1923.000000	29.202948
1922.000000	29.407813
1921.000000	29.537778
1920.000000	29.813373
1919.000000	30.014958
1918.000000	30.363961
1917.000000	30.579279
1916.000000	30.721007
1915.000000	31.055810
1914.000000	31.477447
1913.000000	31.789303
1912.000000	32.106173
1911.000000	32.395862
1910.000000	32.779063
1909.000000	33.060388
1908.000000	33.478700
1907.000000	33.950179
1906.000000	34.297419
1905.000000	34.751953
1904.000000	35.128785
1903.000000	35.580084
1902.000000	36.003931
1901.000000	36.391168
1900.000000	36.875643
1899.000000	37.388205
1898.000000	37.792208
1897.000000	38.241057
1896.000000	38.816067
1895.000000	39.294990
1894.000000	39.698380
1893.000000	40.085812
1892.000000	40.619660
1891.000000	40.896983
1890.000000	41.326448
1889.000000	41.794044
1888.000000	42.223379
1887.000000	42.557469
1886.000000	42.972700
1885.000000	43.317161
1884.000000	43.713763
1883.000000	44.021700
1882.000000	44.363020
1881.000000	44.695291
1880.000000	44.991793
1879.000000	45.277897
1878.000000	45.570271
1877.000000	45.910790
1876.000000	46.157789
1875.000000	46.376331
1874.000000	46.600074
1873.000000	46.810485
1872.000000	46.952956
1871.000000	47.172377
1870.000000	47.365169
1869.000000	47.564990
1868.000000	47.724658
1867.000000	47.773302
1866.000000	47.889863
1865.000000	48.015859
1864.000000	48.080527
1863.000000	48.177117
1862.000000	48.233094
1861.000000	48.301162
1860.000000	48.373142
1859.000000	48.437777
1858.000000	48.506616
1857.000000	48.511436
1856.000000	48.519174
1855.000000	48.574420
1854.000000	48.625435
1853.000000	48.661468
1852.000000	48.632195
1851.000000	48.649177
1850.000000	48.691637
1849.000000	48.671418
1848.000000	48.740454
1847.000000	48.731861
1846.000000	48.673187
1845.000000	48.676412
1844.000000	48.653387
1843.000000	48.647970
1842.000000	48.661689
1841.000000	48.702509
1840.000000	48.634455
1839.000000	48.618734
1838.000000	48.575023
1837.000000	48.493763
1836.000000	48.502372
1835.000000	48.503382
1834.000000	48.407777
1833.000000	48.391804
1832.000000	48.389651
1831.000000	48.315864
1830.000000	48.272056
1829.000000	48.260215
1828.000000	48.233748
1827.000000	48.191741
1826.000000	48.131898
1825.000000	48.095346
1824.000000	48.090501
1823.000000	48.061805
1822.000000	47.997105
1821.000000	47.968108
1820.000000	47.937599
1819.000000	47.894552
1818.000000	47.875432
1817.000000	47.862529
1816.000000	47.822306
1815.000000	47.794268
1814.000000	47.762797
1813.000000	47.731640
1812.000000	47.729836
1811.000000	47.701654
1810.000000	47.632278
1809.000000	47.610804
1808.000000	47.608605
1807.000000	47.553961
1806.000000	47.513516
1805.000000	47.483126
1804.000000	47.448485
1803.000000	47.432687
1802.000000	47.404418
1801.000000	47.381042
1800.000000	47.351429
1799.000000	47.321777
1798.000000	47.286892
1797.000000	47.262428
1796.000000	47.251458
1795.000000	47.234510
1794.000000	47.229320
1793.000000	47.206510
1792.000000	47.177604
1791.000000	47.187993
1790.000000	47.154819
1789.000000	47.107390
1788.000000	47.114626
1787.000000	47.122394
1786.000000	47.098441
1785.000000	47.052721
1784.000000	47.027503
1783.000000	47.023835
1782.000000	46.991616
1781.000000	46.940788
1780.000000	46.937201
1779.000000	46.916358
1778.000000	46.859597
1777.000000	46.807000
1776.000000	46.772208
1775.000000	46.704813
1774.000000	46.645575
1773.000000	46.623987
1772.000000	46.608746
1771.000000	46.545645
1770.000000	46.511682
1769.000000	46.452004
1768.000000	46.404323
1767.000000	46.342819
1766.000000	46.332011
1765.000000	46.299126
1764.000000	46.254667
1763.000000	46.200956
1762.000000	46.162058
1761.000000	46.140274
1760.000000	46.081011
1759.000000	46.024635
1758.000000	45.994677
1757.000000	45.947553
1756.000000	45.901005
1755.000000	45.875745
1754.000000	45.847620
1753.000000	45.816952
1752.000000	45.778266
1751.000000	45.721660
1750.000000	45.662186
1749.000000	45.642582
1748.000000	45.577689
1747.000000	45.553378
1746.000000	45.510944
1745.000000	45.439134
1744.000000	45.368110
1743.000000	45.348991
1742.000000	45.303998
1741.000000	45.280409
1740.000000	45.257108
1739.000000	45.195480
1738.000000	45.158491
1737.000000	45.136754
1736.000000	45.089750
1735.000000	45.088457
1734.000000	45.125580
1733.000000	45.092036
1732.000000	45.051573
1731.000000	45.073541
1730.000000	45.104647
1729.000000	45.100165
1728.000000	45.150280
1727.000000	45.190875
1726.000000	45.257147
1725.000000	45.326516
1724.000000	45.376210
1723.000000	45.440991
1722.000000	45.503740
1721.000000	45.576130
1720.000000	45.650722
1719.000000	45.806720
1718.000000	45.862379
1717.000000	45.905616
1716.000000	46.047122
1715.000000	46.088013
1714.000000	46.122260
1713.000000	46.228808
1712.000000	46.286444
1711.000000	46.352197
1710.000000	46.421278
1709.000000	46.460788
1708.000000	46.495888
1707.000000	46.538926
1706.000000	46.552715
1705.000000	46.612558
1704.000000	46.629935
1703.000000	46.632425
1702.000000	46.677343
1701.000000	46.667639
1700.000000	46.691331
1699.000000	46.689178
1698.000000	46.723545
1697.000000	46.749436
1696.000000	46.793949
1695.000000	46.800434
1694.000000	46.845508
1693.000000	46.894349
1692.000000	46.909916
1691.000000	46.979500
1690.000000	47.039555
1689.000000	47.049692
1688.000000	47.176708
1687.000000	47.267363
1686.000000	47.332345
1685.000000	47.459730
1684.000000	47.553960
1683.000000	47.677976
1682.000000	47.785346
1681.000000	47.953636
1680.000000	48.062793
1679.000000	48.173375
1678.000000	48.337482
1677.000000	48.449015
1676.000000	48.605960
1675.000000	48.738822
1674.000000	48.864601
1673.000000	48.994083
1672.000000	49.124162
1671.000000	49.233231
1670.000000	49.350987
1669.000000	49.479093
1668.000000	49.560463
1667.000000	49.691195
1666.000000	49.765572
1665.000000	49.839588
1664.000000	49.898217
1663.000000	49.974961
1662.000000	50.029793
1661.000000	50.091417
1660.000000	50.139797
1659.000000	50.146556
1658.000000	50.200775
1657.000000	50.265336
1656.000000	50.274299
1655.000000	50.292065
1654.000000	50.317960
1653.000000	50.330234
1652.000000	50.346149
1651.000000	50.343459
1650.000000	50.338344
1649.000000	50.324827
1648.000000	50.308947
1647.000000	50.297257
1646.000000	50.272857
1645.000000	50.282082
1644.000000	50.268244
1643.000000	50.252103
1642.000000	50.236452
1641.000000	50.193374
1640.000000	50.198684
1639.000000	50.155572
1638.000000	50.107172
1637.000000	50.107025
1636.000000	50.083519
1635.000000	50.044870
1634.000000	50.001366
1633.000000	49.953467
1632.000000	49.915782
1631.000000	49.871784
1630.000000	49.859175
1629.000000	49.815106
1628.000000	49.771298
1627.000000	49.753056
1626.000000	49.706499
1625.000000	49.659272
1624.000000	49.623689
1623.000000	49.565091
1622.000000	49.538277
1621.000000	49.488176
1620.000000	49.444935
1619.000000	49.390843
1618.000000	49.330238
1617.000000	49.289397
1616.000000	49.252152
1615.000000	49.218686
1614.000000	49.163821
1613.000000	49.098329
1612.000000	49.035419
1611.000000	48.990323
1610.000000	48.957446
1609.000000	48.906157
1608.000000	48.847400
1607.000000	48.791247
1606.000000	48.729657
1605.000000	48.679448
1604.000000	48.619619
1603.000000	48.553997
1602.000000	48.513252
1601.000000	48.452648
1600.000000	48.389746
1599.000000	48.349806
1598.000000	48.310303
1597.000000	48.254389
1596.000000	48.195550
1595.000000	48.140859
1594.000000	48.093625
1593.000000	48.058790
1592.000000	48.011363
1591.000000	47.956359
1590.000000	47.917602
1589.000000	47.875832
1588.000000	47.822468
1587.000000	47.772981
1586.000000	47.740421
1585.000000	47.703173
1584.000000	47.649379
1583.000000	47.608134
1582.000000	47.576689
1581.000000	47.537880
1580.000000	47.494542
1579.000000	47.441711
1578.000000	47.407802
1577.000000	47.358873
1576.000000	47.306549
1575.000000	47.268541
1574.000000	47.221621
1573.000000	47.185417
1572.000000	47.160110
1571.000000	47.128093
1570.000000	47.080960
1569.000000	47.034332
1568.000000	46.992574
1567.000000	46.943453
1566.000000	46.924885
1565.000000	46.898885
1564.000000	46.852243
1563.000000	46.823251
1562.000000	46.795534
1561.000000	46.759281
1560.000000	46.757853
1559.000000	46.737584
1558.000000	46.704262
1557.000000	46.677033
1556.000000	46.661935
1555.000000	46.655726
1554.000000	46.615622
1553.000000	46.590208
1552.000000	46.556258
1551.000000	46.520002
1550.000000	46.501648
1549.000000	46.446621
1548.000000	46.389012
1547.000000	46.345314
1546.000000	46.283027
1545.000000	46.251680
1544.000000	46.162369
1543.000000	46.108973
1542.000000	46.048277
1541.000000	45.972627
1540.000000	45.905278
1539.000000	45.824859
1538.000000	45.757855
1537.000000	45.672909
1536.000000	45.593420
1535.000000	45.517579
1534.000000	45.454711
1533.000000	45.381817
1532.000000	45.289859
1531.000000	45.234673
1530.000000	45.159154
1529.000000	45.105201
1528.000000	45.030411
1527.000000	44.977748
1526.000000	44.937545
1525.000000	44.892330
1524.000000	44.817167
1523.000000	44.765268
1522.000000	44.708781
1521.000000	44.676844
1520.000000	44.641455
1519.000000	44.598022
1518.000000	44.565494
1517.000000	44.515583
1516.000000	44.513228
1515.000000	44.480089
1514.000000	44.468019
1513.000000	44.426279
1512.000000	44.403440
1511.000000	44.383919
1510.000000	44.368611
1509.000000	44.334921
1508.000000	44.334787
1507.000000	44.303501
1506.000000	44.298200
1505.000000	44.281336
1504.000000	44.263774
1503.000000	44.257425
1502.000000	44.237081
1501.000000	44.228296
1500.000000	44.216532
1499.000000	44.189340
1498.000000	44.208894
1497.000000	44.202017
1496.000000	44.189978
1495.000000	44.197304
1494.000000	44.190114
1493.000000	44.198195
1492.000000	44.194362
1491.000000	44.222978
1490.000000	44.245573
1489.000000	44.251148
1488.000000	44.278602
1487.000000	44.284410
1486.000000	44.278342
1485.000000	44.328198
1484.000000	44.347079
1483.000000	44.383335
1482.000000	44.368224
1481.000000	44.407683
1480.000000	44.427390
1479.000000	44.447105
1478.000000	44.477441
1477.000000	44.474471
1476.000000	44.494257
1475.000000	44.527511
1474.000000	44.553488
1473.000000	44.603095
1472.000000	44.603042
1471.000000	44.634779
1470.000000	44.673655
1469.000000	44.705145
