PE UV       SUBTECH     SPECTRUM    ASCII       PEDS        4.00        
   -1
RDmshap11.Sample.asc
18/03/12
15:56:07.00
18/03/12
15:56:07.00
Administrator

200.000000
1
Lambda 750
750N8071901
PerkinElmer UV WinLab 6.0.4.0738 / 1.61.00 Lambda 900

0
0
3350/servo 860.8/2
0
0
UV/VIS
1
1
1
CommonBeamDepol,150mm sphere / downward view
0
0
0
0
Program
Program
3350/servo 860.8/2
3350/0.2 860.8/0.2
3350/0.2 860.8/0.2
0
1
 
 
 
0
 
860.8
319.2
860.8
Front
100
on
 
 
0
0
0
 
0
 
 
 
0
 
 
0
0
0
0
0
 
 
 
 
0
0


0
0
#HDR
-1
-1
#GR
nm
%R
1.0
0.0
2350.000000
-1.000000
2151
8
70.216144
10.615667
#DATA
2350.000000	26.905447
2349.000000	26.888619
2348.000000	26.455579
2347.000000	26.913198
2346.000000	26.824290
2345.000000	26.623607
2344.000000	26.548244
2343.000000	26.887509
2342.000000	26.597317
2341.000000	27.250004
2340.000000	26.883311
2339.000000	27.496582
2338.000000	27.487972
2337.000000	27.491399
2336.000000	27.576844
2335.000000	27.585267
2334.000000	27.600884
2333.000000	27.924452
2332.000000	28.083387
2331.000000	27.695367
2330.000000	27.443559
2329.000000	27.438113
2328.000000	27.516640
2327.000000	27.460576
2326.000000	27.452941
2325.000000	27.523204
2324.000000	27.723213
2323.000000	27.400155
2322.000000	27.310340
2321.000000	27.599014
2320.000000	27.421725
2319.000000	27.466299
2318.000000	27.303201
2317.000000	27.115189
2316.000000	26.952608
2315.000000	26.689320
2314.000000	26.943611
2313.000000	26.976014
2312.000000	26.576063
2311.000000	26.812224
2310.000000	26.403980
2309.000000	26.464586
2308.000000	26.257728
2307.000000	26.446175
2306.000000	26.506441
2305.000000	26.569416
2304.000000	26.354792
2303.000000	26.574017
2302.000000	26.208766
2301.000000	26.147504
2300.000000	26.070885
2299.000000	26.206992
2298.000000	26.115679
2297.000000	25.912638
2296.000000	25.854299
2295.000000	25.812711
2294.000000	25.856038
2293.000000	25.813129
2292.000000	25.832541
2291.000000	25.739532
2290.000000	25.716530
2289.000000	25.618293
2288.000000	25.588675
2287.000000	25.703123
2286.000000	25.740652
2285.000000	25.943352
2284.000000	25.809835
2283.000000	25.635107
2282.000000	25.670828
2281.000000	25.735469
2280.000000	25.896075
2279.000000	25.906115
2278.000000	25.797133
2277.000000	25.797071
2276.000000	25.893923
2275.000000	25.878637
2274.000000	25.782645
2273.000000	26.017465
2272.000000	26.194443
2271.000000	26.209609
2270.000000	26.086298
2269.000000	26.149602
2268.000000	26.321515
2267.000000	26.369185
2266.000000	26.499391
2265.000000	26.671913
2264.000000	26.873454
2263.000000	26.875501
2262.000000	26.965153
2261.000000	27.246396
2260.000000	27.142916
2259.000000	27.226017
2258.000000	27.470356
2257.000000	27.740101
2256.000000	27.946974
2255.000000	27.954877
2254.000000	28.153822
2253.000000	28.437078
2252.000000	28.580582
2251.000000	28.866951
2250.000000	29.221049
2249.000000	29.398598
2248.000000	29.518785
2247.000000	29.709523
2246.000000	29.880125
2245.000000	30.107426
2244.000000	30.277213
2243.000000	30.431535
2242.000000	30.669189
2241.000000	30.773217
2240.000000	30.771797
2239.000000	30.999642
2238.000000	31.229195
2237.000000	31.352442
2236.000000	31.367235
2235.000000	31.569174
2234.000000	31.772568
2233.000000	31.674093
2232.000000	31.687549
2231.000000	31.887237
2230.000000	31.956356
2229.000000	31.931360
2228.000000	31.981250
2227.000000	32.079732
2226.000000	32.051248
2225.000000	31.982405
2224.000000	32.048930
2223.000000	32.045093
2222.000000	31.819275
2221.000000	31.794790
2220.000000	32.022912
2219.000000	32.041797
2218.000000	31.871602
2217.000000	31.759969
2216.000000	31.665921
2215.000000	31.695282
2214.000000	31.762187
2213.000000	31.717881
2212.000000	31.626354
2211.000000	31.564172
2210.000000	31.423807
2209.000000	31.394074
2208.000000	31.324922
2207.000000	31.287984
2206.000000	31.162146
2205.000000	31.046568
2204.000000	31.079109
2203.000000	31.046570
2202.000000	30.934485
2201.000000	30.902123
2200.000000	30.855284
2199.000000	30.556982
2198.000000	30.586160
2197.000000	30.547163
2196.000000	30.439222
2195.000000	30.309169
2194.000000	30.204463
2193.000000	30.203793
2192.000000	30.212153
2191.000000	30.049164
2190.000000	30.060995
2189.000000	30.060412
2188.000000	29.869885
2187.000000	29.923548
2186.000000	29.863295
2185.000000	29.674641
2184.000000	29.740937
2183.000000	29.781159
2182.000000	29.623833
2181.000000	29.585207
2180.000000	29.689459
2179.000000	29.781044
2178.000000	29.716121
2177.000000	29.674993
2176.000000	29.455670
2175.000000	29.573303
2174.000000	29.754789
2173.000000	29.672410
2172.000000	29.659029
2171.000000	29.734832
2170.000000	29.918494
2169.000000	29.985429
2168.000000	29.907286
2167.000000	30.106908
2166.000000	30.169039
2165.000000	30.211177
2164.000000	30.352002
2163.000000	30.279001
2162.000000	30.487702
2161.000000	30.513273
2160.000000	30.744528
2159.000000	30.808552
2158.000000	31.029275
2157.000000	31.132920
2156.000000	31.282793
2155.000000	31.308489
2154.000000	31.479477
2153.000000	31.655075
2152.000000	31.805239
2151.000000	31.711992
2150.000000	32.100449
2149.000000	32.039808
2148.000000	32.275277
2147.000000	32.443137
2146.000000	32.440754
2145.000000	32.789572
2144.000000	32.891496
2143.000000	32.948528
2142.000000	33.099602
2141.000000	33.299486
2140.000000	33.290817
2139.000000	33.228451
2138.000000	33.530908
2137.000000	33.731128
2136.000000	33.672168
2135.000000	33.631380
2134.000000	34.068553
2133.000000	33.852283
2132.000000	34.043876
2131.000000	34.251956
2130.000000	34.448235
2129.000000	34.337073
2128.000000	34.281682
2127.000000	34.327325
2126.000000	34.469972
2125.000000	34.439490
2124.000000	34.555709
2123.000000	34.425640
2122.000000	34.640350
2121.000000	34.629983
2120.000000	34.616484
2119.000000	34.691040
2118.000000	34.722345
2117.000000	34.837935
2116.000000	34.917693
2115.000000	34.776347
2114.000000	34.866824
2113.000000	34.819044
2112.000000	34.867440
2111.000000	34.887486
2110.000000	34.907555
2109.000000	35.001259
2108.000000	34.947136
2107.000000	35.006632
2106.000000	35.160150
2105.000000	34.976996
2104.000000	34.959577
2103.000000	35.028750
2102.000000	35.238587
2101.000000	35.066645
2100.000000	35.093871
2099.000000	35.150116
2098.000000	35.110279
2097.000000	35.087942
2096.000000	35.201040
2095.000000	35.129802
2094.000000	35.193769
2093.000000	34.993780
2092.000000	35.096101
2091.000000	35.071325
2090.000000	35.000449
2089.000000	34.980743
2088.000000	35.063505
2087.000000	34.970209
2086.000000	34.869938
2085.000000	34.853082
2084.000000	34.751517
2083.000000	34.709552
2082.000000	34.712652
2081.000000	34.573733
2080.000000	34.472795
2079.000000	34.465735
2078.000000	34.335712
2077.000000	34.252520
2076.000000	34.079097
2075.000000	34.051985
2074.000000	33.998772
2073.000000	33.930660
2072.000000	33.848941
2071.000000	33.642701
2070.000000	33.538890
2069.000000	33.395279
2068.000000	33.303869
2067.000000	33.150586
2066.000000	32.917512
2065.000000	32.754128
2064.000000	32.708201
2063.000000	32.487244
2062.000000	32.346315
2061.000000	32.178474
2060.000000	32.090546
2059.000000	32.012835
2058.000000	31.792292
2057.000000	31.589074
2056.000000	31.462323
2055.000000	31.340555
2054.000000	31.214810
2053.000000	31.111432
2052.000000	30.991304
2051.000000	30.815126
2050.000000	30.709201
2049.000000	30.634055
2048.000000	30.557508
2047.000000	30.467028
2046.000000	30.372253
2045.000000	30.278765
2044.000000	30.302507
2043.000000	30.310191
2042.000000	30.245773
2041.000000	30.294691
2040.000000	30.335445
2039.000000	30.345059
2038.000000	30.406229
2037.000000	30.466826
2036.000000	30.515355
2035.000000	30.568177
2034.000000	30.627470
2033.000000	30.726742
2032.000000	30.856643
2031.000000	30.927921
2030.000000	30.971811
2029.000000	31.100619
2028.000000	31.211893
2027.000000	31.308152
2026.000000	31.440948
2025.000000	31.544693
2024.000000	31.536986
2023.000000	31.541989
2022.000000	31.636990
2021.000000	31.661331
2020.000000	31.718237
2019.000000	31.762892
2018.000000	31.734763
2017.000000	31.721235
2016.000000	31.675029
2015.000000	31.619832
2014.000000	31.637494
2013.000000	31.677127
2012.000000	31.641096
2011.000000	31.578452
2010.000000	31.513871
2009.000000	31.419658
2008.000000	31.329036
2007.000000	31.257071
2006.000000	31.163250
2005.000000	31.107561
2004.000000	31.000291
2003.000000	30.904705
2002.000000	30.807621
2001.000000	30.684818
2000.000000	30.592977
1999.000000	30.495364
1998.000000	30.418875
1997.000000	30.313031
1996.000000	30.204054
1995.000000	30.101575
1994.000000	29.949618
1993.000000	29.813548
1992.000000	29.724223
1991.000000	29.610396
1990.000000	29.530904
1989.000000	29.380911
1988.000000	29.321104
1987.000000	29.225090
1986.000000	29.088062
1985.000000	29.010925
1984.000000	28.922991
1983.000000	28.803865
1982.000000	28.666249
1981.000000	28.582369
1980.000000	28.485039
1979.000000	28.365453
1978.000000	28.271738
1977.000000	28.147799
1976.000000	28.050621
1975.000000	27.945709
1974.000000	27.826078
1973.000000	27.701611
1972.000000	27.646889
1971.000000	27.506262
1970.000000	27.417318
1969.000000	27.305412
1968.000000	27.211482
1967.000000	27.115182
1966.000000	27.061048
1965.000000	26.956203
1964.000000	26.849760
1963.000000	26.765245
1962.000000	26.649430
1961.000000	26.544021
1960.000000	26.464717
1959.000000	26.409091
1958.000000	26.319845
1957.000000	26.268483
1956.000000	26.154100
1955.000000	26.052294
1954.000000	26.052882
1953.000000	26.026510
1952.000000	26.018432
1951.000000	26.027564
1950.000000	25.877747
1949.000000	25.852459
1948.000000	25.852358
1947.000000	25.817451
1946.000000	25.722920
1945.000000	25.729487
1944.000000	25.710892
1943.000000	25.734322
1942.000000	25.782157
1941.000000	25.847039
1940.000000	25.872566
1939.000000	25.932985
1938.000000	25.877860
1937.000000	26.019153
1936.000000	26.149023
1935.000000	26.163053
1934.000000	26.253858
1933.000000	26.476803
1932.000000	26.557293
1931.000000	26.671280
1930.000000	26.840299
1929.000000	26.962155
1928.000000	27.107382
1927.000000	27.251126
1926.000000	27.478833
1925.000000	27.705864
1924.000000	27.966720
1923.000000	28.213499
1922.000000	28.419602
1921.000000	28.709717
1920.000000	29.025868
1919.000000	29.252967
1918.000000	29.479508
1917.000000	29.855920
1916.000000	30.095056
1915.000000	30.588787
1914.000000	30.902849
1913.000000	31.332635
1912.000000	31.635713
1911.000000	31.967814
1910.000000	32.480605
1909.000000	33.007760
1908.000000	33.384714
1907.000000	33.896967
1906.000000	34.304497
1905.000000	34.933963
1904.000000	35.519075
1903.000000	36.066568
1902.000000	36.625023
1901.000000	37.099922
1900.000000	37.715186
1899.000000	38.344786
1898.000000	38.945181
1897.000000	39.537197
1896.000000	40.149188
1895.000000	40.759764
1894.000000	41.330833
1893.000000	41.950614
1892.000000	42.488688
1891.000000	43.053826
1890.000000	43.667865
1889.000000	44.253625
1888.000000	44.742498
1887.000000	45.223198
1886.000000	45.754609
1885.000000	46.236173
1884.000000	46.748300
1883.000000	47.289355
1882.000000	47.694147
1881.000000	48.150647
1880.000000	48.661564
1879.000000	49.032021
1878.000000	49.461964
1877.000000	49.840804
1876.000000	50.198261
1875.000000	50.550614
1874.000000	50.831994
1873.000000	51.129439
1872.000000	51.411740
1871.000000	51.755537
1870.000000	52.042977
1869.000000	52.329729
1868.000000	52.471186
1867.000000	52.632142
1866.000000	52.827004
1865.000000	52.973397
1864.000000	53.052157
1863.000000	53.258812
1862.000000	53.351106
1861.000000	53.409710
1860.000000	53.534067
1859.000000	53.626533
1858.000000	53.698843
1857.000000	53.758499
1856.000000	53.805456
1855.000000	53.864195
1854.000000	53.945983
1853.000000	53.959320
1852.000000	54.003491
1851.000000	54.072165
1850.000000	54.099742
1849.000000	54.105872
1848.000000	54.115229
1847.000000	54.121232
1846.000000	54.107824
1845.000000	54.098847
1844.000000	54.057793
1843.000000	54.057352
1842.000000	54.046601
1841.000000	53.990946
1840.000000	53.948342
1839.000000	53.908411
1838.000000	53.891243
1837.000000	53.850668
1836.000000	53.802013
1835.000000	53.757231
1834.000000	53.709037
1833.000000	53.660311
1832.000000	53.627194
1831.000000	53.561325
1830.000000	53.511101
1829.000000	53.458811
1828.000000	53.419876
1827.000000	53.388938
1826.000000	53.354600
1825.000000	53.311635
1824.000000	53.286159
1823.000000	53.213905
1822.000000	53.147093
1821.000000	53.135008
1820.000000	53.122732
1819.000000	53.079836
1818.000000	53.026029
1817.000000	52.974057
1816.000000	52.918570
1815.000000	52.878455
1814.000000	52.844292
1813.000000	52.810729
1812.000000	52.767441
1811.000000	52.725098
1810.000000	52.671472
1809.000000	52.633797
1808.000000	52.611433
1807.000000	52.545458
1806.000000	52.487367
1805.000000	52.437417
1804.000000	52.395220
1803.000000	52.379939
1802.000000	52.345701
1801.000000	52.292477
1800.000000	52.250502
1799.000000	52.229607
1798.000000	52.210423
1797.000000	52.184791
1796.000000	52.147555
1795.000000	52.113604
1794.000000	52.088059
1793.000000	52.050414
1792.000000	52.009377
1791.000000	51.995625
1790.000000	51.957529
1789.000000	51.908178
1788.000000	51.887619
1787.000000	51.878852
1786.000000	51.849606
1785.000000	51.803402
1784.000000	51.784255
1783.000000	51.741650
1782.000000	51.699652
1781.000000	51.632233
1780.000000	51.582207
1779.000000	51.565485
1778.000000	51.511914
1777.000000	51.426046
1776.000000	51.369277
1775.000000	51.303591
1774.000000	51.226341
1773.000000	51.179576
1772.000000	51.093343
1771.000000	51.014966
1770.000000	50.954160
1769.000000	50.889346
1768.000000	50.844384
1767.000000	50.767977
1766.000000	50.697365
1765.000000	50.637449
1764.000000	50.577852
1763.000000	50.524734
1762.000000	50.436305
1761.000000	50.396730
1760.000000	50.349546
1759.000000	50.280330
1758.000000	50.232293
1757.000000	50.184376
1756.000000	50.140905
1755.000000	50.064666
1754.000000	49.990018
1753.000000	49.945436
1752.000000	49.903887
1751.000000	49.881611
1750.000000	49.825371
1749.000000	49.750722
1748.000000	49.673713
1747.000000	49.633085
1746.000000	49.539448
1745.000000	49.459562
1744.000000	49.392238
1743.000000	49.347992
1742.000000	49.279122
1741.000000	49.198723
1740.000000	49.169139
1739.000000	49.071788
1738.000000	49.044334
1737.000000	49.002437
1736.000000	48.942940
1735.000000	48.938726
1734.000000	48.910320
1733.000000	48.877373
1732.000000	48.881175
1731.000000	48.880099
1730.000000	48.866911
1729.000000	48.912591
1728.000000	48.962153
1727.000000	49.051098
1726.000000	49.121732
1725.000000	49.230153
1724.000000	49.278563
1723.000000	49.410761
1722.000000	49.542382
1721.000000	49.629435
1720.000000	49.763033
1719.000000	49.906694
1718.000000	50.022596
1717.000000	50.161876
1716.000000	50.284141
1715.000000	50.375062
1714.000000	50.525471
1713.000000	50.636469
1712.000000	50.763138
1711.000000	50.853316
1710.000000	50.969864
1709.000000	51.037074
1708.000000	51.099680
1707.000000	51.189992
1706.000000	51.237868
1705.000000	51.311189
1704.000000	51.386472
1703.000000	51.402987
1702.000000	51.412320
1701.000000	51.471540
1700.000000	51.520320
1699.000000	51.511412
1698.000000	51.582582
1697.000000	51.607649
1696.000000	51.671515
1695.000000	51.720299
1694.000000	51.781481
1693.000000	51.838717
1692.000000	51.944274
1691.000000	52.012353
1690.000000	52.110811
1689.000000	52.221359
1688.000000	52.315120
1687.000000	52.432426
1686.000000	52.626072
1685.000000	52.770988
1684.000000	52.961603
1683.000000	53.136386
1682.000000	53.317377
1681.000000	53.557657
1680.000000	53.752262
1679.000000	53.946110
1678.000000	54.170710
1677.000000	54.378210
1676.000000	54.577354
1675.000000	54.799213
1674.000000	55.001732
1673.000000	55.207427
1672.000000	55.414081
1671.000000	55.595939
1670.000000	55.742085
1669.000000	55.976993
1668.000000	56.117454
1667.000000	56.311743
1666.000000	56.384854
1665.000000	56.543849
1664.000000	56.682764
1663.000000	56.749703
1662.000000	56.838422
1661.000000	56.934949
1660.000000	57.015276
1659.000000	57.078859
1658.000000	57.155252
1657.000000	57.221706
1656.000000	57.276361
1655.000000	57.309621
1654.000000	57.327409
1653.000000	57.359551
1652.000000	57.374138
1651.000000	57.373312
1650.000000	57.404696
1649.000000	57.397271
1648.000000	57.370357
1647.000000	57.360756
1646.000000	57.377152
1645.000000	57.352337
1644.000000	57.340430
1643.000000	57.336574
1642.000000	57.291582
1641.000000	57.243468
1640.000000	57.209846
1639.000000	57.195812
1638.000000	57.145027
1637.000000	57.098155
1636.000000	57.052050
1635.000000	57.013943
1634.000000	56.974925
1633.000000	56.940779
1632.000000	56.879467
1631.000000	56.818854
1630.000000	56.769119
1629.000000	56.716007
1628.000000	56.668776
1627.000000	56.612700
1626.000000	56.557374
1625.000000	56.516862
1624.000000	56.457987
1623.000000	56.385004
1622.000000	56.333922
1621.000000	56.271773
1620.000000	56.207990
1619.000000	56.134104
1618.000000	56.066782
1617.000000	56.021283
1616.000000	55.942622
1615.000000	55.879250
1614.000000	55.812969
1613.000000	55.722098
1612.000000	55.648622
1611.000000	55.576532
1610.000000	55.505083
1609.000000	55.441003
1608.000000	55.369530
1607.000000	55.276092
1606.000000	55.198858
1605.000000	55.122860
1604.000000	55.044915
1603.000000	54.973662
1602.000000	54.883683
1601.000000	54.799148
1600.000000	54.732670
1599.000000	54.670476
1598.000000	54.598445
1597.000000	54.524620
1596.000000	54.449724
1595.000000	54.373342
1594.000000	54.302247
1593.000000	54.245104
1592.000000	54.174295
1591.000000	54.102596
1590.000000	54.032849
1589.000000	53.961086
1588.000000	53.904318
1587.000000	53.853006
1586.000000	53.805747
1585.000000	53.733852
1584.000000	53.661485
1583.000000	53.606559
1582.000000	53.534194
1581.000000	53.472730
1580.000000	53.422954
1579.000000	53.361329
1578.000000	53.310381
1577.000000	53.254722
1576.000000	53.200125
1575.000000	53.144965
1574.000000	53.079735
1573.000000	53.023484
1572.000000	52.966453
1571.000000	52.902190
1570.000000	52.831867
1569.000000	52.786829
1568.000000	52.744560
1567.000000	52.702953
1566.000000	52.660705
1565.000000	52.614446
1564.000000	52.566293
1563.000000	52.534466
1562.000000	52.495776
1561.000000	52.455425
1560.000000	52.426700
1559.000000	52.387520
1558.000000	52.370054
1557.000000	52.343778
1556.000000	52.314111
1555.000000	52.300237
1554.000000	52.244686
1553.000000	52.196415
1552.000000	52.149232
1551.000000	52.104811
1550.000000	52.086010
1549.000000	52.025549
1548.000000	51.976496
1547.000000	51.905437
1546.000000	51.822301
1545.000000	51.757089
1544.000000	51.664142
1543.000000	51.577726
1542.000000	51.478975
1541.000000	51.384367
1540.000000	51.301907
1539.000000	51.179628
1538.000000	51.070035
1537.000000	50.972107
1536.000000	50.857237
1535.000000	50.766608
1534.000000	50.657768
1533.000000	50.555266
1532.000000	50.451385
1531.000000	50.356287
1530.000000	50.256929
1529.000000	50.148825
1528.000000	50.078314
1527.000000	50.009512
1526.000000	49.941194
1525.000000	49.823644
1524.000000	49.758285
1523.000000	49.710474
1522.000000	49.647119
1521.000000	49.570008
1520.000000	49.536339
1519.000000	49.476977
1518.000000	49.429561
1517.000000	49.375844
1516.000000	49.353362
1515.000000	49.300856
1514.000000	49.256069
1513.000000	49.234781
1512.000000	49.199941
1511.000000	49.196425
1510.000000	49.151423
1509.000000	49.126894
1508.000000	49.096975
1507.000000	49.061025
1506.000000	49.033903
1505.000000	49.025200
1504.000000	49.023112
1503.000000	49.006198
1502.000000	48.981843
1501.000000	48.958753
1500.000000	48.959726
1499.000000	48.944539
1498.000000	48.940930
1497.000000	48.947152
1496.000000	48.938583
1495.000000	48.937387
1494.000000	48.939011
1493.000000	48.966508
1492.000000	48.967322
1491.000000	49.019112
1490.000000	49.017900
1489.000000	49.031491
1488.000000	49.059677
1487.000000	49.092537
1486.000000	49.117658
1485.000000	49.150275
1484.000000	49.168000
1483.000000	49.216990
1482.000000	49.224751
1481.000000	49.296353
1480.000000	49.317794
1479.000000	49.379536
1478.000000	49.403071
1477.000000	49.445390
1476.000000	49.480086
1475.000000	49.504078
1474.000000	49.558226
1473.000000	49.607880
1472.000000	49.617159
1471.000000	49.654381
1470.000000	49.718558
