PE UV       SUBTECH     SPECTRUM    ASCII       PEDS        4.00        
   -1
RTmshap11.Sample.asc
18/03/12
15:46:30.00
18/03/12
15:46:30.00
Administrator

200.000000
1
Lambda 750
750N8071901
PerkinElmer UV WinLab 6.0.4.0738 / 1.61.00 Lambda 900

0
0
3350/servo 860.8/2
0
0
UV/VIS
1
1
1
CommonBeamDepol,150mm sphere / downward view
0
0
0
0
Program
Program
3350/servo 860.8/2
3350/0.2 860.8/0.2
3350/0.2 860.8/0.2
0
1
 
 
 
0
 
860.8
319.2
860.8
Front
100
on
 
 
0
0
0
 
0
 
 
 
0
 
 
0
0
0
0
0
 
 
 
 
0
0


0
0
#HDR
-1
-1
#GR
nm
%R
1.0
0.0
2350.000000
-1.000000
2151
8
69.566463
10.867622
#DATA
2350.000000	26.736838
2349.000000	26.801083
2348.000000	26.463551
2347.000000	27.040061
2346.000000	26.905163
2345.000000	26.328021
2344.000000	26.662632
2343.000000	26.458949
2342.000000	26.649812
2341.000000	27.016230
2340.000000	27.037999
2339.000000	27.204622
2338.000000	27.184822
2337.000000	27.279663
2336.000000	27.353282
2335.000000	27.759125
2334.000000	27.689697
2333.000000	28.016731
2332.000000	27.929970
2331.000000	27.592603
2330.000000	27.562084
2329.000000	27.493745
2328.000000	27.414280
2327.000000	27.299301
2326.000000	27.434458
2325.000000	27.567998
2324.000000	27.619705
2323.000000	27.331275
2322.000000	26.928299
2321.000000	26.898328
2320.000000	27.077523
2319.000000	26.954414
2318.000000	27.065291
2317.000000	26.997413
2316.000000	26.819050
2315.000000	26.612843
2314.000000	26.641137
2313.000000	26.616253
2312.000000	26.655942
2311.000000	26.576319
2310.000000	26.426340
2309.000000	26.413267
2308.000000	26.403645
2307.000000	26.236771
2306.000000	26.194999
2305.000000	26.104879
2304.000000	26.238554
2303.000000	26.288416
2302.000000	26.114585
2301.000000	26.127808
2300.000000	26.068866
2299.000000	25.968898
2298.000000	25.917552
2297.000000	25.878911
2296.000000	25.691729
2295.000000	25.605240
2294.000000	25.612804
2293.000000	25.777585
2292.000000	25.620207
2291.000000	25.688740
2290.000000	25.694351
2289.000000	25.746327
2288.000000	25.691632
2287.000000	25.766809
2286.000000	25.710513
2285.000000	25.573434
2284.000000	25.478484
2283.000000	25.506016
2282.000000	25.507557
2281.000000	25.633844
2280.000000	25.609011
2279.000000	25.595856
2278.000000	25.499075
2277.000000	25.502934
2276.000000	25.629943
2275.000000	25.760096
2274.000000	25.665828
2273.000000	25.786340
2272.000000	25.924852
2271.000000	26.028410
2270.000000	26.047209
2269.000000	26.042174
2268.000000	25.988311
2267.000000	26.072498
2266.000000	26.201697
2265.000000	26.261847
2264.000000	26.473126
2263.000000	26.703088
2262.000000	26.737995
2261.000000	26.975424
2260.000000	27.088730
2259.000000	27.181306
2258.000000	27.504189
2257.000000	27.710588
2256.000000	27.725661
2255.000000	27.831983
2254.000000	27.993915
2253.000000	28.287331
2252.000000	28.584618
2251.000000	28.679718
2250.000000	28.754369
2249.000000	29.012202
2248.000000	29.295006
2247.000000	29.494770
2246.000000	29.749049
2245.000000	29.908298
2244.000000	30.059530
2243.000000	30.258542
2242.000000	30.352555
2241.000000	30.474431
2240.000000	30.727415
2239.000000	30.786245
2238.000000	30.855581
2237.000000	31.157808
2236.000000	31.299149
2235.000000	31.309579
2234.000000	31.391567
2233.000000	31.429068
2232.000000	31.504917
2231.000000	31.659294
2230.000000	31.659695
2229.000000	31.657654
2228.000000	31.797027
2227.000000	31.862442
2226.000000	31.801249
2225.000000	31.800896
2224.000000	31.727972
2223.000000	31.764851
2222.000000	31.809476
2221.000000	31.654672
2220.000000	31.627977
2219.000000	31.643621
2218.000000	31.490865
2217.000000	31.492223
2216.000000	31.606867
2215.000000	31.530965
2214.000000	31.582439
2213.000000	31.475002
2212.000000	31.337589
2211.000000	31.219630
2210.000000	31.236251
2209.000000	31.239109
2208.000000	31.066980
2207.000000	31.010059
2206.000000	30.934035
2205.000000	30.821970
2204.000000	30.837036
2203.000000	30.816212
2202.000000	30.743247
2201.000000	30.617098
2200.000000	30.580778
2199.000000	30.595627
2198.000000	30.532878
2197.000000	30.366255
2196.000000	30.297472
2195.000000	30.241136
2194.000000	30.160710
2193.000000	30.006284
2192.000000	29.967873
2191.000000	29.978468
2190.000000	29.923801
2189.000000	29.791052
2188.000000	29.670135
2187.000000	29.655503
2186.000000	29.645172
2185.000000	29.562740
2184.000000	29.549071
2183.000000	29.633362
2182.000000	29.531566
2181.000000	29.434854
2180.000000	29.461412
2179.000000	29.497066
2178.000000	29.344473
2177.000000	29.418986
2176.000000	29.320641
2175.000000	29.414040
2174.000000	29.470897
2173.000000	29.341338
2172.000000	29.472136
2171.000000	29.542637
2170.000000	29.740747
2169.000000	29.763893
2168.000000	29.926183
2167.000000	29.809339
2166.000000	29.744959
2165.000000	30.013689
2164.000000	30.245935
2163.000000	30.112598
2162.000000	30.349459
2161.000000	30.340456
2160.000000	30.615490
2159.000000	30.685535
2158.000000	30.641522
2157.000000	30.864521
2156.000000	31.124209
2155.000000	31.225952
2154.000000	31.301589
2153.000000	31.564925
2152.000000	31.465368
2151.000000	31.585022
2150.000000	31.816742
2149.000000	31.894038
2148.000000	32.098756
2147.000000	32.156471
2146.000000	32.301393
2145.000000	32.602047
2144.000000	32.704894
2143.000000	32.713584
2142.000000	32.859241
2141.000000	33.028108
2140.000000	33.262897
2139.000000	33.332865
2138.000000	33.366653
2137.000000	33.425675
2136.000000	33.443186
2135.000000	33.601056
2134.000000	33.533367
2133.000000	33.538945
2132.000000	33.884865
2131.000000	34.043344
2130.000000	34.045949
2129.000000	34.063289
2128.000000	34.005072
2127.000000	34.284012
2126.000000	34.125392
2125.000000	34.127379
2124.000000	34.250023
2123.000000	34.298978
2122.000000	34.406345
2121.000000	34.425058
2120.000000	34.357419
2119.000000	34.491662
2118.000000	34.566193
2117.000000	34.552394
2116.000000	34.641928
2115.000000	34.728378
2114.000000	34.729563
2113.000000	34.621395
2112.000000	34.656097
2111.000000	34.675112
2110.000000	34.670299
2109.000000	34.726300
2108.000000	34.719849
2107.000000	34.735016
2106.000000	34.815972
2105.000000	34.802551
2104.000000	34.715409
2103.000000	34.766466
2102.000000	34.902200
2101.000000	34.806367
2100.000000	34.786037
2099.000000	34.856845
2098.000000	34.897505
2097.000000	34.926848
2096.000000	34.861063
2095.000000	34.781374
2094.000000	34.815582
2093.000000	34.837231
2092.000000	34.886622
2091.000000	34.865997
2090.000000	34.801080
2089.000000	34.751739
2088.000000	34.700387
2087.000000	34.678204
2086.000000	34.670974
2085.000000	34.701769
2084.000000	34.570472
2083.000000	34.438577
2082.000000	34.424654
2081.000000	34.375678
2080.000000	34.327617
2079.000000	34.243954
2078.000000	34.123048
2077.000000	34.032504
2076.000000	33.982942
2075.000000	33.815709
2074.000000	33.677882
2073.000000	33.645354
2072.000000	33.587390
2071.000000	33.434485
2070.000000	33.291254
2069.000000	33.124593
2068.000000	32.989047
2067.000000	32.909614
2066.000000	32.682787
2065.000000	32.559646
2064.000000	32.475984
2063.000000	32.319109
2062.000000	32.185904
2061.000000	31.971697
2060.000000	31.828540
2059.000000	31.653818
2058.000000	31.473613
2057.000000	31.366087
2056.000000	31.261534
2055.000000	31.075287
2054.000000	30.941115
2053.000000	30.846712
2052.000000	30.720763
2051.000000	30.582530
2050.000000	30.482426
2049.000000	30.422111
2048.000000	30.284683
2047.000000	30.216781
2046.000000	30.131073
2045.000000	30.075876
2044.000000	30.100223
2043.000000	30.069547
2042.000000	30.013487
2041.000000	30.044546
2040.000000	30.099434
2039.000000	30.129593
2038.000000	30.200588
2037.000000	30.230089
2036.000000	30.280767
2035.000000	30.361659
2034.000000	30.449862
2033.000000	30.531068
2032.000000	30.633312
2031.000000	30.699443
2030.000000	30.770374
2029.000000	30.882933
2028.000000	30.949838
2027.000000	31.054949
2026.000000	31.164088
2025.000000	31.233988
2024.000000	31.284578
2023.000000	31.329661
2022.000000	31.388406
2021.000000	31.421853
2020.000000	31.444398
2019.000000	31.460667
2018.000000	31.484869
2017.000000	31.498517
2016.000000	31.467628
2015.000000	31.410871
2014.000000	31.402295
2013.000000	31.407937
2012.000000	31.392591
2011.000000	31.329456
2010.000000	31.241028
2009.000000	31.156136
2008.000000	31.063188
2007.000000	31.008838
2006.000000	30.903622
2005.000000	30.815307
2004.000000	30.750904
2003.000000	30.667845
2002.000000	30.580863
2001.000000	30.488406
2000.000000	30.374151
1999.000000	30.249403
1998.000000	30.154534
1997.000000	30.056617
1996.000000	29.979532
1995.000000	29.836068
1994.000000	29.677764
1993.000000	29.589193
1992.000000	29.499616
1991.000000	29.387610
1990.000000	29.287989
1989.000000	29.176290
1988.000000	29.044892
1987.000000	28.961368
1986.000000	28.872150
1985.000000	28.771982
1984.000000	28.641605
1983.000000	28.542859
1982.000000	28.421627
1981.000000	28.345937
1980.000000	28.222743
1979.000000	28.108635
1978.000000	28.016552
1977.000000	27.877526
1976.000000	27.763104
1975.000000	27.698304
1974.000000	27.595804
1973.000000	27.495651
1972.000000	27.381701
1971.000000	27.306529
1970.000000	27.201288
1969.000000	27.079972
1968.000000	26.957518
1967.000000	26.903052
1966.000000	26.834268
1965.000000	26.721107
1964.000000	26.612352
1963.000000	26.511591
1962.000000	26.438776
1961.000000	26.316163
1960.000000	26.283023
1959.000000	26.206552
1958.000000	26.099014
1957.000000	26.038080
1956.000000	26.010110
1955.000000	25.947095
1954.000000	25.872796
1953.000000	25.812022
1952.000000	25.760008
1951.000000	25.715463
1950.000000	25.697219
1949.000000	25.605914
1948.000000	25.614688
1947.000000	25.566729
1946.000000	25.539567
1945.000000	25.547419
1944.000000	25.518461
1943.000000	25.550223
1942.000000	25.625786
1941.000000	25.618842
1940.000000	25.742795
1939.000000	25.768889
1938.000000	25.764246
1937.000000	25.875129
1936.000000	25.951562
1935.000000	26.002482
1934.000000	26.062962
1933.000000	26.166126
1932.000000	26.306486
1931.000000	26.382261
1930.000000	26.541445
1929.000000	26.674793
1928.000000	26.893406
1927.000000	27.019677
1926.000000	27.272792
1925.000000	27.508247
1924.000000	27.748170
1923.000000	27.986873
1922.000000	28.187205
1921.000000	28.527462
1920.000000	28.778296
1919.000000	29.034217
1918.000000	29.318524
1917.000000	29.631633
1916.000000	29.911304
1915.000000	30.284102
1914.000000	30.655408
1913.000000	31.140681
1912.000000	31.431175
1911.000000	31.830710
1910.000000	32.229916
1909.000000	32.705585
1908.000000	33.186634
1907.000000	33.634131
1906.000000	34.147778
1905.000000	34.756920
1904.000000	35.214560
1903.000000	35.818202
1902.000000	36.382598
1901.000000	36.886776
1900.000000	37.555196
1899.000000	38.122197
1898.000000	38.738669
1897.000000	39.289552
1896.000000	39.865632
1895.000000	40.467446
1894.000000	41.069297
1893.000000	41.671496
1892.000000	42.236697
1891.000000	42.777134
1890.000000	43.384158
1889.000000	43.933291
1888.000000	44.437324
1887.000000	44.977042
1886.000000	45.433329
1885.000000	45.930764
1884.000000	46.435965
1883.000000	46.940940
1882.000000	47.403410
1881.000000	47.838104
1880.000000	48.260432
1879.000000	48.703572
1878.000000	49.143030
1877.000000	49.469836
1876.000000	49.870248
1875.000000	50.196655
1874.000000	50.553434
1873.000000	50.850952
1872.000000	51.126123
1871.000000	51.408960
1870.000000	51.634594
1869.000000	51.910739
1868.000000	52.111621
1867.000000	52.283692
1866.000000	52.476651
1865.000000	52.592083
1864.000000	52.703503
1863.000000	52.869550
1862.000000	53.004736
1861.000000	53.070769
1860.000000	53.179676
1859.000000	53.243708
1858.000000	53.319734
1857.000000	53.368092
1856.000000	53.438170
1855.000000	53.512542
1854.000000	53.568440
1853.000000	53.610663
1852.000000	53.590658
1851.000000	53.654362
1850.000000	53.677908
1849.000000	53.705396
1848.000000	53.697063
1847.000000	53.713228
1846.000000	53.718829
1845.000000	53.692383
1844.000000	53.666032
1843.000000	53.652959
1842.000000	53.647407
1841.000000	53.594784
1840.000000	53.549799
1839.000000	53.535239
1838.000000	53.519696
1837.000000	53.450294
1836.000000	53.395080
1835.000000	53.333609
1834.000000	53.292633
1833.000000	53.253745
1832.000000	53.194134
1831.000000	53.158362
1830.000000	53.099041
1829.000000	53.057433
1828.000000	53.023995
1827.000000	52.961491
1826.000000	52.904772
1825.000000	52.889295
1824.000000	52.851658
1823.000000	52.794594
1822.000000	52.758960
1821.000000	52.731679
1820.000000	52.707468
1819.000000	52.653627
1818.000000	52.619211
1817.000000	52.556346
1816.000000	52.508134
1815.000000	52.476680
1814.000000	52.434304
1813.000000	52.399415
1812.000000	52.376158
1811.000000	52.338287
1810.000000	52.290716
1809.000000	52.261918
1808.000000	52.199296
1807.000000	52.146003
1806.000000	52.137355
1805.000000	52.088426
1804.000000	52.032389
1803.000000	52.010342
1802.000000	51.983763
1801.000000	51.958836
1800.000000	51.926989
1799.000000	51.891711
1798.000000	51.858543
1797.000000	51.798721
1796.000000	51.776235
1795.000000	51.751599
1794.000000	51.728258
1793.000000	51.691691
1792.000000	51.656280
1791.000000	51.640442
1790.000000	51.605836
1789.000000	51.565254
1788.000000	51.555344
1787.000000	51.515815
1786.000000	51.485038
1785.000000	51.468607
1784.000000	51.423713
1783.000000	51.368019
1782.000000	51.331321
1781.000000	51.295379
1780.000000	51.236844
1779.000000	51.207576
1778.000000	51.122164
1777.000000	51.044680
1776.000000	51.019204
1775.000000	50.955879
1774.000000	50.895980
1773.000000	50.826494
1772.000000	50.737646
1771.000000	50.668417
1770.000000	50.604870
1769.000000	50.577254
1768.000000	50.495501
1767.000000	50.420168
1766.000000	50.334646
1765.000000	50.284617
1764.000000	50.243466
1763.000000	50.166532
1762.000000	50.112422
1761.000000	50.072635
1760.000000	50.002534
1759.000000	49.956362
1758.000000	49.916419
1757.000000	49.855966
1756.000000	49.807092
1755.000000	49.751068
1754.000000	49.682248
1753.000000	49.638013
1752.000000	49.600499
1751.000000	49.563034
1750.000000	49.479153
1749.000000	49.432372
1748.000000	49.366429
1747.000000	49.308086
1746.000000	49.225115
1745.000000	49.134063
1744.000000	49.087014
1743.000000	49.024091
1742.000000	48.912375
1741.000000	48.849389
1740.000000	48.799236
1739.000000	48.757757
1738.000000	48.709090
1737.000000	48.633460
1736.000000	48.611371
1735.000000	48.595542
1734.000000	48.567805
1733.000000	48.544533
1732.000000	48.542254
1731.000000	48.539169
1730.000000	48.550248
1729.000000	48.606492
1728.000000	48.666870
1727.000000	48.725522
1726.000000	48.770140
1725.000000	48.886175
1724.000000	49.006972
1723.000000	49.076803
1722.000000	49.187695
1721.000000	49.312863
1720.000000	49.459605
1719.000000	49.586180
1718.000000	49.694090
1717.000000	49.830626
1716.000000	49.953141
1715.000000	50.080139
1714.000000	50.201364
1713.000000	50.337568
1712.000000	50.408068
1711.000000	50.512759
1710.000000	50.640478
1709.000000	50.703358
1708.000000	50.786759
1707.000000	50.855163
1706.000000	50.908492
1705.000000	50.955167
1704.000000	51.029480
1703.000000	51.053393
1702.000000	51.070786
1701.000000	51.141818
1700.000000	51.172314
1699.000000	51.195481
1698.000000	51.220340
1697.000000	51.280973
1696.000000	51.307979
1695.000000	51.363180
1694.000000	51.439469
1693.000000	51.473547
1692.000000	51.535956
1691.000000	51.657026
1690.000000	51.765730
1689.000000	51.852002
1688.000000	52.001216
1687.000000	52.115741
1686.000000	52.273261
1685.000000	52.454541
1684.000000	52.619215
1683.000000	52.785518
1682.000000	52.959522
1681.000000	53.209551
1680.000000	53.383388
1679.000000	53.586903
1678.000000	53.783534
1677.000000	53.979846
1676.000000	54.193739
1675.000000	54.428425
1674.000000	54.620092
1673.000000	54.817340
1672.000000	55.011031
1671.000000	55.191679
1670.000000	55.389018
1669.000000	55.600767
1668.000000	55.722140
1667.000000	55.896433
1666.000000	56.029175
1665.000000	56.149139
1664.000000	56.264664
1663.000000	56.351110
1662.000000	56.457973
1661.000000	56.557263
1660.000000	56.616738
1659.000000	56.688379
1658.000000	56.755339
1657.000000	56.810380
1656.000000	56.865189
1655.000000	56.890404
1654.000000	56.899689
1653.000000	56.929620
1652.000000	56.945808
1651.000000	56.951460
1650.000000	56.971109
1649.000000	56.968880
1648.000000	56.959399
1647.000000	56.959689
1646.000000	56.946782
1645.000000	56.917178
1644.000000	56.895323
1643.000000	56.887032
1642.000000	56.845161
1641.000000	56.817986
1640.000000	56.777874
1639.000000	56.759417
1638.000000	56.712403
1637.000000	56.684913
1636.000000	56.643771
1635.000000	56.605518
1634.000000	56.536243
1633.000000	56.488869
1632.000000	56.452395
1631.000000	56.402869
1630.000000	56.361321
1629.000000	56.306221
1628.000000	56.261472
1627.000000	56.202156
1626.000000	56.147221
1625.000000	56.105129
1624.000000	56.045556
1623.000000	55.986679
1622.000000	55.927068
1621.000000	55.859833
1620.000000	55.782523
1619.000000	55.709184
1618.000000	55.652711
1617.000000	55.596925
1616.000000	55.528559
1615.000000	55.453469
1614.000000	55.384854
1613.000000	55.318300
1612.000000	55.242123
1611.000000	55.162113
1610.000000	55.080385
1609.000000	55.030337
1608.000000	54.961956
1607.000000	54.867086
1606.000000	54.788035
1605.000000	54.713108
1604.000000	54.621220
1603.000000	54.549347
1602.000000	54.473116
1601.000000	54.394153
1600.000000	54.338066
1599.000000	54.262785
1598.000000	54.172968
1597.000000	54.103721
1596.000000	54.030192
1595.000000	53.968097
1594.000000	53.899517
1593.000000	53.826909
1592.000000	53.761263
1591.000000	53.687155
1590.000000	53.624868
1589.000000	53.572372
1588.000000	53.504083
1587.000000	53.444986
1586.000000	53.398290
1585.000000	53.333664
1584.000000	53.268201
1583.000000	53.207045
1582.000000	53.149901
1581.000000	53.084599
1580.000000	53.026707
1579.000000	52.976012
1578.000000	52.922276
1577.000000	52.853365
1576.000000	52.800236
1575.000000	52.746872
1574.000000	52.684387
1573.000000	52.615306
1572.000000	52.552136
1571.000000	52.495565
1570.000000	52.436334
1569.000000	52.385906
1568.000000	52.351989
1567.000000	52.306271
1566.000000	52.254642
1565.000000	52.220218
1564.000000	52.182462
1563.000000	52.143256
1562.000000	52.105412
1561.000000	52.073473
1560.000000	52.049765
1559.000000	52.002214
1558.000000	51.971706
1557.000000	51.931738
1556.000000	51.908854
1555.000000	51.893962
1554.000000	51.853853
1553.000000	51.825557
1552.000000	51.787553
1551.000000	51.737771
1550.000000	51.692360
1549.000000	51.641282
1548.000000	51.590152
1547.000000	51.508627
1546.000000	51.434894
1545.000000	51.355934
1544.000000	51.275537
1543.000000	51.187215
1542.000000	51.106259
1541.000000	51.009516
1540.000000	50.902776
1539.000000	50.795069
1538.000000	50.685015
1537.000000	50.571712
1536.000000	50.473759
1535.000000	50.367017
1534.000000	50.273244
1533.000000	50.173388
1532.000000	50.067837
1531.000000	49.970204
1530.000000	49.875001
1529.000000	49.779040
1528.000000	49.698280
1527.000000	49.622246
1526.000000	49.549189
1525.000000	49.472350
1524.000000	49.383117
1523.000000	49.328419
1522.000000	49.275219
1521.000000	49.214927
1520.000000	49.169923
1519.000000	49.127486
1518.000000	49.058037
1517.000000	49.019602
1516.000000	48.992848
1515.000000	48.940256
1514.000000	48.926321
1513.000000	48.929280
1512.000000	48.905920
1511.000000	48.914227
1510.000000	48.846169
1509.000000	48.805822
1508.000000	48.769504
1507.000000	48.720683
1506.000000	48.686007
1505.000000	48.673809
1504.000000	48.649600
1503.000000	48.616550
1502.000000	48.621255
1501.000000	48.604790
1500.000000	48.569477
1499.000000	48.574589
1498.000000	48.561701
1497.000000	48.544120
1496.000000	48.554241
1495.000000	48.551359
1494.000000	48.563075
1493.000000	48.584494
1492.000000	48.583451
1491.000000	48.602453
1490.000000	48.615955
1489.000000	48.643744
1488.000000	48.670438
1487.000000	48.687433
1486.000000	48.724236
1485.000000	48.742402
1484.000000	48.787253
1483.000000	48.811251
1482.000000	48.856746
1481.000000	48.874579
1480.000000	48.929046
1479.000000	48.968085
1478.000000	49.017623
1477.000000	49.050945
1476.000000	49.080697
1475.000000	49.141377
1474.000000	49.150428
1473.000000	49.188458
1472.000000	49.226430
1471.000000	49.265844
1470.000000	49.311384
