PE UV       SUBTECH     SPECTRUM    ASCII       PEDS        4.00        
   -1
RTmshap21.Sample.asc
18/03/12
17:57:55.00
18/03/12
17:57:55.00
Administrator

200.000000
1
Lambda 750
750N8071901
PerkinElmer UV WinLab 6.0.4.0738 / 1.61.00 Lambda 900

0
0
3350/servo 860.8/2
0
0
UV/VIS
1
1
1
CommonBeamDepol,150mm sphere / downward view
0
0
0
0
Program
Program
3350/servo 860.8/2
3350/0.2 860.8/0.2
3350/0.2 860.8/0.2
0
1
 
 
 
0
 
860.8
319.2
860.8
Front
100
on
 
 
0
0
0
 
0
 
 
 
0
 
 
0
0
0
0
0
 
 
 
 
0
0


0
0
#HDR
-1
-1
#GR
nm
%R
1.0
0.0
2350.000000
-1.000000
2151
8
55.442125
9.608044
#DATA
2350.000000	28.718640
2349.000000	28.714497
2348.000000	28.372453
2347.000000	29.365837
2346.000000	29.057363
2345.000000	28.469817
2344.000000	29.042160
2343.000000	28.595646
2342.000000	28.760441
2341.000000	28.755895
2340.000000	28.753830
2339.000000	29.102247
2338.000000	29.341827
2337.000000	29.321004
2336.000000	29.279311
2335.000000	29.446366
2334.000000	29.189273
2333.000000	29.632533
2332.000000	29.512121
2331.000000	29.569088
2330.000000	29.459647
2329.000000	29.509039
2328.000000	29.699814
2327.000000	29.317917
2326.000000	29.062497
2325.000000	29.070560
2324.000000	28.939722
2323.000000	29.071226
2322.000000	29.062004
2321.000000	29.085660
2320.000000	29.193989
2319.000000	28.899393
2318.000000	29.126626
2317.000000	28.986126
2316.000000	28.853476
2315.000000	28.774545
2314.000000	28.670352
2313.000000	28.772670
2312.000000	28.773622
2311.000000	28.729737
2310.000000	28.583839
2309.000000	28.718972
2308.000000	28.533056
2307.000000	28.421096
2306.000000	28.565557
2305.000000	28.468889
2304.000000	28.321824
2303.000000	28.211905
2302.000000	28.215592
2301.000000	28.303839
2300.000000	27.991469
2299.000000	27.846923
2298.000000	28.050388
2297.000000	27.961056
2296.000000	27.927923
2295.000000	27.780246
2294.000000	27.672884
2293.000000	27.715557
2292.000000	27.547588
2291.000000	27.539833
2290.000000	27.586374
2289.000000	27.566778
2288.000000	27.621618
2287.000000	27.585852
2286.000000	27.383717
2285.000000	27.470242
2284.000000	27.428758
2283.000000	27.284638
2282.000000	27.061935
2281.000000	27.122569
2280.000000	27.328082
2279.000000	27.333265
2278.000000	27.393533
2277.000000	27.391243
2276.000000	27.491846
2275.000000	27.582046
2274.000000	27.602458
2273.000000	27.765398
2272.000000	27.722704
2271.000000	27.581383
2270.000000	27.580264
2269.000000	27.609363
2268.000000	27.672026
2267.000000	27.769631
2266.000000	28.024645
2265.000000	28.101396
2264.000000	28.202841
2263.000000	28.277735
2262.000000	28.274575
2261.000000	28.417907
2260.000000	28.501048
2259.000000	28.728023
2258.000000	28.964974
2257.000000	29.069420
2256.000000	29.178622
2255.000000	29.316677
2254.000000	29.501708
2253.000000	29.504422
2252.000000	29.780288
2251.000000	30.204595
2250.000000	30.334025
2249.000000	30.372550
2248.000000	30.429471
2247.000000	30.561487
2246.000000	30.808217
2245.000000	30.996224
2244.000000	31.143377
2243.000000	31.349808
2242.000000	31.519689
2241.000000	31.512556
2240.000000	31.567713
2239.000000	31.663848
2238.000000	31.787185
2237.000000	31.989891
2236.000000	32.156299
2235.000000	32.127741
2234.000000	32.138278
2233.000000	32.213807
2232.000000	32.346166
2231.000000	32.410721
2230.000000	32.350647
2229.000000	32.356379
2228.000000	32.412360
2227.000000	32.490504
2226.000000	32.399337
2225.000000	32.406648
2224.000000	32.491271
2223.000000	32.382755
2222.000000	32.381064
2221.000000	32.434305
2220.000000	32.378293
2219.000000	32.450726
2218.000000	32.409571
2217.000000	32.217347
2216.000000	32.252283
2215.000000	32.295422
2214.000000	32.350135
2213.000000	32.338341
2212.000000	32.241121
2211.000000	32.093796
2210.000000	32.096004
2209.000000	32.034092
2208.000000	31.904694
2207.000000	31.957461
2206.000000	31.879939
2205.000000	31.804084
2204.000000	31.794821
2203.000000	31.703317
2202.000000	31.573215
2201.000000	31.486264
2200.000000	31.466801
2199.000000	31.466949
2198.000000	31.521457
2197.000000	31.259170
2196.000000	31.122614
2195.000000	31.143078
2194.000000	31.104562
2193.000000	30.990952
2192.000000	31.114844
2191.000000	30.979674
2190.000000	30.906007
2189.000000	30.907203
2188.000000	30.748378
2187.000000	30.693612
2186.000000	30.668672
2185.000000	30.627129
2184.000000	30.549466
2183.000000	30.629683
2182.000000	30.486606
2181.000000	30.406165
2180.000000	30.466710
2179.000000	30.561495
2178.000000	30.484973
2177.000000	30.525098
2176.000000	30.684078
2175.000000	30.634088
2174.000000	30.633382
2173.000000	30.634133
2172.000000	30.573787
2171.000000	30.680798
2170.000000	30.713099
2169.000000	30.769841
2168.000000	30.894205
2167.000000	30.760380
2166.000000	31.017695
2165.000000	31.292793
2164.000000	31.287401
2163.000000	31.238182
2162.000000	31.262822
2161.000000	31.484361
2160.000000	31.544844
2159.000000	31.731298
2158.000000	31.717814
2157.000000	31.814241
2156.000000	31.869236
2155.000000	32.069560
2154.000000	32.167945
2153.000000	32.367541
2152.000000	32.396537
2151.000000	32.520442
2150.000000	32.613623
2149.000000	32.671925
2148.000000	32.823412
2147.000000	32.873869
2146.000000	33.036157
2145.000000	33.131812
2144.000000	33.401988
2143.000000	33.389608
2142.000000	33.396286
2141.000000	33.626722
2140.000000	33.624839
2139.000000	33.728809
2138.000000	33.868560
2137.000000	33.945082
2136.000000	34.006361
2135.000000	33.974865
2134.000000	34.100280
2133.000000	34.066778
2132.000000	34.434666
2131.000000	34.405181
2130.000000	34.396657
2129.000000	34.487426
2128.000000	34.546640
2127.000000	34.406525
2126.000000	34.516958
2125.000000	34.532617
2124.000000	34.695981
2123.000000	34.643801
2122.000000	34.701043
2121.000000	34.894262
2120.000000	34.817096
2119.000000	34.859277
2118.000000	34.866431
2117.000000	34.994090
2116.000000	34.868055
2115.000000	35.019299
2114.000000	35.094406
2113.000000	35.029553
2112.000000	35.038714
2111.000000	35.054049
2110.000000	34.958490
2109.000000	35.123041
2108.000000	35.052129
2107.000000	35.120229
2106.000000	34.998027
2105.000000	34.964203
2104.000000	34.945224
2103.000000	35.028576
2102.000000	35.173710
2101.000000	35.068550
2100.000000	35.124019
2099.000000	35.125648
2098.000000	35.103797
2097.000000	35.034412
2096.000000	35.080772
2095.000000	35.058539
2094.000000	35.223250
2093.000000	35.045776
2092.000000	35.030169
2091.000000	35.074241
2090.000000	35.003693
2089.000000	35.023437
2088.000000	34.934034
2087.000000	34.906896
2086.000000	34.897204
2085.000000	34.851352
2084.000000	34.816029
2083.000000	34.731653
2082.000000	34.696744
2081.000000	34.619739
2080.000000	34.547040
2079.000000	34.530006
2078.000000	34.453366
2077.000000	34.394687
2076.000000	34.305251
2075.000000	34.225200
2074.000000	34.188411
2073.000000	34.094168
2072.000000	33.972251
2071.000000	33.865346
2070.000000	33.749443
2069.000000	33.612334
2068.000000	33.447748
2067.000000	33.352114
2066.000000	33.282855
2065.000000	33.159976
2064.000000	33.054078
2063.000000	32.882310
2062.000000	32.757807
2061.000000	32.610928
2060.000000	32.473936
2059.000000	32.344494
2058.000000	32.277967
2057.000000	32.131587
2056.000000	32.076128
2055.000000	31.951781
2054.000000	31.751592
2053.000000	31.677329
2052.000000	31.576038
2051.000000	31.443437
2050.000000	31.349024
2049.000000	31.204031
2048.000000	31.139980
2047.000000	31.120860
2046.000000	31.055268
2045.000000	31.011504
2044.000000	30.970455
2043.000000	30.956316
2042.000000	30.935969
2041.000000	30.939919
2040.000000	30.969555
2039.000000	30.983100
2038.000000	30.982018
2037.000000	30.993483
2036.000000	31.071476
2035.000000	31.156765
2034.000000	31.241860
2033.000000	31.327360
2032.000000	31.384551
2031.000000	31.407337
2030.000000	31.531886
2029.000000	31.659527
2028.000000	31.712886
2027.000000	31.768616
2026.000000	31.846685
2025.000000	31.918444
2024.000000	31.968966
2023.000000	32.052564
2022.000000	32.030634
2021.000000	32.005270
2020.000000	32.074970
2019.000000	32.126579
2018.000000	32.147922
2017.000000	32.143395
2016.000000	32.104709
2015.000000	32.068974
2014.000000	32.084396
2013.000000	32.046104
2012.000000	31.989139
2011.000000	31.959981
2010.000000	31.901147
2009.000000	31.817901
2008.000000	31.771296
2007.000000	31.686337
2006.000000	31.608872
2005.000000	31.569616
2004.000000	31.510352
2003.000000	31.428138
2002.000000	31.324929
2001.000000	31.218360
2000.000000	31.125527
1999.000000	31.044665
1998.000000	30.999220
1997.000000	30.923985
1996.000000	30.799861
1995.000000	30.672165
1994.000000	30.578040
1993.000000	30.500989
1992.000000	30.428312
1991.000000	30.335096
1990.000000	30.245808
1989.000000	30.125040
1988.000000	30.051667
1987.000000	29.966639
1986.000000	29.844991
1985.000000	29.749697
1984.000000	29.695590
1983.000000	29.581371
1982.000000	29.465928
1981.000000	29.403448
1980.000000	29.315827
1979.000000	29.198357
1978.000000	29.077362
1977.000000	28.981633
1976.000000	28.883332
1975.000000	28.819082
1974.000000	28.734731
1973.000000	28.654382
1972.000000	28.569823
1971.000000	28.493265
1970.000000	28.424861
1969.000000	28.327314
1968.000000	28.256516
1967.000000	28.183564
1966.000000	28.086836
1965.000000	27.975195
1964.000000	27.887118
1963.000000	27.792686
1962.000000	27.718553
1961.000000	27.608078
1960.000000	27.549415
1959.000000	27.466625
1958.000000	27.449898
1957.000000	27.368022
1956.000000	27.293463
1955.000000	27.255307
1954.000000	27.199543
1953.000000	27.130207
1952.000000	27.134967
1951.000000	27.077021
1950.000000	27.025649
1949.000000	27.002794
1948.000000	26.971696
1947.000000	26.974702
1946.000000	26.877406
1945.000000	26.962087
1944.000000	26.921576
1943.000000	26.956023
1942.000000	26.922879
1941.000000	26.930823
1940.000000	27.021786
1939.000000	26.997080
1938.000000	27.100827
1937.000000	27.175382
1936.000000	27.229419
1935.000000	27.225598
1934.000000	27.315415
1933.000000	27.463232
1932.000000	27.503438
1931.000000	27.613368
1930.000000	27.784719
1929.000000	27.918553
1928.000000	28.059690
1927.000000	28.227601
1926.000000	28.316757
1925.000000	28.575762
1924.000000	28.812346
1923.000000	28.915920
1922.000000	29.139609
1921.000000	29.340069
1920.000000	29.653530
1919.000000	29.857210
1918.000000	30.139876
1917.000000	30.324431
1916.000000	30.593993
1915.000000	30.913459
1914.000000	31.184322
1913.000000	31.571436
1912.000000	31.891961
1911.000000	32.147981
1910.000000	32.495789
1909.000000	32.811015
1908.000000	33.227756
1907.000000	33.650405
1906.000000	33.940314
1905.000000	34.386848
1904.000000	34.901396
1903.000000	35.290761
1902.000000	35.760433
1901.000000	36.215211
1900.000000	36.651927
1899.000000	37.085948
1898.000000	37.564823
1897.000000	37.990579
1896.000000	38.423485
1895.000000	38.886026
1894.000000	39.343366
1893.000000	39.749414
1892.000000	40.209142
1891.000000	40.639408
1890.000000	41.051734
1889.000000	41.475769
1888.000000	41.837323
1887.000000	42.209717
1886.000000	42.604394
1885.000000	42.984696
1884.000000	43.344632
1883.000000	43.731227
1882.000000	43.993434
1881.000000	44.344503
1880.000000	44.695706
1879.000000	44.966092
1878.000000	45.239223
1877.000000	45.559093
1876.000000	45.830575
1875.000000	46.071581
1874.000000	46.260223
1873.000000	46.495263
1872.000000	46.713043
1871.000000	46.909047
1870.000000	47.035727
1869.000000	47.215022
1868.000000	47.356382
1867.000000	47.451242
1866.000000	47.610737
1865.000000	47.648843
1864.000000	47.734172
1863.000000	47.819559
1862.000000	47.908024
1861.000000	48.014668
1860.000000	48.045168
1859.000000	48.079686
1858.000000	48.141897
1857.000000	48.187032
1856.000000	48.250190
1855.000000	48.277866
1854.000000	48.273247
1853.000000	48.315907
1852.000000	48.345606
1851.000000	48.366136
1850.000000	48.355674
1849.000000	48.360489
1848.000000	48.422870
1847.000000	48.395290
1846.000000	48.401432
1845.000000	48.369495
1844.000000	48.345895
1843.000000	48.345402
1842.000000	48.331157
1841.000000	48.286682
1840.000000	48.252683
1839.000000	48.274300
1838.000000	48.230204
1837.000000	48.164167
1836.000000	48.152275
1835.000000	48.110414
1834.000000	48.049329
1833.000000	48.029064
1832.000000	47.994915
1831.000000	47.935003
1830.000000	47.929305
1829.000000	47.915743
1828.000000	47.889953
1827.000000	47.825938
1826.000000	47.753964
1825.000000	47.728451
1824.000000	47.723385
1823.000000	47.693486
1822.000000	47.647580
1821.000000	47.622687
1820.000000	47.596485
1819.000000	47.545868
1818.000000	47.518658
1817.000000	47.519862
1816.000000	47.468256
1815.000000	47.439979
1814.000000	47.422627
1813.000000	47.379659
1812.000000	47.351518
1811.000000	47.346047
1810.000000	47.331279
1809.000000	47.293796
1808.000000	47.249160
1807.000000	47.214531
1806.000000	47.206855
1805.000000	47.172217
1804.000000	47.119894
1803.000000	47.110344
1802.000000	47.086081
1801.000000	47.051553
1800.000000	47.030602
1799.000000	47.011319
1798.000000	46.994893
1797.000000	46.967257
1796.000000	46.942302
1795.000000	46.925164
1794.000000	46.920736
1793.000000	46.895537
1792.000000	46.868420
1791.000000	46.870259
1790.000000	46.848897
1789.000000	46.806487
1788.000000	46.815194
1787.000000	46.804984
1786.000000	46.764780
1785.000000	46.744438
1784.000000	46.716400
1783.000000	46.674830
1782.000000	46.651320
1781.000000	46.635267
1780.000000	46.611288
1779.000000	46.574912
1778.000000	46.534445
1777.000000	46.488227
1776.000000	46.466281
1775.000000	46.422009
1774.000000	46.378213
1773.000000	46.335644
1772.000000	46.292263
1771.000000	46.225789
1770.000000	46.189166
1769.000000	46.137981
1768.000000	46.092082
1767.000000	46.061307
1766.000000	46.014037
1765.000000	45.978597
1764.000000	45.955640
1763.000000	45.892008
1762.000000	45.844108
1761.000000	45.807239
1760.000000	45.769376
1759.000000	45.717607
1758.000000	45.685866
1757.000000	45.649483
1756.000000	45.602110
1755.000000	45.569843
1754.000000	45.539282
1753.000000	45.508064
1752.000000	45.463992
1751.000000	45.406854
1750.000000	45.376111
1749.000000	45.354170
1748.000000	45.289903
1747.000000	45.255914
1746.000000	45.200145
1745.000000	45.165606
1744.000000	45.109908
1743.000000	45.074667
1742.000000	45.024382
1741.000000	44.979539
1740.000000	44.952853
1739.000000	44.889780
1738.000000	44.876520
1737.000000	44.868531
1736.000000	44.815254
1735.000000	44.790512
1734.000000	44.792556
1733.000000	44.800169
1732.000000	44.770220
1731.000000	44.762588
1730.000000	44.790742
1729.000000	44.790019
1728.000000	44.857791
1727.000000	44.912474
1726.000000	44.962371
1725.000000	45.003924
1724.000000	45.070520
1723.000000	45.117784
1722.000000	45.211654
1721.000000	45.281533
1720.000000	45.371249
1719.000000	45.449447
1718.000000	45.542683
1717.000000	45.582572
1716.000000	45.701280
1715.000000	45.769681
1714.000000	45.832515
1713.000000	45.871036
1712.000000	45.939240
1711.000000	46.032382
1710.000000	46.086980
1709.000000	46.148324
1708.000000	46.176145
1707.000000	46.199987
1706.000000	46.196714
1705.000000	46.288050
1704.000000	46.320994
1703.000000	46.320043
1702.000000	46.336311
1701.000000	46.363380
1700.000000	46.380987
1699.000000	46.379448
1698.000000	46.408754
1697.000000	46.435332
1696.000000	46.458281
1695.000000	46.481773
1694.000000	46.501678
1693.000000	46.549575
1692.000000	46.599385
1691.000000	46.627315
1690.000000	46.688296
1689.000000	46.743261
1688.000000	46.865232
1687.000000	46.929935
1686.000000	47.035269
1685.000000	47.099032
1684.000000	47.227706
1683.000000	47.337654
1682.000000	47.481301
1681.000000	47.607050
1680.000000	47.712874
1679.000000	47.839144
1678.000000	47.987212
1677.000000	48.102890
1676.000000	48.227212
1675.000000	48.377198
1674.000000	48.496950
1673.000000	48.638738
1672.000000	48.762975
1671.000000	48.880163
1670.000000	48.999382
1669.000000	49.159243
1668.000000	49.258165
1667.000000	49.348798
1666.000000	49.423317
1665.000000	49.518662
1664.000000	49.553206
1663.000000	49.601552
1662.000000	49.648104
1661.000000	49.735261
1660.000000	49.806875
1659.000000	49.850409
1658.000000	49.866504
1657.000000	49.893006
1656.000000	49.908769
1655.000000	49.972179
1654.000000	49.969099
1653.000000	49.999191
1652.000000	50.000809
1651.000000	49.992918
1650.000000	49.994637
1649.000000	49.996813
1648.000000	49.976328
1647.000000	49.967219
1646.000000	49.955586
1645.000000	49.923979
1644.000000	49.910316
1643.000000	49.891855
1642.000000	49.892016
1641.000000	49.860445
1640.000000	49.831462
1639.000000	49.796077
1638.000000	49.786718
1637.000000	49.761469
1636.000000	49.721923
1635.000000	49.689550
1634.000000	49.649296
1633.000000	49.608618
1632.000000	49.580226
1631.000000	49.545755
1630.000000	49.523603
1629.000000	49.489835
1628.000000	49.438540
1627.000000	49.398675
1626.000000	49.361357
1625.000000	49.325777
1624.000000	49.276613
1623.000000	49.236645
1622.000000	49.204464
1621.000000	49.148411
1620.000000	49.115456
1619.000000	49.067726
1618.000000	49.006155
1617.000000	48.967347
1616.000000	48.928149
1615.000000	48.882428
1614.000000	48.826962
1613.000000	48.755158
1612.000000	48.710571
1611.000000	48.668193
1610.000000	48.624290
1609.000000	48.565311
1608.000000	48.517955
1607.000000	48.475049
1606.000000	48.409657
1605.000000	48.355618
1604.000000	48.288315
1603.000000	48.223201
1602.000000	48.186449
1601.000000	48.144027
1600.000000	48.087419
1599.000000	48.029901
1598.000000	47.975418
1597.000000	47.923249
1596.000000	47.877784
1595.000000	47.834120
1594.000000	47.768395
1593.000000	47.728514
1592.000000	47.701094
1591.000000	47.645780
1590.000000	47.600236
1589.000000	47.552304
1588.000000	47.499957
1587.000000	47.462870
1586.000000	47.422941
1585.000000	47.385690
1584.000000	47.341466
1583.000000	47.288423
1582.000000	47.247412
1581.000000	47.211863
1580.000000	47.166225
1579.000000	47.122197
1578.000000	47.087431
1577.000000	47.047004
1576.000000	46.998452
1575.000000	46.956704
1574.000000	46.911620
1573.000000	46.875404
1572.000000	46.849719
1571.000000	46.809498
1570.000000	46.760875
1569.000000	46.711421
1568.000000	46.676482
1567.000000	46.651251
1566.000000	46.616620
1565.000000	46.578299
1564.000000	46.544691
1563.000000	46.510358
1562.000000	46.494679
1561.000000	46.473088
1560.000000	46.459358
1559.000000	46.416292
1558.000000	46.401267
1557.000000	46.380004
1556.000000	46.353870
1555.000000	46.337315
1554.000000	46.298515
1553.000000	46.272698
1552.000000	46.228104
1551.000000	46.194687
1550.000000	46.168255
1549.000000	46.121354
1548.000000	46.078819
1547.000000	46.039258
1546.000000	45.984537
1545.000000	45.945954
1544.000000	45.881237
1543.000000	45.806529
1542.000000	45.728528
1541.000000	45.667354
1540.000000	45.612545
1539.000000	45.531198
1538.000000	45.447755
1537.000000	45.360356
1536.000000	45.298388
1535.000000	45.222643
1534.000000	45.151601
1533.000000	45.075559
1532.000000	45.001511
1531.000000	44.934736
1530.000000	44.874681
1529.000000	44.798575
1528.000000	44.728167
1527.000000	44.673847
1526.000000	44.622011
1525.000000	44.582504
1524.000000	44.527238
1523.000000	44.488880
1522.000000	44.424810
1521.000000	44.391447
1520.000000	44.351129
1519.000000	44.319642
1518.000000	44.276478
1517.000000	44.225682
1516.000000	44.197887
1515.000000	44.173239
1514.000000	44.158563
1513.000000	44.129634
1512.000000	44.136617
1511.000000	44.136930
1510.000000	44.146267
1509.000000	44.137557
1508.000000	44.111392
1507.000000	44.072957
1506.000000	44.051362
1505.000000	44.022989
1504.000000	44.004700
1503.000000	43.993310
1502.000000	43.966715
1501.000000	43.946779
1500.000000	43.912642
1499.000000	43.899290
1498.000000	43.899746
1497.000000	43.912289
1496.000000	43.899722
1495.000000	43.894514
1494.000000	43.897762
1493.000000	43.901226
1492.000000	43.913334
1491.000000	43.909171
1490.000000	43.937763
1489.000000	43.960933
1488.000000	43.957465
1487.000000	43.970452
1486.000000	43.979905
1485.000000	44.020631
1484.000000	44.033418
1483.000000	44.067959
1482.000000	44.075054
1481.000000	44.114725
1480.000000	44.122337
1479.000000	44.153688
1478.000000	44.173602
1477.000000	44.190696
1476.000000	44.209894
1475.000000	44.238029
1474.000000	44.259191
1473.000000	44.295315
1472.000000	44.304190
1471.000000	44.322707
1470.000000	44.368303
1469.000000	44.397559
