PE UV       SUBTECH     SPECTRUM    ASCII       PEDS        4.00        
   -1
TDmshap11.Sample.asc
18/03/12
16:55:07.00
18/03/12
16:55:07.00
Administrator

200.000000
1
Lambda 750
750N8071901
PerkinElmer UV WinLab 6.0.4.0738 / 1.61.00 Lambda 900

0
0
3350/servo 860.8/2
0
0
UV/VIS
1
1
1
CommonBeamDepol,150mm sphere / downward view
0
0
0
0
Program
Program
3350/servo 860.8/2
3350/0.2 860.8/0.2
3350/0.2 860.8/0.2
0
1
 
 
 
0
 
860.8
319.2
860.8
Front
100
on
 
 
0
0
0
 
0
 
 
 
0
 
 
0
0
0
0
0
 
 
 
 
0
0


0
0
#HDR
-1
-1
#GR
nm
%T
1.0
0.0
2350.000000
-1.000000
2151
8
9.378572
-0.032354
#DATA
2350.000000	2.343936
2349.000000	2.419777
2348.000000	2.704028
2347.000000	2.904851
2346.000000	2.890932
2345.000000	2.528774
2344.000000	2.701830
2343.000000	2.410327
2342.000000	2.339031
2341.000000	2.623088
2340.000000	2.605349
2339.000000	2.865767
2338.000000	2.962916
2337.000000	2.931348
2336.000000	3.028140
2335.000000	3.047054
2334.000000	3.306632
2333.000000	3.279938
2332.000000	3.417194
2331.000000	3.401279
2330.000000	3.154281
2329.000000	3.161452
2328.000000	3.496370
2327.000000	3.380926
2326.000000	3.241028
2325.000000	3.293382
2324.000000	3.465149
2323.000000	3.376524
2322.000000	2.981253
2321.000000	3.027876
2320.000000	2.817794
2319.000000	2.830911
2318.000000	3.102125
2317.000000	2.922990
2316.000000	2.862007
2315.000000	2.989579
2314.000000	2.928091
2313.000000	2.706268
2312.000000	2.633875
2311.000000	2.887940
2310.000000	2.976169
2309.000000	2.868642
2308.000000	2.782129
2307.000000	2.781189
2306.000000	2.864988
2305.000000	2.886210
2304.000000	2.763867
2303.000000	2.761177
2302.000000	3.023910
2301.000000	2.791161
2300.000000	2.562754
2299.000000	2.669056
2298.000000	2.516584
2297.000000	2.509805
2296.000000	2.638541
2295.000000	2.633987
2294.000000	2.463421
2293.000000	2.651695
2292.000000	2.713741
2291.000000	2.479635
2290.000000	2.477685
2289.000000	2.742146
2288.000000	2.920561
2287.000000	2.670989
2286.000000	2.557393
2285.000000	2.444005
2284.000000	2.364327
2283.000000	2.388527
2282.000000	2.498634
2281.000000	2.577036
2280.000000	2.439584
2279.000000	2.462379
2278.000000	2.506955
2277.000000	2.518882
2276.000000	2.500303
2275.000000	2.448894
2274.000000	2.401960
2273.000000	2.507672
2272.000000	2.613159
2271.000000	2.720408
2270.000000	2.646102
2269.000000	2.564747
2268.000000	2.540303
2267.000000	2.504010
2266.000000	2.595252
2265.000000	2.759944
2264.000000	2.785041
2263.000000	2.773140
2262.000000	2.950418
2261.000000	2.908202
2260.000000	2.722041
2259.000000	2.675166
2258.000000	2.767356
2257.000000	2.944316
2256.000000	2.945584
2255.000000	2.803859
2254.000000	2.910226
2253.000000	2.941547
2252.000000	2.909973
2251.000000	3.024531
2250.000000	3.142144
2249.000000	3.324204
2248.000000	3.362746
2247.000000	3.281471
2246.000000	3.328961
2245.000000	3.413832
2244.000000	3.416705
2243.000000	3.553031
2242.000000	3.567933
2241.000000	3.356946
2240.000000	3.366642
2239.000000	3.456917
2238.000000	3.412745
2237.000000	3.538305
2236.000000	3.677052
2235.000000	3.687399
2234.000000	3.595599
2233.000000	3.525263
2232.000000	3.630118
2231.000000	3.761460
2230.000000	3.809220
2229.000000	3.807939
2228.000000	3.747256
2227.000000	3.715246
2226.000000	3.678780
2225.000000	3.690678
2224.000000	3.791926
2223.000000	3.747372
2222.000000	3.760160
2221.000000	3.698746
2220.000000	3.686703
2219.000000	3.669911
2218.000000	3.639681
2217.000000	3.680202
2216.000000	3.743223
2215.000000	3.692929
2214.000000	3.650602
2213.000000	3.761486
2212.000000	3.750212
2211.000000	3.719883
2210.000000	3.658497
2209.000000	3.609163
2208.000000	3.491955
2207.000000	3.418686
2206.000000	3.346277
2205.000000	3.466671
2204.000000	3.566273
2203.000000	3.491998
2202.000000	3.388829
2201.000000	3.327601
2200.000000	3.196389
2199.000000	3.302986
2198.000000	3.392071
2197.000000	3.306073
2196.000000	3.317847
2195.000000	3.352017
2194.000000	3.222561
2193.000000	3.139056
2192.000000	3.221946
2191.000000	3.301978
2190.000000	3.283375
2189.000000	3.179536
2188.000000	3.253279
2187.000000	3.231257
2186.000000	3.043358
2185.000000	3.103417
2184.000000	3.190302
2183.000000	3.378954
2182.000000	3.158856
2181.000000	3.173047
2180.000000	3.176921
2179.000000	3.124962
2178.000000	3.034336
2177.000000	2.981469
2176.000000	2.940619
2175.000000	3.030334
2174.000000	3.050908
2173.000000	2.938080
2172.000000	3.010139
2171.000000	3.123113
2170.000000	3.123358
2169.000000	3.143833
2168.000000	3.207597
2167.000000	3.350538
2166.000000	3.316041
2165.000000	3.354572
2164.000000	3.323280
2163.000000	3.227140
2162.000000	3.299538
2161.000000	3.114925
2160.000000	3.369168
2159.000000	3.485614
2158.000000	3.353619
2157.000000	3.399223
2156.000000	3.469557
2155.000000	3.568990
2154.000000	3.419574
2153.000000	3.500905
2152.000000	3.473505
2151.000000	3.488352
2150.000000	3.577567
2149.000000	3.512236
2148.000000	3.613462
2147.000000	3.677691
2146.000000	3.472144
2145.000000	3.617800
2144.000000	3.749922
2143.000000	3.717492
2142.000000	3.779181
2141.000000	3.825410
2140.000000	3.714792
2139.000000	3.911810
2138.000000	3.935287
2137.000000	3.963948
2136.000000	4.055470
2135.000000	3.933710
2134.000000	3.922658
2133.000000	3.584610
2132.000000	3.798580
2131.000000	3.995080
2130.000000	3.939182
2129.000000	3.952117
2128.000000	3.744683
2127.000000	3.770957
2126.000000	3.800131
2125.000000	3.870344
2124.000000	4.061029
2123.000000	3.809199
2122.000000	3.808675
2121.000000	3.930611
2120.000000	3.915550
2119.000000	4.082570
2118.000000	4.008571
2117.000000	3.907797
2116.000000	3.981499
2115.000000	4.071997
2114.000000	3.879548
2113.000000	4.004543
2112.000000	4.011788
2111.000000	4.001862
2110.000000	3.957121
2109.000000	3.995325
2108.000000	3.913629
2107.000000	3.895942
2106.000000	3.930640
2105.000000	3.887541
2104.000000	4.051256
2103.000000	4.027452
2102.000000	4.024462
2101.000000	4.063973
2100.000000	4.095389
2099.000000	4.020061
2098.000000	3.973432
2097.000000	3.898101
2096.000000	3.940910
2095.000000	3.952781
2094.000000	3.975350
2093.000000	3.973400
2092.000000	3.938340
2091.000000	3.981706
2090.000000	3.828620
2089.000000	3.943967
2088.000000	3.884923
2087.000000	3.937480
2086.000000	3.964870
2085.000000	3.962060
2084.000000	3.902240
2083.000000	3.960141
2082.000000	3.828883
2081.000000	3.774443
2080.000000	3.774318
2079.000000	3.775008
2078.000000	3.798094
2077.000000	3.762354
2076.000000	3.772037
2075.000000	3.713699
2074.000000	3.609943
2073.000000	3.620252
2072.000000	3.607778
2071.000000	3.573635
2070.000000	3.570258
2069.000000	3.582076
2068.000000	3.473338
2067.000000	3.440812
2066.000000	3.456926
2065.000000	3.464031
2064.000000	3.396970
2063.000000	3.356740
2062.000000	3.327983
2061.000000	3.180436
2060.000000	3.122567
2059.000000	3.148990
2058.000000	3.206568
2057.000000	3.177542
2056.000000	3.119057
2055.000000	3.102875
2054.000000	3.031144
2053.000000	3.005386
2052.000000	2.991611
2051.000000	3.002042
2050.000000	2.957664
2049.000000	2.913176
2048.000000	2.903500
2047.000000	2.886637
2046.000000	2.835980
2045.000000	2.853867
2044.000000	2.839948
2043.000000	2.785932
2042.000000	2.812572
2041.000000	2.850267
2040.000000	2.885050
2039.000000	2.872679
2038.000000	2.784487
2037.000000	2.765367
2036.000000	2.825758
2035.000000	2.924693
2034.000000	2.954535
2033.000000	2.946729
2032.000000	2.937164
2031.000000	2.918947
2030.000000	2.955457
2029.000000	2.950587
2028.000000	2.955073
2027.000000	2.998907
2026.000000	3.078328
2025.000000	3.105932
2024.000000	3.092296
2023.000000	3.093119
2022.000000	3.061243
2021.000000	3.042383
2020.000000	3.085002
2019.000000	3.081800
2018.000000	3.087414
2017.000000	3.108454
2016.000000	3.074117
2015.000000	3.050801
2014.000000	3.056777
2013.000000	3.028960
2012.000000	3.037389
2011.000000	3.071126
2010.000000	3.063191
2009.000000	3.042890
2008.000000	3.020260
2007.000000	3.010668
2006.000000	2.992005
2005.000000	2.977718
2004.000000	2.950519
2003.000000	2.914799
2002.000000	2.863723
2001.000000	2.834702
2000.000000	2.866807
1999.000000	2.878355
1998.000000	2.830496
1997.000000	2.803032
1996.000000	2.814529
1995.000000	2.769297
1994.000000	2.715605
1993.000000	2.693370
1992.000000	2.684858
1991.000000	2.665948
1990.000000	2.618175
1989.000000	2.612663
1988.000000	2.595158
1987.000000	2.576552
1986.000000	2.553178
1985.000000	2.521711
1984.000000	2.539467
1983.000000	2.545488
1982.000000	2.498921
1981.000000	2.471396
1980.000000	2.443329
1979.000000	2.511344
1978.000000	2.436530
1977.000000	2.373196
1976.000000	2.371327
1975.000000	2.361288
1974.000000	2.371763
1973.000000	2.368484
1972.000000	2.308491
1971.000000	2.314150
1970.000000	2.333787
1969.000000	2.284169
1968.000000	2.239506
1967.000000	2.301442
1966.000000	2.273167
1965.000000	2.245109
1964.000000	2.206048
1963.000000	2.192526
1962.000000	2.182293
1961.000000	2.193925
1960.000000	2.160375
1959.000000	2.150764
1958.000000	2.152820
1957.000000	2.138343
1956.000000	2.134237
1955.000000	2.136178
1954.000000	2.134108
1953.000000	2.096899
1952.000000	2.158633
1951.000000	2.175696
1950.000000	2.192242
1949.000000	2.142294
1948.000000	2.148739
1947.000000	2.129111
1946.000000	2.151288
1945.000000	2.163578
1944.000000	2.147599
1943.000000	2.135106
1942.000000	2.113230
1941.000000	2.211568
1940.000000	2.190631
1939.000000	2.221106
1938.000000	2.198504
1937.000000	2.255552
1936.000000	2.266702
1935.000000	2.225559
1934.000000	2.251067
1933.000000	2.230243
1932.000000	2.289791
1931.000000	2.257501
1930.000000	2.267433
1929.000000	2.335078
1928.000000	2.325955
1927.000000	2.409761
1926.000000	2.522166
1925.000000	2.519936
1924.000000	2.586251
1923.000000	2.519336
1922.000000	2.543952
1921.000000	2.639412
1920.000000	2.694211
1919.000000	2.693604
1918.000000	2.741479
1917.000000	2.817206
1916.000000	2.757493
1915.000000	2.905254
1914.000000	3.027177
1913.000000	3.083285
1912.000000	3.143027
1911.000000	3.220181
1910.000000	3.339230
1909.000000	3.314542
1908.000000	3.464935
1907.000000	3.534696
1906.000000	3.619078
1905.000000	3.690923
1904.000000	3.802645
1903.000000	3.914335
1902.000000	4.000271
1901.000000	4.136345
1900.000000	4.264243
1899.000000	4.424589
1898.000000	4.559946
1897.000000	4.711827
1896.000000	4.796290
1895.000000	4.857841
1894.000000	4.986074
1893.000000	5.114241
1892.000000	5.246786
1891.000000	5.392907
1890.000000	5.473174
1889.000000	5.641991
1888.000000	5.703083
1887.000000	5.829029
1886.000000	5.961562
1885.000000	6.161497
1884.000000	6.210453
1883.000000	6.373698
1882.000000	6.537600
1881.000000	6.613583
1880.000000	6.705558
1879.000000	6.844814
1878.000000	6.919686
1877.000000	6.987857
1876.000000	7.151102
1875.000000	7.258979
1874.000000	7.308342
1873.000000	7.347435
1872.000000	7.408282
1871.000000	7.485262
1870.000000	7.500820
1869.000000	7.588956
1868.000000	7.626743
1867.000000	7.607565
1866.000000	7.625619
1865.000000	7.680569
1864.000000	7.666746
1863.000000	7.683999
1862.000000	7.705676
1861.000000	7.726294
1860.000000	7.732492
1859.000000	7.721826
1858.000000	7.739228
1857.000000	7.780871
1856.000000	7.784811
1855.000000	7.788261
1854.000000	7.846944
1853.000000	7.875828
1852.000000	7.882799
1851.000000	7.829515
1850.000000	7.856687
1849.000000	7.899803
1848.000000	7.902144
1847.000000	7.909579
1846.000000	7.904392
1845.000000	7.900616
1844.000000	7.870761
1843.000000	7.855032
1842.000000	7.854695
1841.000000	7.843210
1840.000000	7.832194
1839.000000	7.840247
1838.000000	7.835001
1837.000000	7.787289
1836.000000	7.748292
1835.000000	7.718949
1834.000000	7.685235
1833.000000	7.671909
1832.000000	7.654199
1831.000000	7.660945
1830.000000	7.660354
1829.000000	7.628396
1828.000000	7.597545
1827.000000	7.587375
1826.000000	7.577309
1825.000000	7.521640
1824.000000	7.505529
1823.000000	7.507236
1822.000000	7.497125
1821.000000	7.453998
1820.000000	7.428693
1819.000000	7.415416
1818.000000	7.411326
1817.000000	7.394056
1816.000000	7.371034
1815.000000	7.372110
1814.000000	7.369453
1813.000000	7.348854
1812.000000	7.342196
1811.000000	7.333810
1810.000000	7.317426
1809.000000	7.333847
1808.000000	7.324472
1807.000000	7.296928
1806.000000	7.300721
1805.000000	7.272794
1804.000000	7.239295
1803.000000	7.245337
1802.000000	7.238741
1801.000000	7.226322
1800.000000	7.228110
1799.000000	7.224896
1798.000000	7.227885
1797.000000	7.223458
1796.000000	7.205270
1795.000000	7.216383
1794.000000	7.231280
1793.000000	7.224722
1792.000000	7.206554
1791.000000	7.218917
1790.000000	7.210674
1789.000000	7.199268
1788.000000	7.216274
1787.000000	7.212895
1786.000000	7.237330
1785.000000	7.241591
1784.000000	7.205154
1783.000000	7.195379
1782.000000	7.200384
1781.000000	7.186426
1780.000000	7.174301
1779.000000	7.200959
1778.000000	7.175953
1777.000000	7.123037
1776.000000	7.121052
1775.000000	7.110210
1774.000000	7.107338
1773.000000	7.104321
1772.000000	7.056956
1771.000000	7.027778
1770.000000	7.004435
1769.000000	7.018675
1768.000000	7.012124
1767.000000	6.979087
1766.000000	6.927235
1765.000000	6.906125
1764.000000	6.927844
1763.000000	6.925530
1762.000000	6.880115
1761.000000	6.840362
1760.000000	6.842305
1759.000000	6.837200
1758.000000	6.827976
1757.000000	6.788064
1756.000000	6.762935
1755.000000	6.762016
1754.000000	6.733234
1753.000000	6.735332
1752.000000	6.722960
1751.000000	6.689804
1750.000000	6.676450
1749.000000	6.698633
1748.000000	6.674612
1747.000000	6.631747
1746.000000	6.607990
1745.000000	6.593487
1744.000000	6.533532
1743.000000	6.541565
1742.000000	6.541357
1741.000000	6.555344
1740.000000	6.540278
1739.000000	6.484105
1738.000000	6.502585
1737.000000	6.475120
1736.000000	6.468684
1735.000000	6.440418
1734.000000	6.456076
1733.000000	6.457043
1732.000000	6.447611
1731.000000	6.450815
1730.000000	6.405489
1729.000000	6.437492
1728.000000	6.455161
1727.000000	6.474207
1726.000000	6.482043
1725.000000	6.493732
1724.000000	6.499220
1723.000000	6.520182
1722.000000	6.551322
1721.000000	6.582450
1720.000000	6.613303
1719.000000	6.640981
1718.000000	6.677137
1717.000000	6.672922
1716.000000	6.704093
1715.000000	6.711407
1714.000000	6.732900
1713.000000	6.777922
1712.000000	6.784747
1711.000000	6.798964
1710.000000	6.795583
1709.000000	6.818124
1708.000000	6.840494
1707.000000	6.820833
1706.000000	6.830966
1705.000000	6.891495
1704.000000	6.880835
1703.000000	6.872005
1702.000000	6.861458
1701.000000	6.845943
1700.000000	6.872754
1699.000000	6.842871
1698.000000	6.900031
1697.000000	6.900198
1696.000000	6.923995
1695.000000	6.932052
1694.000000	6.920981
1693.000000	6.947357
1692.000000	6.932698
1691.000000	6.934899
1690.000000	7.008411
1689.000000	7.026596
1688.000000	7.029714
1687.000000	7.061587
1686.000000	7.113641
1685.000000	7.126541
1684.000000	7.150534
1683.000000	7.211929
1682.000000	7.296072
1681.000000	7.333236
1680.000000	7.342527
1679.000000	7.414256
1678.000000	7.459180
1677.000000	7.496402
1676.000000	7.532319
1675.000000	7.572468
1674.000000	7.616391
1673.000000	7.647979
1672.000000	7.712348
1671.000000	7.776632
1670.000000	7.798171
1669.000000	7.815904
1668.000000	7.831480
1667.000000	7.901743
1666.000000	7.895097
1665.000000	7.902904
1664.000000	7.911900
1663.000000	7.961831
1662.000000	8.000575
1661.000000	8.011000
1660.000000	8.033442
1659.000000	8.070499
1658.000000	8.071660
1657.000000	8.109405
1656.000000	8.118652
1655.000000	8.122544
1654.000000	8.112001
1653.000000	8.127394
1652.000000	8.137560
1651.000000	8.115757
1650.000000	8.113502
1649.000000	8.121112
1648.000000	8.106770
1647.000000	8.092720
1646.000000	8.078200
1645.000000	8.069872
1644.000000	8.065199
1643.000000	8.060256
1642.000000	8.046317
1641.000000	8.043563
1640.000000	8.028893
1639.000000	8.009825
1638.000000	7.998530
1637.000000	7.990593
1636.000000	7.962806
1635.000000	7.937252
1634.000000	7.935663
1633.000000	7.909237
1632.000000	7.911314
1631.000000	7.866865
1630.000000	7.861762
1629.000000	7.859823
1628.000000	7.834142
1627.000000	7.810163
1626.000000	7.805650
1625.000000	7.795290
1624.000000	7.779510
1623.000000	7.761733
1622.000000	7.748749
1621.000000	7.731580
1620.000000	7.709221
1619.000000	7.683470
1618.000000	7.657529
1617.000000	7.639551
1616.000000	7.629704
1615.000000	7.626920
1614.000000	7.601610
1613.000000	7.587319
1612.000000	7.573873
1611.000000	7.549322
1610.000000	7.510557
1609.000000	7.478748
1608.000000	7.463079
1607.000000	7.464342
1606.000000	7.452518
1605.000000	7.430194
1604.000000	7.403932
1603.000000	7.371066
1602.000000	7.344656
1601.000000	7.328262
1600.000000	7.316377
1599.000000	7.316873
1598.000000	7.309629
1597.000000	7.280916
1596.000000	7.251988
1595.000000	7.237438
1594.000000	7.239726
1593.000000	7.228740
1592.000000	7.203315
1591.000000	7.184148
1590.000000	7.178585
1589.000000	7.160232
1588.000000	7.129633
1587.000000	7.115795
1586.000000	7.099263
1585.000000	7.096064
1584.000000	7.084266
1583.000000	7.063009
1582.000000	7.052397
1581.000000	7.029057
1580.000000	7.009669
1579.000000	7.007471
1578.000000	7.008968
1577.000000	6.992974
1576.000000	6.963394
1575.000000	6.957063
1574.000000	6.940245
1573.000000	6.900670
1572.000000	6.880956
1571.000000	6.871848
1570.000000	6.864193
1569.000000	6.850904
1568.000000	6.838275
1567.000000	6.827181
1566.000000	6.817050
1565.000000	6.806313
1564.000000	6.779020
1563.000000	6.776656
1562.000000	6.770851
1561.000000	6.754646
1560.000000	6.732204
1559.000000	6.718769
1558.000000	6.698964
1557.000000	6.681777
1556.000000	6.659260
1555.000000	6.658464
1554.000000	6.647606
1553.000000	6.639623
1552.000000	6.616244
1551.000000	6.592139
1550.000000	6.601399
1549.000000	6.587790
1548.000000	6.572702
1547.000000	6.529864
1546.000000	6.501539
1545.000000	6.488290
1544.000000	6.442488
1543.000000	6.421784
1542.000000	6.415586
1541.000000	6.389355
1540.000000	6.332077
1539.000000	6.307941
1538.000000	6.289409
1537.000000	6.269252
1536.000000	6.242774
1535.000000	6.200140
1534.000000	6.171813
1533.000000	6.163660
1532.000000	6.124526
1531.000000	6.097195
1530.000000	6.072308
1529.000000	6.046972
1528.000000	6.032374
1527.000000	6.011981
1526.000000	5.985437
1525.000000	5.970391
1524.000000	5.929240
1523.000000	5.923474
1522.000000	5.908526
1521.000000	5.903145
1520.000000	5.894728
1519.000000	5.876490
1518.000000	5.884787
1517.000000	5.849405
1516.000000	5.848685
1515.000000	5.851660
1514.000000	5.829626
1513.000000	5.820500
1512.000000	5.811719
1511.000000	5.808029
1510.000000	5.809523
1509.000000	5.799831
1508.000000	5.788526
1507.000000	5.785103
1506.000000	5.774223
1505.000000	5.767754
1504.000000	5.771467
1503.000000	5.770869
1502.000000	5.770011
1501.000000	5.791722
1500.000000	5.786542
1499.000000	5.797371
1498.000000	5.790533
1497.000000	5.792057
1496.000000	5.785766
1495.000000	5.772910
1494.000000	5.764696
1493.000000	5.777661
1492.000000	5.760492
1491.000000	5.781923
1490.000000	5.790116
1489.000000	5.786471
1488.000000	5.798223
1487.000000	5.788688
1486.000000	5.798650
1485.000000	5.812660
1484.000000	5.820357
1483.000000	5.831942
1482.000000	5.801926
1481.000000	5.842541
1480.000000	5.839823
1479.000000	5.813307
1478.000000	5.829547
1477.000000	5.833664
1476.000000	5.820871
1475.000000	5.826180
1474.000000	5.848420
1473.000000	5.866740
1472.000000	5.870230
1471.000000	5.865160
1470.000000	5.865343
1469.000000	5.862757
1468.000000	5.867069
1467.000000	5.905330
1466.000000	5.935832
1465.000000	5.951737
1464.000000	5.939504
1463.000000	5.931389
1462.000000	5.923596
1461.000000	5.922742
1460.000000	5.962089
1459.000000	5.988499
1458.000000	5.975415
1457.000000	5.979424
1456.000000	6.001982
1455.000000	6.026445
1454.000000	6.023021
1453.000000	6.020009
1452.000000	6.029128
1451.000000	6.041494
1450.000000	6.082267
1449.000000	6.107525
1448.000000	6.123367
1447.000000	6.110754
1446.000000	6.141329
1445.000000	6.152653
1444.000000	6.169465
1443.000000	6.205224
1442.000000	6.223401
1441.000000	6.245730
1440.000000	6.253133
1439.000000	6.279558
1438.000000	6.298365
1437.000000	6.309453
1436.000000	6.342497
1435.000000	6.370721
1434.000000	6.408914
1433.000000	6.447499
1432.000000	6.467225
1431.000000	6.495360
1430.000000	6.541923
1429.000000	6.584065
1428.000000	6.642011
1427.000000	6.681390
