PE UV       SUBTECH     SPECTRUM    ASCII       PEDS        4.00        
   -1
TTmshap11.Sample.asc
18/03/12
16:15:30.00
18/03/12
16:15:30.00
Administrator

200.000000
1
Lambda 750
750N8071901
PerkinElmer UV WinLab 6.0.4.0738 / 1.61.00 Lambda 900

0
0
3350/servo 860.8/2
0
0
UV/VIS
1
1
1
CommonBeamDepol,150mm sphere / downward view
0
0
0
0
Program
Program
3350/servo 860.8/2
3350/0.2 860.8/0.2
3350/0.2 860.8/0.2
0
1
 
 
 
0
 
860.8
319.2
860.8
Front
100
on
 
 
0
0
0
 
0
 
 
 
0
 
 
0
0
0
0
0
 
 
 
 
0
0


0
0
#HDR
-1
-1
#GR
nm
%T
1.0
0.0
2350.000000
-1.000000
2151
8
11.177221
-0.013998
#DATA
2350.000000	2.653505
2349.000000	3.069900
2348.000000	2.852273
2347.000000	3.794101
2346.000000	3.152406
2345.000000	3.029096
2344.000000	2.804719
2343.000000	2.761288
2342.000000	3.143347
2341.000000	3.050091
2340.000000	3.151355
2339.000000	3.317922
2338.000000	3.277648
2337.000000	3.399263
2336.000000	3.851520
2335.000000	3.811911
2334.000000	3.757244
2333.000000	3.739414
2332.000000	3.640924
2331.000000	3.568057
2330.000000	3.531040
2329.000000	3.585178
2328.000000	3.541650
2327.000000	3.430115
2326.000000	3.526862
2325.000000	3.711461
2324.000000	3.724172
2323.000000	3.559867
2322.000000	3.453773
2321.000000	3.686255
2320.000000	3.691064
2319.000000	3.572499
2318.000000	3.574212
2317.000000	3.838449
2316.000000	3.515250
2315.000000	3.425578
2314.000000	3.433966
2313.000000	3.132841
2312.000000	2.919661
2311.000000	3.146071
2310.000000	3.326753
2309.000000	3.360886
2308.000000	3.330228
2307.000000	3.128750
2306.000000	3.175219
2305.000000	3.036712
2304.000000	3.048958
2303.000000	3.244027
2302.000000	3.265774
2301.000000	2.976916
2300.000000	3.008622
2299.000000	3.227404
2298.000000	3.023314
2297.000000	2.995609
2296.000000	2.990386
2295.000000	3.071150
2294.000000	3.078520
2293.000000	3.121851
2292.000000	2.904691
2291.000000	2.963066
2290.000000	3.170775
2289.000000	3.021502
2288.000000	3.033915
2287.000000	3.057548
2286.000000	3.075101
2285.000000	2.980755
2284.000000	3.002474
2283.000000	2.869765
2282.000000	2.801952
2281.000000	2.793634
2280.000000	2.884588
2279.000000	2.963558
2278.000000	2.935879
2277.000000	2.949341
2276.000000	2.887952
2275.000000	3.016173
2274.000000	2.994412
2273.000000	2.901321
2272.000000	2.978947
2271.000000	3.017255
2270.000000	3.003050
2269.000000	3.038538
2268.000000	3.043944
2267.000000	3.000812
2266.000000	3.107550
2265.000000	3.004630
2264.000000	3.000897
2263.000000	3.167355
2262.000000	3.303830
2261.000000	3.185534
2260.000000	3.201849
2259.000000	3.244696
2258.000000	3.343934
2257.000000	3.418543
2256.000000	3.395789
2255.000000	3.362490
2254.000000	3.489081
2253.000000	3.540432
2252.000000	3.570593
2251.000000	3.649920
2250.000000	3.677904
2249.000000	3.655604
2248.000000	3.686184
2247.000000	3.859497
2246.000000	3.859419
2245.000000	3.835099
2244.000000	3.970102
2243.000000	4.052229
2242.000000	3.955401
2241.000000	4.026537
2240.000000	4.089386
2239.000000	4.122584
2238.000000	4.135414
2237.000000	4.143239
2236.000000	4.203934
2235.000000	4.228120
2234.000000	4.215168
2233.000000	4.066460
2232.000000	4.172760
2231.000000	4.251194
2230.000000	4.307998
2229.000000	4.418599
2228.000000	4.418023
2227.000000	4.419039
2226.000000	4.370698
2225.000000	4.289242
2224.000000	4.280480
2223.000000	4.296142
2222.000000	4.321240
2221.000000	4.293467
2220.000000	4.352172
2219.000000	4.387416
2218.000000	4.217302
2217.000000	4.171879
2216.000000	4.335682
2215.000000	4.350396
2214.000000	4.270935
2213.000000	4.285231
2212.000000	4.243031
2211.000000	4.242149
2210.000000	4.242071
2209.000000	4.142350
2208.000000	4.178150
2207.000000	4.110217
2206.000000	4.127637
2205.000000	4.210684
2204.000000	4.112702
2203.000000	4.086105
2202.000000	4.097499
2201.000000	4.037338
2200.000000	3.857604
2199.000000	3.766524
2198.000000	3.879579
2197.000000	3.892261
2196.000000	3.825522
2195.000000	3.753355
2194.000000	3.755571
2193.000000	3.755085
2192.000000	3.720797
2191.000000	3.713829
2190.000000	3.666994
2189.000000	3.553046
2188.000000	3.659031
2187.000000	3.573495
2186.000000	3.555737
2185.000000	3.766666
2184.000000	3.764589
2183.000000	3.733566
2182.000000	3.828926
2181.000000	3.708153
2180.000000	3.633217
2179.000000	3.483538
2178.000000	3.594981
2177.000000	3.720159
2176.000000	3.712806
2175.000000	3.691765
2174.000000	3.668039
2173.000000	3.588749
2172.000000	3.714214
2171.000000	3.506195
2170.000000	3.630330
2169.000000	3.783802
2168.000000	3.908179
2167.000000	4.008586
2166.000000	3.816010
2165.000000	3.799171
2164.000000	3.694009
2163.000000	3.643146
2162.000000	3.672041
2161.000000	3.665445
2160.000000	3.836038
2159.000000	4.034211
2158.000000	4.041338
2157.000000	4.094672
2156.000000	4.011537
2155.000000	3.936593
2154.000000	4.205599
2153.000000	4.245628
2152.000000	4.299435
2151.000000	4.205369
2150.000000	4.149608
2149.000000	3.942620
2148.000000	4.207664
2147.000000	4.316280
2146.000000	4.122158
2145.000000	4.222225
2144.000000	4.289819
2143.000000	4.250817
2142.000000	4.484193
2141.000000	4.389258
2140.000000	4.375436
2139.000000	4.559478
2138.000000	4.570205
2137.000000	4.517901
2136.000000	4.665956
2135.000000	4.638278
2134.000000	4.559938
2133.000000	4.375488
2132.000000	4.562093
2131.000000	4.645033
2130.000000	4.700005
2129.000000	4.528540
2128.000000	4.680979
2127.000000	4.528987
2126.000000	4.561766
2125.000000	4.600581
2124.000000	4.667371
2123.000000	4.640643
2122.000000	4.605863
2121.000000	4.617955
2120.000000	4.486197
2119.000000	4.580462
2118.000000	4.690793
2117.000000	4.546919
2116.000000	4.610771
2115.000000	4.692788
2114.000000	4.652398
2113.000000	4.782354
2112.000000	4.653570
2111.000000	4.708802
2110.000000	4.620954
2109.000000	4.557637
2108.000000	4.564675
2107.000000	4.661101
2106.000000	4.576377
2105.000000	4.633565
2104.000000	4.698045
2103.000000	4.688797
2102.000000	4.719186
2101.000000	4.753989
2100.000000	4.636641
2099.000000	4.608618
2098.000000	4.652739
2097.000000	4.709315
2096.000000	4.725828
2095.000000	4.692952
2094.000000	4.633268
2093.000000	4.615220
2092.000000	4.644940
2091.000000	4.606867
2090.000000	4.572673
2089.000000	4.649121
2088.000000	4.591300
2087.000000	4.545798
2086.000000	4.687385
2085.000000	4.680317
2084.000000	4.603939
2083.000000	4.600214
2082.000000	4.618861
2081.000000	4.578059
2080.000000	4.478717
2079.000000	4.441560
2078.000000	4.485191
2077.000000	4.445896
2076.000000	4.414953
2075.000000	4.394671
2074.000000	4.327839
2073.000000	4.361340
2072.000000	4.326187
2071.000000	4.228921
2070.000000	4.212741
2069.000000	4.160071
2068.000000	4.092489
2067.000000	4.131033
2066.000000	4.063460
2065.000000	3.991563
2064.000000	3.934067
2063.000000	3.811592
2062.000000	3.905162
2061.000000	3.885698
2060.000000	3.843261
2059.000000	3.816355
2058.000000	3.723577
2057.000000	3.631390
2056.000000	3.563439
2055.000000	3.592330
2054.000000	3.608923
2053.000000	3.580901
2052.000000	3.486829
2051.000000	3.458249
2050.000000	3.402833
2049.000000	3.398183
2048.000000	3.417736
2047.000000	3.397838
2046.000000	3.305916
2045.000000	3.310719
2044.000000	3.305181
2043.000000	3.301352
2042.000000	3.320149
2041.000000	3.279463
2040.000000	3.308800
2039.000000	3.367857
2038.000000	3.366243
2037.000000	3.306133
2036.000000	3.314936
2035.000000	3.338133
2034.000000	3.321274
2033.000000	3.374463
2032.000000	3.466086
2031.000000	3.481850
2030.000000	3.497306
2029.000000	3.544727
2028.000000	3.548209
2027.000000	3.524719
2026.000000	3.537807
2025.000000	3.601319
2024.000000	3.637662
2023.000000	3.610290
2022.000000	3.590961
2021.000000	3.594395
2020.000000	3.537356
2019.000000	3.509302
2018.000000	3.595797
2017.000000	3.651899
2016.000000	3.624626
2015.000000	3.603580
2014.000000	3.586835
2013.000000	3.607500
2012.000000	3.604390
2011.000000	3.597449
2010.000000	3.574684
2009.000000	3.546464
2008.000000	3.509047
2007.000000	3.466756
2006.000000	3.451566
2005.000000	3.478408
2004.000000	3.418005
2003.000000	3.371008
2002.000000	3.407029
2001.000000	3.335146
2000.000000	3.307497
1999.000000	3.338293
1998.000000	3.308253
1997.000000	3.266256
1996.000000	3.233206
1995.000000	3.209075
1994.000000	3.205550
1993.000000	3.162236
1992.000000	3.102174
1991.000000	3.088028
1990.000000	3.059130
1989.000000	3.024741
1988.000000	3.024157
1987.000000	2.991275
1986.000000	2.971028
1985.000000	2.977921
1984.000000	2.943459
1983.000000	2.942014
1982.000000	2.915408
1981.000000	2.905463
1980.000000	2.842496
1979.000000	2.822058
1978.000000	2.829951
1977.000000	2.776579
1976.000000	2.763965
1975.000000	2.755799
1974.000000	2.719911
1973.000000	2.738867
1972.000000	2.711337
1971.000000	2.679281
1970.000000	2.701433
1969.000000	2.657572
1968.000000	2.640301
1967.000000	2.603185
1966.000000	2.586141
1965.000000	2.549488
1964.000000	2.566313
1963.000000	2.579996
1962.000000	2.562583
1961.000000	2.513332
1960.000000	2.480415
1959.000000	2.458725
1958.000000	2.443717
1957.000000	2.441361
1956.000000	2.437204
1955.000000	2.437903
1954.000000	2.409957
1953.000000	2.431233
1952.000000	2.427387
1951.000000	2.431106
1950.000000	2.432170
1949.000000	2.456144
1948.000000	2.382159
1947.000000	2.457538
1946.000000	2.437897
1945.000000	2.457012
1944.000000	2.444542
1943.000000	2.502697
1942.000000	2.460260
1941.000000	2.405373
1940.000000	2.462917
1939.000000	2.546264
1938.000000	2.548041
1937.000000	2.541880
1936.000000	2.573762
1935.000000	2.548520
1934.000000	2.541048
1933.000000	2.545570
1932.000000	2.607669
1931.000000	2.630771
1930.000000	2.656742
1929.000000	2.677526
1928.000000	2.689351
1927.000000	2.704655
1926.000000	2.764550
1925.000000	2.822268
1924.000000	2.879740
1923.000000	2.982078
1922.000000	2.929429
1921.000000	3.086517
1920.000000	3.051130
1919.000000	3.124233
1918.000000	3.181610
1917.000000	3.302217
1916.000000	3.303600
1915.000000	3.436558
1914.000000	3.547620
1913.000000	3.600348
1912.000000	3.682504
1911.000000	3.824672
1910.000000	3.885739
1909.000000	3.931619
1908.000000	3.989277
1907.000000	4.113017
1906.000000	4.208263
1905.000000	4.423246
1904.000000	4.521028
1903.000000	4.638718
1902.000000	4.729972
1901.000000	4.910438
1900.000000	5.000925
1899.000000	5.128765
1898.000000	5.347280
1897.000000	5.450517
1896.000000	5.609756
1895.000000	5.733076
1894.000000	5.916363
1893.000000	6.095606
1892.000000	6.278622
1891.000000	6.400328
1890.000000	6.577357
1889.000000	6.673491
1888.000000	6.816224
1887.000000	6.943906
1886.000000	7.107258
1885.000000	7.254464
1884.000000	7.421118
1883.000000	7.567642
1882.000000	7.678030
1881.000000	7.774889
1880.000000	7.883309
1879.000000	8.011599
1878.000000	8.133714
1877.000000	8.290688
1876.000000	8.412200
1875.000000	8.551615
1874.000000	8.608385
1873.000000	8.630496
1872.000000	8.727103
1871.000000	8.836055
1870.000000	8.929960
1869.000000	9.009847
1868.000000	9.004451
1867.000000	9.062819
1866.000000	9.057517
1865.000000	9.099543
1864.000000	9.111211
1863.000000	9.122837
1862.000000	9.151040
1861.000000	9.164146
1860.000000	9.197309
1859.000000	9.191019
1858.000000	9.179320
1857.000000	9.212935
1856.000000	9.203867
1855.000000	9.230109
1854.000000	9.273229
1853.000000	9.329626
1852.000000	9.334328
1851.000000	9.330294
1850.000000	9.333563
1849.000000	9.316565
1848.000000	9.281223
1847.000000	9.305535
1846.000000	9.328420
1845.000000	9.336762
1844.000000	9.335377
1843.000000	9.291450
1842.000000	9.295126
1841.000000	9.291298
1840.000000	9.260652
1839.000000	9.246609
1838.000000	9.248373
1837.000000	9.211726
1836.000000	9.182457
1835.000000	9.127418
1834.000000	9.128755
1833.000000	9.128494
1832.000000	9.073747
1831.000000	9.037205
1830.000000	9.025297
1829.000000	9.032863
1828.000000	9.001423
1827.000000	8.956760
1826.000000	8.930938
1825.000000	8.922936
1824.000000	8.923192
1823.000000	8.931031
1822.000000	8.904802
1821.000000	8.872733
1820.000000	8.843851
1819.000000	8.827877
1818.000000	8.823041
1817.000000	8.813972
1816.000000	8.806698
1815.000000	8.781409
1814.000000	8.754378
1813.000000	8.748597
1812.000000	8.729562
1811.000000	8.713628
1810.000000	8.716267
1809.000000	8.708310
1808.000000	8.704711
1807.000000	8.677091
1806.000000	8.653055
1805.000000	8.626413
1804.000000	8.619916
1803.000000	8.621498
1802.000000	8.602185
1801.000000	8.588546
1800.000000	8.589738
1799.000000	8.582458
1798.000000	8.563775
1797.000000	8.561429
1796.000000	8.569952
1795.000000	8.574307
1794.000000	8.567102
1793.000000	8.543247
1792.000000	8.542321
1791.000000	8.551057
1790.000000	8.562498
1789.000000	8.550689
1788.000000	8.538479
1787.000000	8.535584
1786.000000	8.539070
1785.000000	8.533016
1784.000000	8.525146
1783.000000	8.498625
1782.000000	8.489946
1781.000000	8.497665
1780.000000	8.499411
1779.000000	8.492311
1778.000000	8.459846
1777.000000	8.419664
1776.000000	8.409145
1775.000000	8.381370
1774.000000	8.377508
1773.000000	8.353540
1772.000000	8.336509
1771.000000	8.309066
1770.000000	8.291615
1769.000000	8.289849
1768.000000	8.257034
1767.000000	8.204628
1766.000000	8.181398
1765.000000	8.177375
1764.000000	8.175888
1763.000000	8.136157
1762.000000	8.120199
1761.000000	8.096192
1760.000000	8.075753
1759.000000	8.053907
1758.000000	8.046258
1757.000000	8.019907
1756.000000	8.029053
1755.000000	7.995427
1754.000000	7.952658
1753.000000	7.939590
1752.000000	7.940968
1751.000000	7.930256
1750.000000	7.908483
1749.000000	7.882540
1748.000000	7.851555
1747.000000	7.840303
1746.000000	7.817579
1745.000000	7.751786
1744.000000	7.775808
1743.000000	7.755688
1742.000000	7.724393
1741.000000	7.738942
1740.000000	7.679780
1739.000000	7.674060
1738.000000	7.660127
1737.000000	7.643444
1736.000000	7.626694
1735.000000	7.625750
1734.000000	7.630701
1733.000000	7.645195
1732.000000	7.605659
1731.000000	7.584951
1730.000000	7.593229
1729.000000	7.624079
1728.000000	7.618247
1727.000000	7.598212
1726.000000	7.661950
1725.000000	7.653873
1724.000000	7.687630
1723.000000	7.721255
1722.000000	7.740399
1721.000000	7.775392
1720.000000	7.810803
1719.000000	7.846101
1718.000000	7.844339
1717.000000	7.873081
1716.000000	7.901650
1715.000000	7.919367
1714.000000	7.966209
1713.000000	7.987716
1712.000000	7.987568
1711.000000	8.028148
1710.000000	8.035898
1709.000000	8.070092
1708.000000	8.076069
1707.000000	8.083942
1706.000000	8.101254
1705.000000	8.110360
1704.000000	8.106848
1703.000000	8.148378
1702.000000	8.131877
1701.000000	8.137981
1700.000000	8.158571
1699.000000	8.122198
1698.000000	8.137389
1697.000000	8.178133
1696.000000	8.185177
1695.000000	8.176345
1694.000000	8.152264
1693.000000	8.205346
1692.000000	8.222802
1691.000000	8.226214
1690.000000	8.285090
1689.000000	8.285104
1688.000000	8.320896
1687.000000	8.338660
1686.000000	8.399884
1685.000000	8.445206
1684.000000	8.485441
1683.000000	8.540851
1682.000000	8.589030
1681.000000	8.670448
1680.000000	8.706581
1679.000000	8.748338
1678.000000	8.803561
1677.000000	8.848288
1676.000000	8.922736
1675.000000	8.988754
1674.000000	9.014320
1673.000000	9.072593
1672.000000	9.102816
1671.000000	9.178782
1670.000000	9.222998
1669.000000	9.269376
1668.000000	9.308569
1667.000000	9.357509
1666.000000	9.359221
1665.000000	9.388281
1664.000000	9.401831
1663.000000	9.403731
1662.000000	9.448267
1661.000000	9.479319
1660.000000	9.506292
1659.000000	9.524296
1658.000000	9.546074
1657.000000	9.571473
1656.000000	9.579877
1655.000000	9.598864
1654.000000	9.595458
1653.000000	9.601835
1652.000000	9.606090
1651.000000	9.597913
1650.000000	9.589540
1649.000000	9.589044
1648.000000	9.573319
1647.000000	9.572850
1646.000000	9.572647
1645.000000	9.558605
1644.000000	9.542175
1643.000000	9.530103
1642.000000	9.532397
1641.000000	9.504961
1640.000000	9.500352
1639.000000	9.494379
1638.000000	9.472468
1637.000000	9.453846
1636.000000	9.434352
1635.000000	9.407946
1634.000000	9.407116
1633.000000	9.383918
1632.000000	9.363501
1631.000000	9.335619
1630.000000	9.322769
1629.000000	9.310370
1628.000000	9.287294
1627.000000	9.256535
1626.000000	9.242752
1625.000000	9.236102
1624.000000	9.219275
1623.000000	9.190645
1622.000000	9.176331
1621.000000	9.156815
1620.000000	9.130987
1619.000000	9.093458
1618.000000	9.072313
1617.000000	9.058193
1616.000000	9.036102
1615.000000	9.013494
1614.000000	8.993467
1613.000000	8.980516
1612.000000	8.954511
1611.000000	8.928524
1610.000000	8.903781
1609.000000	8.874529
1608.000000	8.854561
1607.000000	8.823547
1606.000000	8.795818
1605.000000	8.781221
1604.000000	8.763582
1603.000000	8.735414
1602.000000	8.702888
1601.000000	8.690727
1600.000000	8.668944
1599.000000	8.646855
1598.000000	8.626956
1597.000000	8.600301
1596.000000	8.583155
1595.000000	8.562482
1594.000000	8.538097
1593.000000	8.513789
1592.000000	8.501011
1591.000000	8.486336
1590.000000	8.456372
1589.000000	8.430740
1588.000000	8.423869
1587.000000	8.402711
1586.000000	8.379031
1585.000000	8.364860
1584.000000	8.344798
1583.000000	8.331697
1582.000000	8.319847
1581.000000	8.299716
1580.000000	8.276950
1579.000000	8.264331
1578.000000	8.249893
1577.000000	8.230540
1576.000000	8.206582
1575.000000	8.183428
1574.000000	8.155337
1573.000000	8.145345
1572.000000	8.138985
1571.000000	8.109738
1570.000000	8.091872
1569.000000	8.078262
1568.000000	8.059306
1567.000000	8.049711
1566.000000	8.033517
1565.000000	8.008326
1564.000000	7.989205
1563.000000	7.983174
1562.000000	7.980290
1561.000000	7.952814
1560.000000	7.938092
1559.000000	7.928718
1558.000000	7.906857
1557.000000	7.896545
1556.000000	7.897796
1555.000000	7.885284
1554.000000	7.863205
1553.000000	7.848804
1552.000000	7.831485
1551.000000	7.809500
1550.000000	7.787103
1549.000000	7.756882
1548.000000	7.754905
1547.000000	7.728692
1546.000000	7.706255
1545.000000	7.664843
1544.000000	7.631674
1543.000000	7.601816
1542.000000	7.565197
1541.000000	7.548812
1540.000000	7.514802
1539.000000	7.475782
1538.000000	7.447201
1537.000000	7.410450
1536.000000	7.375102
1535.000000	7.348332
1534.000000	7.304243
1533.000000	7.284004
1532.000000	7.255644
1531.000000	7.234399
1530.000000	7.252189
1529.000000	7.281781
1528.000000	7.267685
1527.000000	7.226298
1526.000000	7.188780
1525.000000	7.130817
1524.000000	7.113935
1523.000000	7.107784
1522.000000	7.060751
1521.000000	7.053061
1520.000000	7.039815
1519.000000	7.012792
1518.000000	6.980540
1517.000000	6.981770
1516.000000	6.986500
1515.000000	6.960172
1514.000000	6.935733
1513.000000	6.903565
1512.000000	6.900082
1511.000000	6.898660
1510.000000	6.890708
1509.000000	6.868788
1508.000000	6.848860
1507.000000	6.824137
1506.000000	6.829949
1505.000000	6.822332
1504.000000	6.832094
1503.000000	6.842479
1502.000000	6.805727
1501.000000	6.792898
1500.000000	6.782551
1499.000000	6.769604
1498.000000	6.766027
1497.000000	6.775356
1496.000000	6.773481
1495.000000	6.758774
1494.000000	6.745611
1493.000000	6.742712
1492.000000	6.756796
1491.000000	6.772474
1490.000000	6.779045
1489.000000	6.768232
1488.000000	6.770713
1487.000000	6.770547
1486.000000	6.784481
1485.000000	6.784251
1484.000000	6.753006
1483.000000	6.749203
1482.000000	6.761228
1481.000000	6.777805
1480.000000	6.804972
1479.000000	6.819032
1478.000000	6.819659
1477.000000	6.823670
1476.000000	6.842095
1475.000000	6.853211
1474.000000	6.864833
1473.000000	6.883543
1472.000000	6.865253
1471.000000	6.859503
1470.000000	6.864217
1469.000000	6.922103
1468.000000	6.941891
1467.000000	6.949850
1466.000000	6.930632
1465.000000	6.928847
1464.000000	6.926337
1463.000000	6.952258
1462.000000	6.983888
1461.000000	6.967521
1460.000000	6.987211
1459.000000	7.005407
1458.000000	7.032310
1457.000000	7.034128
1456.000000	7.036820
1455.000000	7.029235
1454.000000	7.047513
1453.000000	7.096693
1452.000000	7.111069
1451.000000	7.108609
1450.000000	7.112068
1449.000000	7.131073
1448.000000	7.142446
1447.000000	7.197732
1446.000000	7.232247
1445.000000	7.245129
1444.000000	7.252945
1443.000000	7.270403
1442.000000	7.282161
1441.000000	7.308650
1440.000000	7.336478
1439.000000	7.365503
1438.000000	7.408486
1437.000000	7.461293
1436.000000	7.501190
1435.000000	7.533039
1434.000000	7.549256
1433.000000	7.591332
1432.000000	7.624107
1431.000000	7.660100
1430.000000	7.698651
1429.000000	7.728008
1428.000000	7.783259
