PE UV       SUBTECH     SPECTRUM    ASCII       PEDS        4.00        
   -1
TTmshap21.Sample.asc
18/03/12
17:43:38.00
18/03/12
17:43:38.00
Administrator

200.000000
1
Lambda 750
750N8071901
PerkinElmer UV WinLab 6.0.4.0738 / 1.61.00 Lambda 900

0
0
3350/servo 860.8/2
0
0
UV/VIS
1
1
1
CommonBeamDepol,150mm sphere / downward view
0
0
0
0
Program
Program
3350/servo 860.8/2
3350/0.2 860.8/0.2
3350/0.2 860.8/0.2
0
1
 
 
 
0
 
860.8
319.2
860.8
Front
100
on
 
 
0
0
0
 
0
 
 
 
0
 
 
0
0
0
0
0
 
 
 
 
0
0


0
0
#HDR
-1
-1
#GR
nm
%T
1.0
0.0
2350.000000
-1.000000
2151
8
13.701290
0.052499
#DATA
2350.000000	5.926337
2349.000000	5.871006
2348.000000	5.469442
2347.000000	6.340724
2346.000000	5.960286
2345.000000	5.877447
2344.000000	5.478466
2343.000000	5.492257
2342.000000	5.612827
2341.000000	5.772082
2340.000000	5.596508
2339.000000	6.024658
2338.000000	6.043535
2337.000000	6.138056
2336.000000	6.142861
2335.000000	6.254911
2334.000000	6.766736
2333.000000	6.588500
2332.000000	6.298807
2331.000000	6.299720
2330.000000	6.372520
2329.000000	6.678061
2328.000000	6.551720
2327.000000	6.606271
2326.000000	6.578124
2325.000000	6.081219
2324.000000	5.816569
2323.000000	6.276214
2322.000000	6.063772
2321.000000	5.831238
2320.000000	6.005234
2319.000000	6.032052
2318.000000	6.103783
2317.000000	6.196674
2316.000000	5.896661
2315.000000	5.832712
2314.000000	5.898271
2313.000000	5.960679
2312.000000	5.908015
2311.000000	5.773978
2310.000000	5.713600
2309.000000	5.991566
2308.000000	5.901835
2307.000000	5.752897
2306.000000	5.912905
2305.000000	5.671129
2304.000000	5.682715
2303.000000	5.736731
2302.000000	5.882092
2301.000000	5.629367
2300.000000	5.591501
2299.000000	5.536631
2298.000000	5.633536
2297.000000	5.496495
2296.000000	5.517754
2295.000000	5.646917
2294.000000	5.548651
2293.000000	5.378812
2292.000000	5.403419
2291.000000	5.382031
2290.000000	5.348479
2289.000000	5.302828
2288.000000	5.418254
2287.000000	5.432081
2286.000000	5.444748
2285.000000	5.242427
2284.000000	5.309296
2283.000000	5.292360
2282.000000	5.231877
2281.000000	5.264723
2280.000000	5.353665
2279.000000	5.391979
2278.000000	5.389833
2277.000000	5.298741
2276.000000	5.273621
2275.000000	5.424258
2274.000000	5.450485
2273.000000	5.349671
2272.000000	5.433033
2271.000000	5.535533
2270.000000	5.464581
2269.000000	5.586965
2268.000000	5.424388
2267.000000	5.318280
2266.000000	5.461707
2265.000000	5.566313
2264.000000	5.451171
2263.000000	5.603994
2262.000000	5.752458
2261.000000	5.719497
2260.000000	5.692906
2259.000000	5.823749
2258.000000	5.865019
2257.000000	5.838321
2256.000000	5.897211
2255.000000	5.968018
2254.000000	5.965338
2253.000000	5.961082
2252.000000	6.086373
2251.000000	6.274009
2250.000000	6.318250
2249.000000	6.363729
2248.000000	6.374616
2247.000000	6.515730
2246.000000	6.671527
2245.000000	6.640147
2244.000000	6.673998
2243.000000	6.815369
2242.000000	6.786923
2241.000000	6.705705
2240.000000	6.804412
2239.000000	6.910530
2238.000000	7.008602
2237.000000	7.016320
2236.000000	7.031379
2235.000000	7.024453
2234.000000	7.052026
2233.000000	6.990953
2232.000000	7.051832
2231.000000	7.193023
2230.000000	7.241283
2229.000000	7.214049
2228.000000	7.194700
2227.000000	7.338897
2226.000000	7.212436
2225.000000	7.071345
2224.000000	7.101575
2223.000000	7.195226
2222.000000	7.288390
2221.000000	7.241071
2220.000000	7.186839
2219.000000	7.232542
2218.000000	7.265785
2217.000000	7.213062
2216.000000	7.137155
2215.000000	7.125299
2214.000000	7.174553
2213.000000	7.074189
2212.000000	6.956824
2211.000000	6.828040
2210.000000	6.818118
2209.000000	6.883992
2208.000000	6.912362
2207.000000	6.897712
2206.000000	6.885849
2205.000000	6.899417
2204.000000	6.844277
2203.000000	6.840963
2202.000000	6.886353
2201.000000	6.836089
2200.000000	6.624383
2199.000000	6.685726
2198.000000	6.697248
2197.000000	6.540214
2196.000000	6.543657
2195.000000	6.565923
2194.000000	6.521858
2193.000000	6.408000
2192.000000	6.441902
2191.000000	6.391890
2190.000000	6.474012
2189.000000	6.392108
2188.000000	6.290849
2187.000000	6.392464
2186.000000	6.444732
2185.000000	6.455980
2184.000000	6.395870
2183.000000	6.426931
2182.000000	6.290112
2181.000000	6.161264
2180.000000	6.192704
2179.000000	6.251693
2178.000000	6.177644
2177.000000	6.311203
2176.000000	6.177635
2175.000000	6.231233
2174.000000	6.356963
2173.000000	6.319199
2172.000000	6.178131
2171.000000	6.397513
2170.000000	6.464799
2169.000000	6.279826
2168.000000	6.340916
2167.000000	6.453907
2166.000000	6.441051
2165.000000	6.393546
2164.000000	6.527162
2163.000000	6.471925
2162.000000	6.525893
2161.000000	6.484587
2160.000000	6.578983
2159.000000	6.564780
2158.000000	6.617855
2157.000000	6.666473
2156.000000	6.849014
2155.000000	6.754127
2154.000000	6.658366
2153.000000	6.890437
2152.000000	7.001587
2151.000000	6.813834
2150.000000	6.851088
2149.000000	6.997625
2148.000000	6.883743
2147.000000	7.189497
2146.000000	6.982810
2145.000000	7.118426
2144.000000	7.179069
2143.000000	7.088043
2142.000000	7.222285
2141.000000	7.191393
2140.000000	7.330354
2139.000000	7.315737
2138.000000	7.277898
2137.000000	7.332463
2136.000000	7.404841
2135.000000	7.590589
2134.000000	7.585710
2133.000000	7.278417
2132.000000	7.501080
2131.000000	7.574539
2130.000000	7.637218
2129.000000	7.597672
2128.000000	7.387154
2127.000000	7.587940
2126.000000	7.501913
2125.000000	7.535009
2124.000000	7.515316
2123.000000	7.601200
2122.000000	7.507797
2121.000000	7.564231
2120.000000	7.665275
2119.000000	7.638197
2118.000000	7.701881
2117.000000	7.708513
2116.000000	7.635209
2115.000000	7.633493
2114.000000	7.581464
2113.000000	7.494629
2112.000000	7.608514
2111.000000	7.673334
2110.000000	7.718691
2109.000000	7.683776
2108.000000	7.533551
2107.000000	7.590794
2106.000000	7.636028
2105.000000	7.556843
2104.000000	7.635027
2103.000000	7.751031
2102.000000	7.695366
2101.000000	7.662579
2100.000000	7.698425
2099.000000	7.643116
2098.000000	7.604323
2097.000000	7.633792
2096.000000	7.723753
2095.000000	7.662757
2094.000000	7.639970
2093.000000	7.601542
2092.000000	7.615815
2091.000000	7.650722
2090.000000	7.636832
2089.000000	7.637202
2088.000000	7.606603
2087.000000	7.579406
2086.000000	7.562075
2085.000000	7.596439
2084.000000	7.517525
2083.000000	7.404120
2082.000000	7.406254
2081.000000	7.429674
2080.000000	7.466062
2079.000000	7.379019
2078.000000	7.308825
2077.000000	7.329703
2076.000000	7.317400
2075.000000	7.221297
2074.000000	7.222291
2073.000000	7.148537
2072.000000	7.098398
2071.000000	7.120939
2070.000000	7.099163
2069.000000	7.036466
2068.000000	6.882529
2067.000000	6.884627
2066.000000	6.863462
2065.000000	6.816421
2064.000000	6.738931
2063.000000	6.691440
2062.000000	6.673581
2061.000000	6.595582
2060.000000	6.518043
2059.000000	6.469141
2058.000000	6.500648
2057.000000	6.416201
2056.000000	6.312575
2055.000000	6.294827
2054.000000	6.228440
2053.000000	6.164426
2052.000000	6.130140
2051.000000	6.095680
2050.000000	6.046839
2049.000000	6.003918
2048.000000	5.965314
2047.000000	5.923051
2046.000000	5.889463
2045.000000	5.924210
2044.000000	5.920502
2043.000000	5.900124
2042.000000	5.887941
2041.000000	5.872755
2040.000000	5.866575
2039.000000	5.833959
2038.000000	5.881095
2037.000000	5.891114
2036.000000	5.908975
2035.000000	5.932195
2034.000000	5.929926
2033.000000	5.989342
2032.000000	6.051631
2031.000000	6.029526
2030.000000	6.085359
2029.000000	6.192697
2028.000000	6.230447
2027.000000	6.212087
2026.000000	6.224149
2025.000000	6.245910
2024.000000	6.227027
2023.000000	6.239104
2022.000000	6.274372
2021.000000	6.270050
2020.000000	6.269216
2019.000000	6.287002
2018.000000	6.306596
2017.000000	6.308105
2016.000000	6.325035
2015.000000	6.311898
2014.000000	6.275405
2013.000000	6.333655
2012.000000	6.294186
2011.000000	6.242602
2010.000000	6.245349
2009.000000	6.233562
2008.000000	6.175042
2007.000000	6.147075
2006.000000	6.145642
2005.000000	6.109749
2004.000000	6.025305
2003.000000	5.988277
2002.000000	5.983432
2001.000000	5.940030
2000.000000	5.896013
1999.000000	5.893382
1998.000000	5.858865
1997.000000	5.839152
1996.000000	5.815571
1995.000000	5.761369
1994.000000	5.714228
1993.000000	5.740440
1992.000000	5.685041
1991.000000	5.623605
1990.000000	5.612515
1989.000000	5.564422
1988.000000	5.493096
1987.000000	5.464440
1986.000000	5.423556
1985.000000	5.414676
1984.000000	5.380780
1983.000000	5.346232
1982.000000	5.318251
1981.000000	5.275707
1980.000000	5.216256
1979.000000	5.220715
1978.000000	5.209504
1977.000000	5.152475
1976.000000	5.109976
1975.000000	5.091569
1974.000000	5.046434
1973.000000	5.042614
1972.000000	4.971310
1971.000000	4.945280
1970.000000	4.910598
1969.000000	4.911069
1968.000000	4.893591
1967.000000	4.858904
1966.000000	4.831724
1965.000000	4.808428
1964.000000	4.761428
1963.000000	4.723401
1962.000000	4.736291
1961.000000	4.690730
1960.000000	4.688707
1959.000000	4.649970
1958.000000	4.642406
1957.000000	4.570564
1956.000000	4.610444
1955.000000	4.598335
1954.000000	4.546659
1953.000000	4.536687
1952.000000	4.536973
1951.000000	4.578063
1950.000000	4.537866
1949.000000	4.521804
1948.000000	4.539852
1947.000000	4.517834
1946.000000	4.463896
1945.000000	4.475091
1944.000000	4.452222
1943.000000	4.508705
1942.000000	4.577226
1941.000000	4.581831
1940.000000	4.558203
1939.000000	4.513548
1938.000000	4.619185
1937.000000	4.646879
1936.000000	4.629613
1935.000000	4.637581
1934.000000	4.715498
1933.000000	4.710184
1932.000000	4.733601
1931.000000	4.777925
1930.000000	4.793369
1929.000000	4.819569
1928.000000	4.940674
1927.000000	4.943160
1926.000000	4.990224
1925.000000	5.033396
1924.000000	5.093952
1923.000000	5.147271
1922.000000	5.271684
1921.000000	5.375546
1920.000000	5.468827
1919.000000	5.532150
1918.000000	5.586180
1917.000000	5.731345
1916.000000	5.689632
1915.000000	5.892968
1914.000000	5.999883
1913.000000	6.107435
1912.000000	6.200441
1911.000000	6.342318
1910.000000	6.374525
1909.000000	6.571464
1908.000000	6.658366
1907.000000	6.784220
1906.000000	6.920814
1905.000000	7.104463
1904.000000	7.234345
1903.000000	7.487238
1902.000000	7.609430
1901.000000	7.768875
1900.000000	7.911035
1899.000000	8.166817
1898.000000	8.358004
1897.000000	8.369811
1896.000000	8.535193
1895.000000	8.761952
1894.000000	8.944693
1893.000000	9.108005
1892.000000	9.325335
1891.000000	9.411894
1890.000000	9.623483
1889.000000	9.797536
1888.000000	9.958626
1887.000000	10.142352
1886.000000	10.286528
1885.000000	10.408432
1884.000000	10.537759
1883.000000	10.704481
1882.000000	10.861895
1881.000000	10.949812
1880.000000	11.092213
1879.000000	11.240716
1878.000000	11.327094
1877.000000	11.474141
1876.000000	11.560333
1875.000000	11.671253
1874.000000	11.760412
1873.000000	11.837483
1872.000000	11.926792
1871.000000	11.998859
1870.000000	12.081695
1869.000000	12.136987
1868.000000	12.173297
1867.000000	12.192405
1866.000000	12.234921
1865.000000	12.267325
1864.000000	12.295279
1863.000000	12.332338
1862.000000	12.286594
1861.000000	12.309857
1860.000000	12.368094
1859.000000	12.407677
1858.000000	12.406020
1857.000000	12.422858
1856.000000	12.410103
1855.000000	12.428761
1854.000000	12.432805
1853.000000	12.474880
1852.000000	12.488933
1851.000000	12.491517
1850.000000	12.515855
1849.000000	12.496044
1848.000000	12.481998
1847.000000	12.482758
1846.000000	12.487950
1845.000000	12.491528
1844.000000	12.462395
1843.000000	12.466199
1842.000000	12.439412
1841.000000	12.433956
1840.000000	12.413632
1839.000000	12.428466
1838.000000	12.410567
1837.000000	12.353866
1836.000000	12.331019
1835.000000	12.319680
1834.000000	12.292827
1833.000000	12.247132
1832.000000	12.203897
1831.000000	12.180870
1830.000000	12.201090
1829.000000	12.204812
1828.000000	12.175552
1827.000000	12.137189
1826.000000	12.110562
1825.000000	12.089061
1824.000000	12.077344
1823.000000	12.058220
1822.000000	12.047793
1821.000000	12.028697
1820.000000	11.988720
1819.000000	11.982636
1818.000000	11.996541
1817.000000	11.984849
1816.000000	11.947486
1815.000000	11.921310
1814.000000	11.925072
1813.000000	11.914679
1812.000000	11.892048
1811.000000	11.875462
1810.000000	11.863805
1809.000000	11.852337
1808.000000	11.831644
1807.000000	11.815575
1806.000000	11.812923
1805.000000	11.805022
1804.000000	11.780707
1803.000000	11.770552
1802.000000	11.764789
1801.000000	11.767772
1800.000000	11.770381
1799.000000	11.749236
1798.000000	11.736325
1797.000000	11.741055
1796.000000	11.727477
1795.000000	11.716993
1794.000000	11.727526
1793.000000	11.703759
1792.000000	11.701256
1791.000000	11.716577
1790.000000	11.708425
1789.000000	11.692988
1788.000000	11.698303
1787.000000	11.703627
1786.000000	11.698919
1785.000000	11.686996
1784.000000	11.677150
1783.000000	11.662200
1782.000000	11.656070
1781.000000	11.639981
1780.000000	11.640086
1779.000000	11.622913
1778.000000	11.597804
1777.000000	11.586047
1776.000000	11.562450
1775.000000	11.545108
1774.000000	11.538878
1773.000000	11.509850
1772.000000	11.492679
1771.000000	11.454555
1770.000000	11.411331
1769.000000	11.401137
1768.000000	11.410703
1767.000000	11.383634
1766.000000	11.354700
1765.000000	11.317168
1764.000000	11.306703
1763.000000	11.275681
1762.000000	11.262067
1761.000000	11.249740
1760.000000	11.218568
1759.000000	11.168347
1758.000000	11.145547
1757.000000	11.136634
1756.000000	11.142679
1755.000000	11.121859
1754.000000	11.110391
1753.000000	11.089877
1752.000000	11.069271
1751.000000	11.037768
1750.000000	11.024687
1749.000000	11.012206
1748.000000	10.975780
1747.000000	10.958074
1746.000000	10.944983
1745.000000	10.933035
1744.000000	10.907666
1743.000000	10.890040
1742.000000	10.840925
1741.000000	10.843176
1740.000000	10.831029
1739.000000	10.800753
1738.000000	10.787516
1737.000000	10.761919
1736.000000	10.749391
1735.000000	10.752355
1734.000000	10.761278
1733.000000	10.752393
1732.000000	10.727953
1731.000000	10.734341
1730.000000	10.734549
1729.000000	10.730109
1728.000000	10.764979
1727.000000	10.766286
1726.000000	10.765973
1725.000000	10.784458
1724.000000	10.821700
1723.000000	10.816753
1722.000000	10.867138
1721.000000	10.894229
1720.000000	10.922187
1719.000000	10.959961
1718.000000	10.966943
1717.000000	11.018514
1716.000000	11.026336
1715.000000	11.059344
1714.000000	11.083192
1713.000000	11.098243
1712.000000	11.096535
1711.000000	11.149582
1710.000000	11.157885
1709.000000	11.152399
1708.000000	11.161236
1707.000000	11.181066
1706.000000	11.200893
1705.000000	11.218471
1704.000000	11.232234
1703.000000	11.227138
1702.000000	11.235631
1701.000000	11.235987
1700.000000	11.248615
1699.000000	11.213950
1698.000000	11.238838
1697.000000	11.248520
1696.000000	11.284445
1695.000000	11.266606
1694.000000	11.280603
1693.000000	11.285709
1692.000000	11.300397
1691.000000	11.298570
1690.000000	11.342123
1689.000000	11.384090
1688.000000	11.417818
1687.000000	11.418517
1686.000000	11.480366
1685.000000	11.521895
1684.000000	11.549309
1683.000000	11.600202
1682.000000	11.632575
1681.000000	11.699596
1680.000000	11.751791
1679.000000	11.794721
1678.000000	11.852696
1677.000000	11.903061
1676.000000	11.940076
1675.000000	12.003236
1674.000000	12.043333
1673.000000	12.089724
1672.000000	12.157363
1671.000000	12.212424
1670.000000	12.246480
1669.000000	12.282804
1668.000000	12.299037
1667.000000	12.378203
1666.000000	12.398510
1665.000000	12.411647
1664.000000	12.416858
1663.000000	12.425199
1662.000000	12.446700
1661.000000	12.493992
1660.000000	12.512889
1659.000000	12.547035
1658.000000	12.556112
1657.000000	12.557962
1656.000000	12.575882
1655.000000	12.587837
1654.000000	12.602603
1653.000000	12.603325
1652.000000	12.599261
1651.000000	12.594388
1650.000000	12.581247
1649.000000	12.568762
1648.000000	12.558699
1647.000000	12.557342
1646.000000	12.556074
1645.000000	12.537568
1644.000000	12.543059
1643.000000	12.512089
1642.000000	12.493463
1641.000000	12.474798
1640.000000	12.470258
1639.000000	12.462346
1638.000000	12.448323
1637.000000	12.435992
1636.000000	12.428913
1635.000000	12.412017
1634.000000	12.390345
1633.000000	12.367331
1632.000000	12.351860
1631.000000	12.336290
1630.000000	12.309527
1629.000000	12.286765
1628.000000	12.277963
1627.000000	12.263527
1626.000000	12.244520
1625.000000	12.225438
1624.000000	12.196726
1623.000000	12.185451
1622.000000	12.164430
1621.000000	12.141243
1620.000000	12.120296
1619.000000	12.097457
1618.000000	12.077764
1617.000000	12.062201
1616.000000	12.035263
1615.000000	12.009991
1614.000000	11.991272
1613.000000	11.971033
1612.000000	11.943615
1611.000000	11.915565
1610.000000	11.887722
1609.000000	11.877829
1608.000000	11.868598
1607.000000	11.846186
1606.000000	11.810480
1605.000000	11.783279
1604.000000	11.757841
1603.000000	11.728924
1602.000000	11.717078
1601.000000	11.700681
1600.000000	11.668878
1599.000000	11.637835
1598.000000	11.617804
1597.000000	11.606460
1596.000000	11.589052
1595.000000	11.568685
1594.000000	11.545043
1593.000000	11.525805
1592.000000	11.510106
1591.000000	11.488584
1590.000000	11.462189
1589.000000	11.438763
1588.000000	11.420374
1587.000000	11.407782
1586.000000	11.390641
1585.000000	11.377631
1584.000000	11.356477
1583.000000	11.331489
1582.000000	11.318291
1581.000000	11.303423
1580.000000	11.281410
1579.000000	11.265509
1578.000000	11.258712
1577.000000	11.225056
1576.000000	11.207788
1575.000000	11.194092
1574.000000	11.171350
1573.000000	11.143063
1572.000000	11.125428
1571.000000	11.111583
1570.000000	11.109920
1569.000000	11.079412
1568.000000	11.047351
1567.000000	11.037055
1566.000000	11.019781
1565.000000	11.010911
1564.000000	10.997967
1563.000000	10.992604
1562.000000	10.973714
1561.000000	10.957810
1560.000000	10.942719
1559.000000	10.923651
1558.000000	10.914484
1557.000000	10.908464
1556.000000	10.885716
1555.000000	10.872278
1554.000000	10.856158
1553.000000	10.850137
1552.000000	10.828765
1551.000000	10.807565
1550.000000	10.791399
1549.000000	10.768492
1548.000000	10.736085
1547.000000	10.712885
1546.000000	10.687315
1545.000000	10.660150
1544.000000	10.630529
1543.000000	10.599570
1542.000000	10.569199
1541.000000	10.533317
1540.000000	10.500476
1539.000000	10.473436
1538.000000	10.444551
1537.000000	10.399751
1536.000000	10.356343
1535.000000	10.328746
1534.000000	10.282603
1533.000000	10.266829
1532.000000	10.229435
1531.000000	10.230609
1530.000000	10.228600
1529.000000	10.232300
1528.000000	10.245363
1527.000000	10.239218
1526.000000	10.193961
1525.000000	10.143547
1524.000000	10.086655
1523.000000	10.058725
1522.000000	10.049273
1521.000000	10.017389
1520.000000	10.014526
1519.000000	9.997523
1518.000000	9.967388
1517.000000	9.938007
1516.000000	9.941886
1515.000000	9.957809
1514.000000	9.913110
1513.000000	9.889582
1512.000000	9.874172
1511.000000	9.884796
1510.000000	9.885037
1509.000000	9.853463
1508.000000	9.818139
1507.000000	9.814180
1506.000000	9.810528
1505.000000	9.785426
1504.000000	9.771991
1503.000000	9.780740
1502.000000	9.795456
1501.000000	9.804961
1500.000000	9.783526
1499.000000	9.776583
1498.000000	9.772921
1497.000000	9.765408
1496.000000	9.762649
1495.000000	9.730522
1494.000000	9.714128
1493.000000	9.731535
1492.000000	9.726878
1491.000000	9.728307
1490.000000	9.747313
1489.000000	9.730841
1488.000000	9.735923
1487.000000	9.692784
1486.000000	9.707060
1485.000000	9.716316
1484.000000	9.732281
1483.000000	9.756221
1482.000000	9.745555
1481.000000	9.769666
1480.000000	9.784654
1479.000000	9.787636
1478.000000	9.787222
1477.000000	9.783113
1476.000000	9.797157
1475.000000	9.816247
1474.000000	9.812622
1473.000000	9.820758
1472.000000	9.816335
1471.000000	9.824739
1470.000000	9.850810
1469.000000	9.854594
1468.000000	9.845735
1467.000000	9.869964
1466.000000	9.905341
1465.000000	9.898618
1464.000000	9.894448
1463.000000	9.898509
1462.000000	9.928877
1461.000000	9.945408
1460.000000	9.944257
1459.000000	9.939644
1458.000000	9.944468
1457.000000	9.982380
1456.000000	10.013207
1455.000000	10.002808
1454.000000	10.025044
1453.000000	10.035528
1452.000000	10.068858
1451.000000	10.081420
1450.000000	10.089983
1449.000000	10.103490
1448.000000	10.116712
1447.000000	10.131141
1446.000000	10.150917
