PE UV       SUBTECH     SPECTRUM    ASCII       PEDS        4.00        
   -1
009-5S-XXX-NR003-C001.Sample.Cycle1.asc
24/01/09
16:33:28.00
24/01/09
16:33:28.00
Administrator

250.000000
1
Lambda 750
750N8071901
PerkinElmer UV WinLab 6.0.4.0738 / 1.61.00 Lambda 900

0
0
3350/servo 860.8/2
0
0
UV/VIS
1
1
1
CommonBeamDepol,150mm sphere / downward view
0
0
0
0
Program
Program
3350/servo 860.8/2
3350/0.2 860.8/0.2
3350/0.2 860.8/0.2
0
1
 
 
 
0
 
860.8
319.2
860.8
Front
100
on
 
 
0
0
0
 
0
 
 
 
0
 
 
0
0
0
0
0
 
 
 
 
0
0


0
0
#HDR
-1
-1
#GR
nm
%R
1.0
0.0
2500.000000
-10.000000
226
8
73.164475
8.672255
#DATA
2500.000000	17.077156
2490.000000	16.068081
2480.000000	17.979929
2470.000000	18.259603
2460.000000	19.771095
2450.000000	18.870326
2440.000000	20.330609
2430.000000	20.422128
2420.000000	20.284687
2410.000000	22.001484
2400.000000	20.839939
2390.000000	21.363081
2380.000000	21.191169
2370.000000	23.088038
2360.000000	21.214486
2350.000000	21.356099
2340.000000	22.006542
2330.000000	20.675045
2320.000000	21.187686
2310.000000	18.580796
2300.000000	18.529791
2290.000000	19.397023
2280.000000	19.411496
2270.000000	22.497985
2260.000000	24.610137
2250.000000	25.992218
2240.000000	26.155414
2230.000000	26.015139
2220.000000	24.831494
2210.000000	23.552829
2200.000000	23.199160
2190.000000	23.329440
2180.000000	23.279678
2170.000000	25.019782
2160.000000	27.658155
2150.000000	28.900244
2140.000000	29.810750
2130.000000	30.244098
2120.000000	31.056400
2110.000000	30.502873
2100.000000	30.250846
2090.000000	28.470427
2080.000000	26.868079
2070.000000	24.696207
2060.000000	24.156776
2050.000000	24.491376
2040.000000	25.868731
2030.000000	26.317200
2020.000000	25.417147
2010.000000	24.085722
2000.000000	22.803394
1990.000000	21.087923
1980.000000	19.883761
1970.000000	18.639305
1960.000000	18.136613
1950.000000	19.259959
1940.000000	21.604224
1930.000000	26.056891
1920.000000	32.296351
1910.000000	39.809419
1900.000000	46.002253
1890.000000	50.756670
1880.000000	53.307366
1870.000000	54.203912
1860.000000	54.426694
1850.000000	53.908274
1840.000000	53.392669
1830.000000	53.064509
1820.000000	52.417841
1810.000000	51.886401
1800.000000	51.222388
1790.000000	50.592860
1780.000000	49.869654
1770.000000	49.057703
1760.000000	48.266078
1750.000000	47.834722
1740.000000	48.422842
1730.000000	49.872392
1720.000000	50.711932
1710.000000	50.878920
1700.000000	52.253679
1690.000000	54.794299
1680.000000	56.936487
1670.000000	57.722818
1660.000000	57.842218
1650.000000	57.420590
1640.000000	56.756837
1630.000000	55.902207
1620.000000	54.949666
1610.000000	53.891820
1600.000000	53.008010
1590.000000	52.262495
1580.000000	51.708121
1570.000000	51.267702
1560.000000	50.648619
1550.000000	49.442456
1540.000000	48.197474
1530.000000	47.479000
1520.000000	46.917721
1510.000000	46.781311
1500.000000	47.177181
1490.000000	47.827325
1480.000000	48.566015
1470.000000	49.367653
1460.000000	50.377866
1450.000000	51.792237
1440.000000	53.683043
1430.000000	56.278844
1420.000000	59.361408
1410.000000	62.323473
1400.000000	64.567630
1390.000000	65.864121
1380.000000	66.653306
1370.000000	67.556752
1360.000000	68.479855
1350.000000	69.318614
1340.000000	69.788377
1330.000000	69.982745
1320.000000	70.062003
1310.000000	70.036783
1300.000000	70.055727
1290.000000	70.008657
1280.000000	70.048569
1270.000000	70.208525
1260.000000	70.180210
1250.000000	69.927053
1240.000000	69.565475
1230.000000	69.287287
1220.000000	68.810304
1210.000000	68.454108
1200.000000	68.276693
1190.000000	68.657576
1180.000000	69.522586
1170.000000	70.364266
1160.000000	71.102102
1150.000000	71.666556
1140.000000	72.063904
1130.000000	72.265413
1120.000000	72.294592
1110.000000	72.285929
1100.000000	72.259741
1090.000000	72.173072
1080.000000	72.128306
1070.000000	72.019414
1060.000000	71.920325
1050.000000	71.929275
1040.000000	71.865020
1030.000000	71.814000
1020.000000	71.846493
1010.000000	71.964674
1000.000000	72.079229
990.000000	72.186717
980.000000	72.334125
970.000000	72.407648
960.000000	72.504095
950.000000	72.598609
940.000000	72.580020
930.000000	72.493034
920.000000	72.650113
910.000000	72.653611
900.000000	72.658277
890.000000	72.749873
880.000000	73.128359
870.000000	73.164475
860.000000	72.674368
850.000000	72.094482
840.000000	72.871214
830.000000	72.193367
820.000000	72.663876
810.000000	72.745156
800.000000	72.475057
790.000000	72.661625
780.000000	72.498785
770.000000	72.889550
760.000000	72.444334
750.000000	72.145420
740.000000	72.634589
730.000000	72.454645
720.000000	72.600399
710.000000	72.552204
700.000000	72.397083
690.000000	72.508614
680.000000	72.468736
670.000000	72.390385
660.000000	72.424764
650.000000	72.273440
640.000000	72.244421
630.000000	72.123439
620.000000	72.057946
610.000000	71.911651
600.000000	71.883790
590.000000	71.627797
580.000000	71.507682
570.000000	71.238323
560.000000	71.011736
550.000000	70.730551
540.000000	70.333434
530.000000	69.915867
520.000000	69.360031
510.000000	68.952687
500.000000	68.221074
490.000000	67.491193
480.000000	66.681134
470.000000	65.749525
460.000000	64.762463
450.000000	63.406489
440.000000	61.706025
430.000000	59.612974
420.000000	57.249644
410.000000	54.291821
400.000000	51.069635
390.000000	47.785755
380.000000	44.180918
370.000000	40.258921
360.000000	35.877927
350.000000	32.426047
340.000000	29.011808
330.000000	23.034986
320.000000	19.119989
310.000000	16.003422
300.000000	14.363770
290.000000	10.214874
280.000000	8.672255
270.000000	9.309185
260.000000	10.470649
250.000000	10.887348
