PE UV       SUBTECH     SPECTRUM    ASCII       PEDS        4.00        
   -1
010-4G-XXX-NR003-F001.Sample.asc
24/01/09
16:00:31.00
24/01/09
16:00:31.00
Administrator

250.000000
1
Lambda 750
750N8071901
PerkinElmer UV WinLab 6.0.4.0738 / 1.61.00 Lambda 900

0
0
3350/servo 860.8/2
0
0
UV/VIS
1
1
1
CommonBeamDepol,150mm sphere / downward view
0
0
0
0
Program
Program
3350/servo 860.8/2
3350/0.2 860.8/0.2
3350/0.2 860.8/0.2
0
1
 
 
 
0
 
860.8
319.2
860.8
Front
100
on
 
 
0
0
0
 
0
 
 
 
0
 
 
0
0
0
0
0
 
 
 
 
0
0


0
0
#HDR
-1
-1
#GR
nm
%R
1.0
0.0
2500.000000
-10.000000
226
8
60.822010
3.735181
#DATA
2500.000000	3.735181
2490.000000	5.088293
2480.000000	6.913222
2470.000000	5.880271
2460.000000	7.546343
2450.000000	7.418830
2440.000000	8.360668
2430.000000	7.370068
2420.000000	8.325775
2410.000000	9.969089
2400.000000	7.139149
2390.000000	7.308335
2380.000000	7.276238
2370.000000	8.714595
2360.000000	7.209163
2350.000000	8.102965
2340.000000	8.752586
2330.000000	7.848142
2320.000000	7.483739
2310.000000	6.486091
2300.000000	5.855956
2290.000000	7.301122
2280.000000	7.634579
2270.000000	10.831368
2260.000000	10.864692
2250.000000	12.477965
2240.000000	13.056179
2230.000000	12.196747
2220.000000	11.854650
2210.000000	10.303222
2200.000000	10.116350
2190.000000	11.256307
2180.000000	11.133842
2170.000000	11.402121
2160.000000	13.174489
2150.000000	15.111931
2140.000000	15.621032
2130.000000	15.034667
2120.000000	15.450340
2110.000000	16.189295
2100.000000	15.681147
2090.000000	13.871638
2080.000000	13.038594
2070.000000	11.547926
2060.000000	11.378775
2050.000000	11.401266
2040.000000	12.406416
2030.000000	12.446761
2020.000000	11.836425
2010.000000	10.930647
2000.000000	10.220531
1990.000000	9.060938
1980.000000	8.460501
1970.000000	8.031730
1960.000000	7.525068
1950.000000	8.030938
1940.000000	10.024277
1930.000000	13.122046
1920.000000	17.654286
1910.000000	23.816073
1900.000000	29.777815
1890.000000	34.153465
1880.000000	36.629142
1870.000000	37.409961
1860.000000	37.648757
1850.000000	36.948498
1840.000000	36.399177
1830.000000	36.000573
1820.000000	35.428624
1810.000000	34.862569
1800.000000	34.367308
1790.000000	33.714657
1780.000000	32.905177
1770.000000	32.325796
1760.000000	31.451849
1750.000000	30.776400
1740.000000	31.177393
1730.000000	32.846514
1720.000000	33.619063
1710.000000	34.177818
1700.000000	35.673911
1690.000000	38.542077
1680.000000	40.796373
1670.000000	41.654832
1660.000000	41.763287
1650.000000	41.223075
1640.000000	40.420651
1630.000000	39.628679
1620.000000	38.422539
1610.000000	37.466364
1600.000000	36.539110
1590.000000	35.766713
1580.000000	35.087894
1570.000000	34.609441
1560.000000	33.905214
1550.000000	32.623446
1540.000000	31.501329
1530.000000	30.773017
1520.000000	30.361816
1510.000000	30.223059
1500.000000	30.544026
1490.000000	31.110908
1480.000000	31.590659
1470.000000	32.308370
1460.000000	33.377509
1450.000000	34.881290
1440.000000	36.918368
1430.000000	39.805427
1420.000000	43.261392
1410.000000	46.633412
1400.000000	49.362301
1390.000000	51.110330
1380.000000	52.143357
1370.000000	53.280667
1360.000000	54.454551
1350.000000	55.740961
1340.000000	56.731297
1330.000000	57.193992
1320.000000	57.345240
1310.000000	57.272582
1300.000000	57.086675
1290.000000	57.069039
1280.000000	57.114880
1270.000000	57.295151
1260.000000	57.203692
1250.000000	56.816842
1240.000000	56.191166
1230.000000	55.705805
1220.000000	55.052152
1210.000000	54.614063
1200.000000	54.511265
1190.000000	55.081850
1180.000000	56.279644
1170.000000	57.573827
1160.000000	58.622777
1150.000000	59.437986
1140.000000	59.997090
1130.000000	60.232173
1120.000000	60.307256
1110.000000	60.292673
1100.000000	60.201548
1090.000000	60.118502
1080.000000	60.084224
1070.000000	59.884892
1060.000000	59.757407
1050.000000	59.655698
1040.000000	59.587562
1030.000000	59.549154
1020.000000	59.496864
1010.000000	59.713558
1000.000000	59.858468
990.000000	59.958194
980.000000	60.019183
970.000000	60.175123
960.000000	60.290177
950.000000	60.379334
940.000000	60.356466
930.000000	60.375838
920.000000	60.275500
910.000000	60.377953
900.000000	60.435703
890.000000	60.487665
880.000000	60.567981
870.000000	60.822010
860.000000	60.190615
850.000000	60.051566
840.000000	60.384714
830.000000	59.905097
820.000000	59.904000
810.000000	59.903351
800.000000	59.659089
790.000000	59.502853
780.000000	59.261996
770.000000	59.306657
760.000000	58.804046
750.000000	58.730115
740.000000	58.332804
730.000000	58.282996
720.000000	58.022265
710.000000	57.732764
700.000000	57.207998
690.000000	56.874381
680.000000	56.279080
670.000000	55.876602
660.000000	55.367438
650.000000	54.822233
640.000000	54.244697
630.000000	53.634914
620.000000	52.972022
610.000000	52.306858
600.000000	51.604838
590.000000	50.875643
580.000000	50.086852
570.000000	49.174266
560.000000	48.401566
550.000000	47.389628
540.000000	46.321648
530.000000	45.299093
520.000000	44.018246
510.000000	42.854129
500.000000	41.311219
490.000000	39.545097
480.000000	37.711391
470.000000	35.702974
460.000000	33.711617
450.000000	31.300844
440.000000	28.816007
430.000000	26.172938
420.000000	23.478882
410.000000	21.308011
400.000000	19.588426
390.000000	17.799715
380.000000	15.928307
370.000000	14.086991
360.000000	12.430037
350.000000	11.205157
340.000000	9.594728
330.000000	7.964927
320.000000	7.488142
310.000000	5.737946
300.000000	4.917717
290.000000	4.417006
280.000000	4.706750
270.000000	4.756919
260.000000	4.931618
250.000000	5.132181
