PE UV       SUBTECH     SPECTRUM    ASCII       PEDS        4.00        
   -1
011-6C-XXX-NR003-C001.Sample.asc
24/01/09
15:08:38.00
24/01/09
15:08:38.00
Administrator

250.000000
1
Lambda 750
750N8071901
PerkinElmer UV WinLab 6.0.4.0738 / 1.61.00 Lambda 900

0
0
3350/servo 860.8/2
0
0
UV/VIS
1
1
1
CommonBeamDepol,150mm sphere / downward view
0
0
0
0
Program
Program
3350/servo 860.8/2
3350/0.2 860.8/0.2
3350/0.2 860.8/0.2
0
1
 
 
 
0
 
860.8
319.2
860.8
Front
100
on
 
 
0
0
0
 
0
 
 
 
0
 
 
0
0
0
0
0
 
 
 
 
0
0


0
0
#HDR
-1
-1
#GR
nm
%R
1.0
0.0
2500.000000
-10.000000
226
8
52.147312
6.349929
#DATA
2500.000000	8.440142
2490.000000	6.349929
2480.000000	9.977472
2470.000000	11.458089
2460.000000	13.077805
2450.000000	11.997394
2440.000000	13.284209
2430.000000	12.960186
2420.000000	13.065308
2410.000000	14.690381
2400.000000	10.220480
2390.000000	11.055048
2380.000000	12.232952
2370.000000	12.724611
2360.000000	11.355916
2350.000000	12.678706
2340.000000	13.078578
2330.000000	13.264280
2320.000000	12.342431
2310.000000	11.158017
2300.000000	11.303428
2290.000000	12.633424
2280.000000	11.116976
2270.000000	14.047808
2260.000000	14.096644
2250.000000	15.003832
2240.000000	15.277354
2230.000000	15.346550
2220.000000	14.873621
2210.000000	13.556699
2200.000000	13.405287
2190.000000	14.524964
2180.000000	14.289956
2170.000000	14.784640
2160.000000	16.110712
2150.000000	16.393576
2140.000000	17.528187
2130.000000	17.001519
2120.000000	17.945913
2110.000000	18.069345
2100.000000	18.008156
2090.000000	16.809629
2080.000000	15.901174
2070.000000	14.827851
2060.000000	14.599787
2050.000000	14.912107
2040.000000	16.135960
2030.000000	15.854058
2020.000000	15.547535
2010.000000	14.912973
2000.000000	14.507070
1990.000000	13.428066
1980.000000	12.899589
1970.000000	12.896972
1960.000000	12.735826
1950.000000	12.924846
1940.000000	13.922211
1930.000000	16.238962
1920.000000	19.708542
1910.000000	24.088137
1900.000000	27.953756
1890.000000	31.037001
1880.000000	32.788155
1870.000000	33.300156
1860.000000	33.588796
1850.000000	33.219921
1840.000000	32.767911
1830.000000	32.522117
1820.000000	32.081594
1810.000000	31.743915
1800.000000	31.124955
1790.000000	30.833582
1780.000000	30.299348
1770.000000	29.833049
1760.000000	29.300962
1750.000000	28.863510
1740.000000	29.246251
1730.000000	30.429810
1720.000000	30.817903
1710.000000	31.046429
1700.000000	32.126228
1690.000000	34.268716
1680.000000	35.907760
1670.000000	36.533197
1660.000000	36.684563
1650.000000	36.300293
1640.000000	35.718893
1630.000000	35.055507
1620.000000	34.277604
1610.000000	33.463433
1600.000000	32.887922
1590.000000	32.285370
1580.000000	31.830528
1570.000000	31.590204
1560.000000	31.150973
1550.000000	30.270391
1540.000000	29.529332
1530.000000	29.051286
1520.000000	28.716392
1510.000000	28.717983
1500.000000	29.011516
1490.000000	29.476801
1480.000000	30.017468
1470.000000	30.535757
1460.000000	31.312056
1450.000000	32.330217
1440.000000	33.778467
1430.000000	35.935288
1420.000000	38.392079
1410.000000	40.972772
1400.000000	43.055005
1390.000000	44.434400
1380.000000	45.217329
1370.000000	46.129703
1360.000000	47.060690
1350.000000	48.150959
1340.000000	49.143711
1330.000000	49.644601
1320.000000	49.766982
1310.000000	49.688061
1300.000000	49.454285
1290.000000	49.444600
1280.000000	49.484057
1270.000000	49.622920
1260.000000	49.522910
1250.000000	49.264474
1240.000000	48.890457
1230.000000	48.637426
1220.000000	47.988349
1210.000000	47.459923
1200.000000	47.287608
1190.000000	47.807919
1180.000000	48.699062
1170.000000	49.825618
1160.000000	50.703399
1150.000000	51.352942
1140.000000	51.691750
1130.000000	52.019306
1120.000000	52.147312
1110.000000	52.070705
1100.000000	51.992342
1090.000000	51.930304
1080.000000	51.785504
1070.000000	51.599542
1060.000000	51.469521
1050.000000	51.394407
1040.000000	51.228392
1030.000000	51.135639
1020.000000	51.056183
1010.000000	51.230112
1000.000000	51.337264
990.000000	51.346047
980.000000	51.499678
970.000000	51.573903
960.000000	51.660583
950.000000	51.723482
940.000000	51.635441
930.000000	51.758170
920.000000	51.518180
910.000000	51.767502
900.000000	51.853078
890.000000	51.871623
880.000000	51.761032
870.000000	52.045788
860.000000	51.747147
850.000000	51.749446
840.000000	51.726400
830.000000	51.516026
820.000000	51.690873
810.000000	51.665384
800.000000	51.305638
790.000000	51.270001
780.000000	51.239274
770.000000	50.999922
760.000000	50.836976
750.000000	50.541880
740.000000	50.440186
730.000000	50.189957
720.000000	49.913172
710.000000	49.885721
700.000000	49.468949
690.000000	49.090774
680.000000	48.756718
670.000000	48.304558
660.000000	47.854865
650.000000	47.297076
640.000000	46.664078
630.000000	46.079069
620.000000	45.526537
610.000000	44.904495
600.000000	44.538208
590.000000	44.111688
580.000000	43.571168
570.000000	42.996047
560.000000	42.617335
550.000000	42.138879
540.000000	41.556110
530.000000	41.092460
520.000000	40.533919
510.000000	40.037774
500.000000	39.251721
490.000000	38.494072
480.000000	37.479084
470.000000	36.475623
460.000000	35.318759
450.000000	33.906863
440.000000	32.460031
430.000000	30.918653
420.000000	29.344273
410.000000	28.172550
400.000000	27.764037
390.000000	27.285353
380.000000	26.636193
370.000000	25.680293
360.000000	24.869641
350.000000	23.879297
340.000000	23.261415
330.000000	22.211715
320.000000	21.861281
310.000000	20.957868
300.000000	19.560701
290.000000	16.114602
280.000000	14.070547
270.000000	14.764561
260.000000	15.745436
250.000000	15.039004
