PE UV       SUBTECH     SPECTRUM    ASCII       PEDS        4.00        
   -1
014-4C-XXX-NR003-F001.Sample.asc
24/01/09
15:20:44.00
24/01/09
15:20:44.00
Administrator

250.000000
1
Lambda 750
750N8071901
PerkinElmer UV WinLab 6.0.4.0738 / 1.61.00 Lambda 900

0
0
3350/servo 860.8/2
0
0
UV/VIS
1
1
1
CommonBeamDepol,150mm sphere / downward view
0
0
0
0
Program
Program
3350/servo 860.8/2
3350/0.2 860.8/0.2
3350/0.2 860.8/0.2
0
1
 
 
 
0
 
860.8
319.2
860.8
Front
100
on
 
 
0
0
0
 
0
 
 
 
0
 
 
0
0
0
0
0
 
 
 
 
0
0


0
0
#HDR
-1
-1
#GR
nm
%R
1.0
0.0
2500.000000
-10.000000
226
8
64.492704
7.947756
#DATA
2500.000000	18.383969
2490.000000	17.638661
2480.000000	20.814582
2470.000000	21.930689
2460.000000	22.219939
2450.000000	23.897483
2440.000000	23.033356
2430.000000	21.905738
2420.000000	22.307651
2410.000000	23.462445
2400.000000	22.925904
2390.000000	22.697789
2380.000000	23.138332
2370.000000	24.627131
2360.000000	23.360319
2350.000000	23.318615
2340.000000	23.910957
2330.000000	23.591533
2320.000000	22.278253
2310.000000	21.845086
2300.000000	21.383347
2290.000000	22.109790
2280.000000	21.612848
2270.000000	24.934806
2260.000000	26.255266
2250.000000	27.454718
2240.000000	27.269135
2230.000000	27.005672
2220.000000	26.276023
2210.000000	25.200822
2200.000000	25.044354
2190.000000	25.450052
2180.000000	26.017102
2170.000000	27.116632
2160.000000	28.574334
2150.000000	30.216279
2140.000000	31.195132
2130.000000	30.242462
2120.000000	31.157956
2110.000000	31.399554
2100.000000	31.292795
2090.000000	30.004735
2080.000000	28.437139
2070.000000	26.961585
2060.000000	26.324911
2050.000000	26.755217
2040.000000	27.978090
2030.000000	27.969945
2020.000000	27.151405
2010.000000	26.295232
2000.000000	25.180692
1990.000000	23.824366
1980.000000	22.859077
1970.000000	22.005407
1960.000000	21.539898
1950.000000	22.448460
1940.000000	24.131778
1930.000000	27.648914
1920.000000	32.333780
1910.000000	37.876432
1900.000000	42.696690
1890.000000	46.378638
1880.000000	48.596875
1870.000000	48.933360
1860.000000	49.246026
1850.000000	48.673319
1840.000000	48.330634
1830.000000	47.929452
1820.000000	47.575387
1810.000000	47.239324
1800.000000	46.632942
1790.000000	46.392421
1780.000000	45.716495
1770.000000	45.303412
1760.000000	44.675309
1750.000000	44.231660
1740.000000	44.621203
1730.000000	45.868975
1720.000000	46.520210
1710.000000	46.753946
1700.000000	47.816165
1690.000000	49.833106
1680.000000	51.359177
1670.000000	52.086562
1660.000000	52.168779
1650.000000	51.802377
1640.000000	51.264841
1630.000000	50.585260
1620.000000	49.781313
1610.000000	49.043105
1600.000000	48.434454
1590.000000	47.816810
1580.000000	47.346984
1570.000000	47.094169
1560.000000	46.599295
1550.000000	45.572257
1540.000000	44.668072
1530.000000	44.100092
1520.000000	43.716970
1510.000000	43.698824
1500.000000	43.904635
1490.000000	44.423965
1480.000000	44.927306
1470.000000	45.476388
1460.000000	46.241861
1450.000000	47.376969
1440.000000	48.795574
1430.000000	50.837028
1420.000000	53.237364
1410.000000	55.533594
1400.000000	57.347880
1390.000000	58.401382
1380.000000	59.021019
1370.000000	59.777790
1360.000000	60.591754
1350.000000	61.267716
1340.000000	61.680787
1330.000000	61.809767
1320.000000	61.827634
1310.000000	61.772085
1300.000000	61.749659
1290.000000	61.695701
1280.000000	61.793482
1270.000000	61.914920
1260.000000	61.901688
1250.000000	61.727886
1240.000000	61.335815
1230.000000	61.146982
1220.000000	60.791007
1210.000000	60.472731
1200.000000	60.403606
1190.000000	60.727393
1180.000000	61.332833
1170.000000	62.066366
1160.000000	62.698217
1150.000000	63.097968
1140.000000	63.304679
1130.000000	63.559067
1120.000000	63.554429
1110.000000	63.652217
1100.000000	63.618194
1090.000000	63.515270
1080.000000	63.487674
1070.000000	63.426485
1060.000000	63.315935
1050.000000	63.247383
1040.000000	63.206413
1030.000000	63.157161
1020.000000	63.140636
1010.000000	63.354660
1000.000000	63.446073
990.000000	63.456000
980.000000	63.584115
970.000000	63.672264
960.000000	63.764306
950.000000	63.852344
940.000000	63.810776
930.000000	63.856825
920.000000	64.055996
910.000000	64.064412
900.000000	64.094881
890.000000	64.087820
880.000000	64.469207
870.000000	64.492704
860.000000	64.030179
850.000000	63.368034
840.000000	64.137823
830.000000	63.730060
820.000000	63.855016
810.000000	63.995239
800.000000	63.687015
790.000000	63.767636
780.000000	64.067564
770.000000	63.949485
760.000000	63.816593
750.000000	63.648152
740.000000	64.070836
730.000000	63.757811
720.000000	63.941823
710.000000	63.979907
700.000000	63.906903
690.000000	63.924878
680.000000	63.889436
670.000000	63.840973
660.000000	63.765768
650.000000	63.808981
640.000000	63.705973
630.000000	63.626622
620.000000	63.514754
610.000000	63.511343
600.000000	63.360343
590.000000	63.280627
580.000000	63.006553
570.000000	62.846773
560.000000	62.647961
550.000000	62.469648
540.000000	62.069608
530.000000	61.822841
520.000000	61.346410
510.000000	61.027525
500.000000	60.464759
490.000000	59.874941
480.000000	59.084466
470.000000	58.422980
460.000000	57.550005
450.000000	56.432054
440.000000	55.102202
430.000000	53.673410
420.000000	52.089310
410.000000	50.294312
400.000000	48.272906
390.000000	45.977436
380.000000	43.586390
370.000000	40.977576
360.000000	38.155503
350.000000	35.201757
340.000000	32.887667
330.000000	29.236626
320.000000	25.846588
310.000000	22.508572
300.000000	17.704893
290.000000	10.979285
280.000000	7.981073
270.000000	7.947756
260.000000	8.601474
250.000000	9.008404
