PE UV       SUBTECH     SPECTRUM    ASCII       PEDS        4.00        
   -1
Empty Chamber.Sample.asc
18/03/06
14:11:17.00
18/03/06
14:11:17.00
Administrator

200.000000
1
Lambda 750
750N8071901
PerkinElmer UV WinLab 6.0.4.0738 / 1.61.00 Lambda 900

0
0
3350/servo 860.8/2
0
0
UV/VIS
1
1
1
CommonBeamDepol,150mm sphere / downward view
0
0
0
0
Program
Program
3350/servo 860.8/2
3350/0.2 860.8/0.2
3350/0.2 860.8/0.2
0
1
 
 
 
0
 
860.8
319.2
860.8
Front
100
on
 
 
0
0
0
 
0
 
 
 
0
 
 
0
0
0
0
0
 
 
 
 
0
0


0
0
#HDR
-1
-1
#GR
nm
%T
1.0
0.0
2350.000000
-1.000000
2151
8
100.747587
99.488709
#DATA
2350.000000	99.781934
2349.000000	100.293889
2348.000000	100.353848
2347.000000	100.728860
2346.000000	99.565015
2345.000000	100.315591
2344.000000	100.037208
2343.000000	99.611133
2342.000000	99.836861
2341.000000	99.919929
2340.000000	99.960592
2339.000000	100.271034
2338.000000	100.747587
2337.000000	99.818761
2336.000000	99.613472
2335.000000	100.454532
2334.000000	100.224641
2333.000000	100.216158
2332.000000	99.949072
2331.000000	99.763938
2330.000000	99.775634
2329.000000	100.060349
2328.000000	99.681099
2327.000000	99.700065
2326.000000	100.026066
2325.000000	99.801959
2324.000000	100.297310
2323.000000	100.064669
2322.000000	99.509567
2321.000000	99.673160
2320.000000	99.843278
2319.000000	100.237601
2318.000000	100.172911
2317.000000	100.126486
2316.000000	100.479815
2315.000000	100.134369
2314.000000	100.159019
2313.000000	100.044398
2312.000000	99.564216
2311.000000	100.153425
2310.000000	100.136134
2309.000000	100.155370
2308.000000	100.157536
2307.000000	99.673839
2306.000000	99.908395
2305.000000	100.056955
2304.000000	100.409909
2303.000000	100.162236
2302.000000	100.339456
2301.000000	100.055317
2300.000000	100.144602
2299.000000	99.873842
2298.000000	99.774448
2297.000000	99.786396
2296.000000	99.966412
2295.000000	100.038909
2294.000000	100.246619
2293.000000	100.363988
2292.000000	99.876300
2291.000000	99.889353
2290.000000	99.868204
2289.000000	100.205485
2288.000000	100.228232
2287.000000	100.309628
2286.000000	99.920216
2285.000000	99.818200
2284.000000	99.992203
2283.000000	100.052606
2282.000000	100.027309
2281.000000	100.188601
2280.000000	100.138821
2279.000000	100.246550
2278.000000	100.038440
2277.000000	100.003944
2276.000000	100.051278
2275.000000	99.958143
2274.000000	100.080161
2273.000000	100.185440
2272.000000	99.942882
2271.000000	99.920103
2270.000000	99.945074
2269.000000	99.939569
2268.000000	100.017629
2267.000000	100.244536
2266.000000	100.152715
2265.000000	100.174819
2264.000000	100.251058
2263.000000	99.860522
2262.000000	99.783279
2261.000000	100.158113
2260.000000	99.995052
2259.000000	99.971506
2258.000000	100.209643
2257.000000	100.102452
2256.000000	99.953091
2255.000000	99.852292
2254.000000	99.929012
2253.000000	100.035093
2252.000000	100.045861
2251.000000	100.123248
2250.000000	100.078997
2249.000000	100.008402
2248.000000	99.983708
2247.000000	100.175240
2246.000000	100.300547
2245.000000	100.101380
2244.000000	100.095076
2243.000000	100.223275
2242.000000	100.310477
2241.000000	100.131330
2240.000000	99.888570
2239.000000	99.997368
2238.000000	100.128474
2237.000000	100.130130
2236.000000	100.005872
2235.000000	100.026936
2234.000000	100.147723
2233.000000	100.005770
2232.000000	99.931650
2231.000000	99.800670
2230.000000	99.914578
2229.000000	100.008397
2228.000000	100.052233
2227.000000	99.929688
2226.000000	99.845301
2225.000000	99.939278
2224.000000	99.962163
2223.000000	99.891488
2222.000000	100.158926
2221.000000	100.238628
2220.000000	99.974088
2219.000000	100.163146
2218.000000	100.074044
2217.000000	99.870242
2216.000000	100.043993
2215.000000	100.045426
2214.000000	99.922428
2213.000000	100.059189
2212.000000	99.959437
2211.000000	99.900510
2210.000000	100.162610
2209.000000	100.102300
2208.000000	99.855303
2207.000000	100.031280
2206.000000	100.309586
2205.000000	100.403438
2204.000000	100.257828
2203.000000	99.928260
2202.000000	100.082924
2201.000000	100.078661
2200.000000	99.935046
2199.000000	100.011523
2198.000000	100.012433
2197.000000	99.947334
2196.000000	99.928277
2195.000000	100.005157
2194.000000	100.007280
2193.000000	99.980894
2192.000000	100.155600
2191.000000	100.136083
2190.000000	100.088477
2189.000000	100.288057
2188.000000	99.961085
2187.000000	99.757670
2186.000000	99.622881
2185.000000	99.905484
2184.000000	99.870409
2183.000000	100.084073
2182.000000	99.897823
2181.000000	99.980196
2180.000000	100.189624
2179.000000	99.908498
2178.000000	99.938164
2177.000000	100.212074
2176.000000	100.129623
2175.000000	99.995454
2174.000000	100.264637
2173.000000	100.122930
2172.000000	100.058416
2171.000000	99.839888
2170.000000	100.202445
2169.000000	100.060654
2168.000000	99.985686
2167.000000	99.838779
2166.000000	100.086307
2165.000000	100.190617
2164.000000	100.022692
2163.000000	99.635315
2162.000000	100.112636
2161.000000	100.008765
2160.000000	100.047523
2159.000000	100.063291
2158.000000	100.118495
2157.000000	99.765092
2156.000000	99.697499
2155.000000	99.951829
2154.000000	99.654313
2153.000000	100.015112
2152.000000	100.108065
2151.000000	99.871100
2150.000000	100.118273
2149.000000	99.896525
2148.000000	99.952545
2147.000000	100.254202
2146.000000	100.006242
2145.000000	99.727853
2144.000000	100.028698
2143.000000	100.218851
2142.000000	99.908032
2141.000000	99.898195
2140.000000	100.004726
2139.000000	100.091360
2138.000000	100.130500
2137.000000	99.808542
2136.000000	99.986896
2135.000000	100.023640
2134.000000	99.993662
2133.000000	100.258728
2132.000000	99.996481
2131.000000	99.847095
2130.000000	100.094250
2129.000000	100.011768
2128.000000	100.088084
2127.000000	100.074681
2126.000000	99.983488
2125.000000	99.844828
2124.000000	100.095555
2123.000000	100.150006
2122.000000	99.960921
2121.000000	100.090144
2120.000000	99.914553
2119.000000	99.898922
2118.000000	99.966891
2117.000000	100.169525
2116.000000	100.221350
2115.000000	100.357732
2114.000000	99.986785
2113.000000	100.065221
2112.000000	100.081665
2111.000000	99.896252
2110.000000	100.028189
2109.000000	100.020605
2108.000000	100.133978
2107.000000	99.995758
2106.000000	100.013826
2105.000000	100.027445
2104.000000	99.781337
2103.000000	99.931629
2102.000000	100.037792
2101.000000	100.100645
2100.000000	100.138262
2099.000000	99.985258
2098.000000	100.000808
2097.000000	100.010194
2096.000000	99.885673
2095.000000	100.080910
2094.000000	100.006566
2093.000000	100.148926
2092.000000	100.051739
2091.000000	99.999293
2090.000000	100.011613
2089.000000	99.837769
2088.000000	100.007572
2087.000000	99.973668
2086.000000	99.941420
2085.000000	100.061922
2084.000000	99.924838
2083.000000	99.933320
2082.000000	100.084633
2081.000000	100.051240
2080.000000	100.036359
2079.000000	100.094808
2078.000000	100.053211
2077.000000	99.987760
2076.000000	99.941409
2075.000000	99.949980
2074.000000	99.836714
2073.000000	99.945169
2072.000000	100.071436
2071.000000	100.107258
2070.000000	100.110413
2069.000000	100.018299
2068.000000	100.026598
2067.000000	100.052506
2066.000000	99.993023
2065.000000	100.132541
2064.000000	100.222257
2063.000000	100.108606
2062.000000	100.040365
2061.000000	100.099588
2060.000000	100.014469
2059.000000	100.012448
2058.000000	100.018914
2057.000000	99.961808
2056.000000	100.004956
2055.000000	100.025297
2054.000000	99.929006
2053.000000	100.029745
2052.000000	100.027632
2051.000000	100.062368
2050.000000	100.059896
2049.000000	100.069625
2048.000000	100.043523
2047.000000	99.964873
2046.000000	99.942208
2045.000000	99.981986
2044.000000	100.003442
2043.000000	100.079993
2042.000000	100.061350
2041.000000	100.000304
2040.000000	99.961131
2039.000000	100.007899
2038.000000	100.102822
2037.000000	100.031391
2036.000000	99.988661
2035.000000	100.046578
2034.000000	100.129997
2033.000000	100.093202
2032.000000	100.040002
2031.000000	100.039305
2030.000000	99.980245
2029.000000	100.008915
2028.000000	100.056729
2027.000000	100.012462
2026.000000	100.054827
2025.000000	100.049141
2024.000000	100.033340
2023.000000	100.109435
2022.000000	100.025640
2021.000000	99.989263
2020.000000	100.052102
2019.000000	100.057898
2018.000000	100.036493
2017.000000	99.983988
2016.000000	100.027276
2015.000000	99.933395
2014.000000	99.870018
2013.000000	99.966459
2012.000000	99.993817
2011.000000	100.051003
2010.000000	100.049596
2009.000000	100.007099
2008.000000	100.009838
2007.000000	100.004768
2006.000000	99.980420
2005.000000	99.980928
2004.000000	100.045861
2003.000000	100.052667
2002.000000	100.025475
2001.000000	100.008524
2000.000000	99.940968
1999.000000	99.988128
1998.000000	99.982551
1997.000000	100.010859
1996.000000	100.026999
1995.000000	99.951396
1994.000000	100.013907
1993.000000	100.038480
1992.000000	100.054124
1991.000000	100.030974
1990.000000	100.040023
1989.000000	100.045394
1988.000000	100.056461
1987.000000	100.040836
1986.000000	99.975632
1985.000000	99.909972
1984.000000	99.942630
1983.000000	100.000813
1982.000000	100.002336
1981.000000	100.005686
1980.000000	99.915235
1979.000000	100.051906
1978.000000	100.083135
1977.000000	100.031303
1976.000000	100.047853
1975.000000	100.001625
1974.000000	100.054575
1973.000000	100.060584
1972.000000	100.028852
1971.000000	100.054664
1970.000000	99.979177
1969.000000	100.008532
1968.000000	100.040218
1967.000000	100.046009
1966.000000	99.986800
1965.000000	99.972277
1964.000000	100.004063
1963.000000	100.070294
1962.000000	99.985481
1961.000000	99.976747
1960.000000	99.990554
1959.000000	100.025504
1958.000000	100.021323
1957.000000	100.066330
1956.000000	100.101985
1955.000000	99.991981
1954.000000	100.017663
1953.000000	100.001827
1952.000000	100.041719
1951.000000	100.042740
1950.000000	99.968339
1949.000000	99.991475
1948.000000	100.023233
1947.000000	100.061896
1946.000000	100.005885
1945.000000	100.077473
1944.000000	100.144427
1943.000000	100.105256
1942.000000	100.003856
1941.000000	99.988949
1940.000000	100.026068
1939.000000	99.971402
1938.000000	100.023328
1937.000000	100.006689
1936.000000	100.019965
1935.000000	100.040467
1934.000000	100.028180
1933.000000	99.891215
1932.000000	99.962606
1931.000000	100.063619
1930.000000	100.073456
1929.000000	100.009524
1928.000000	100.049850
1927.000000	100.056140
1926.000000	100.075969
1925.000000	100.018350
1924.000000	100.032521
1923.000000	99.853270
1922.000000	99.947383
1921.000000	99.955438
1920.000000	99.868731
1919.000000	100.058303
1918.000000	100.078391
1917.000000	99.936819
1916.000000	99.941178
1915.000000	100.053468
1914.000000	99.900520
1913.000000	100.003343
1912.000000	99.914323
1911.000000	99.950270
1910.000000	99.905514
1909.000000	99.969682
1908.000000	99.835994
1907.000000	100.110757
1906.000000	100.022797
1905.000000	99.997161
1904.000000	100.119140
1903.000000	99.993212
1902.000000	99.926067
1901.000000	100.045293
1900.000000	100.042256
1899.000000	100.016926
1898.000000	99.997669
1897.000000	99.955344
1896.000000	100.048190
1895.000000	99.986416
1894.000000	99.887631
1893.000000	99.988543
1892.000000	100.035911
1891.000000	100.054156
1890.000000	100.044908
1889.000000	100.090887
1888.000000	99.950551
1887.000000	100.043675
1886.000000	100.026131
1885.000000	100.019645
1884.000000	99.936238
1883.000000	99.970750
1882.000000	99.964181
1881.000000	100.064193
1880.000000	100.014986
1879.000000	100.026512
1878.000000	100.031152
1877.000000	100.012339
1876.000000	100.017297
1875.000000	100.027322
1874.000000	100.097403
1873.000000	100.013750
1872.000000	100.007280
1871.000000	100.056336
1870.000000	99.906406
1869.000000	99.934516
1868.000000	99.968660
1867.000000	99.903999
1866.000000	99.967641
1865.000000	99.971881
1864.000000	99.888131
1863.000000	100.045926
1862.000000	100.014158
1861.000000	100.068509
1860.000000	100.022665
1859.000000	100.022865
1858.000000	99.979062
1857.000000	99.944877
1856.000000	99.948644
1855.000000	100.043485
1854.000000	100.022252
1853.000000	99.998179
1852.000000	99.976242
1851.000000	100.087587
1850.000000	99.992518
1849.000000	99.939669
1848.000000	100.033674
1847.000000	100.062717
1846.000000	100.016284
1845.000000	99.971294
1844.000000	100.006771
1843.000000	99.956552
1842.000000	99.971802
1841.000000	99.980395
1840.000000	99.989892
1839.000000	100.004550
1838.000000	100.013452
1837.000000	99.997572
1836.000000	100.022156
1835.000000	100.013758
1834.000000	99.970053
1833.000000	100.042308
1832.000000	100.030067
1831.000000	99.982489
1830.000000	100.023187
1829.000000	100.018531
1828.000000	99.991494
1827.000000	100.015904
1826.000000	99.978632
1825.000000	99.979544
1824.000000	100.011143
1823.000000	99.989161
1822.000000	100.020465
1821.000000	99.997062
1820.000000	99.954311
1819.000000	99.947213
1818.000000	99.964540
1817.000000	100.028484
1816.000000	100.039331
1815.000000	100.037808
1814.000000	100.043089
1813.000000	99.999696
1812.000000	99.990165
1811.000000	100.005373
1810.000000	100.023016
1809.000000	100.018153
1808.000000	99.992698
1807.000000	99.987728
1806.000000	100.008014
1805.000000	100.026985
1804.000000	100.044638
1803.000000	100.029826
1802.000000	100.022421
1801.000000	100.009130
1800.000000	100.002029
1799.000000	100.013491
1798.000000	99.997160
1797.000000	99.985191
1796.000000	99.967337
1795.000000	99.952328
1794.000000	100.000812
1793.000000	100.002638
1792.000000	99.990259
1791.000000	100.012888
1790.000000	100.030047
1789.000000	100.038373
1788.000000	100.013196
1787.000000	100.005989
1786.000000	100.013704
1785.000000	100.039391
1784.000000	100.004161
1783.000000	99.981426
1782.000000	99.984978
1781.000000	99.988026
1780.000000	100.001421
1779.000000	100.038369
1778.000000	100.023038
1777.000000	99.983055
1776.000000	99.989750
1775.000000	99.992895
1774.000000	100.004059
1773.000000	100.023547
1772.000000	100.034008
1771.000000	99.986501
1770.000000	99.990968
1769.000000	100.016847
1768.000000	100.005480
1767.000000	99.991273
1766.000000	100.003146
1765.000000	99.991579
1764.000000	100.012176
1763.000000	99.999797
1762.000000	99.995534
1761.000000	100.009744
1760.000000	99.956984
1759.000000	99.979202
1758.000000	100.005074
1757.000000	100.021116
1756.000000	100.000203
1755.000000	100.027003
1754.000000	99.969971
1753.000000	99.946439
1752.000000	99.939340
1751.000000	99.971699
1750.000000	99.997159
1749.000000	99.984987
1748.000000	99.966424
1747.000000	100.010757
1746.000000	100.008321
1745.000000	100.020093
1744.000000	100.028722
1743.000000	100.021210
1742.000000	100.007408
1741.000000	99.990969
1740.000000	100.031867
1739.000000	99.991378
1738.000000	99.978597
1737.000000	99.985598
1736.000000	100.009333
1735.000000	100.001928
1734.000000	99.989550
1733.000000	99.979203
1732.000000	100.033995
1731.000000	100.005580
1730.000000	100.001421
1729.000000	100.016840
1728.000000	100.012581
1727.000000	100.007407
1726.000000	100.008825
1725.000000	99.993710
1724.000000	99.998479
1723.000000	99.945455
1722.000000	100.008419
1721.000000	99.998580
1720.000000	100.026379
1719.000000	100.039974
1718.000000	99.986510
1717.000000	100.060660
1716.000000	99.999188
1715.000000	99.972315
1714.000000	99.988435
1713.000000	100.035816
1712.000000	99.990465
1711.000000	100.014912
1710.000000	100.023431
1709.000000	99.985091
1708.000000	100.010245
1707.000000	99.984483
1706.000000	99.963491
1705.000000	100.000406
1704.000000	99.988740
1703.000000	99.984174
1702.000000	100.030337
1701.000000	100.030840
1700.000000	99.958625
1699.000000	100.031236
1698.000000	99.969384
1697.000000	99.970084
1696.000000	100.036725
1695.000000	100.016636
1694.000000	99.987527
1693.000000	100.000507
1692.000000	100.052560
1691.000000	100.054985
1690.000000	100.041492
1689.000000	100.016332
1688.000000	100.026367
1687.000000	100.037119
1686.000000	100.031348
1685.000000	100.009026
1684.000000	100.008114
1683.000000	99.998682
1682.000000	100.026477
1681.000000	99.982156
1680.000000	100.009230
1679.000000	100.023232
1678.000000	99.991074
1677.000000	100.021302
1676.000000	100.015924
1675.000000	100.020792
1674.000000	100.007000
1673.000000	99.985903
1672.000000	99.983063
1671.000000	100.020490
1670.000000	100.014806
1669.000000	100.015006
1668.000000	99.994829
1667.000000	100.006287
1666.000000	99.998277
1665.000000	99.996655
1664.000000	100.010037
1663.000000	99.980636
1662.000000	100.026263
1661.000000	99.972724
1660.000000	99.968264
1659.000000	100.010850
1658.000000	100.009735
1657.000000	100.055073
1656.000000	100.009631
1655.000000	99.965639
1654.000000	99.979419
1653.000000	99.983577
1652.000000	99.978609
1651.000000	100.011458
1650.000000	100.027075
1649.000000	100.049601
1648.000000	99.998377
1647.000000	100.027179
1646.000000	100.011356
1645.000000	99.990976
1644.000000	100.021300
1643.000000	99.969989
1642.000000	99.968367
1641.000000	99.967148
1640.000000	99.977085
1639.000000	100.018659
1638.000000	99.997465
1637.000000	100.001115
1636.000000	99.998276
1635.000000	99.985503
1634.000000	99.989760
1633.000000	99.993510
1632.000000	99.994727
1631.000000	100.008519
1630.000000	100.019472
1629.000000	100.072932
1628.000000	100.011356
1627.000000	99.998783
1626.000000	99.993307
1625.000000	100.001927
1624.000000	99.981444
1623.000000	100.004564
1622.000000	99.995742
1621.000000	99.988745
1620.000000	100.022411
1619.000000	100.030523
1618.000000	100.027784
1617.000000	100.024842
1616.000000	100.006592
1615.000000	100.008012
1614.000000	100.029918
1613.000000	100.031541
1612.000000	100.022311
1611.000000	100.026977
1610.000000	100.021498
1609.000000	100.012573
1608.000000	99.997060
1607.000000	100.003245
1606.000000	100.001420
1605.000000	99.992699
1604.000000	99.998682
1603.000000	100.033463
1602.000000	100.036405
1601.000000	100.007200
1600.000000	99.997465
1599.000000	100.002028
1598.000000	100.004867
1597.000000	99.979318
1596.000000	99.988442
1595.000000	99.999696
1594.000000	100.003853
1593.000000	99.996857
1592.000000	99.989151
1591.000000	100.014399
1590.000000	100.011256
1589.000000	100.001318
1588.000000	100.021094
1587.000000	100.024036
1586.000000	100.005679
1585.000000	100.017747
1584.000000	100.024743
1583.000000	100.033973
1582.000000	100.006895
1581.000000	99.971713
1580.000000	99.976985
1579.000000	99.992801
1578.000000	99.988949
1577.000000	99.991281
1576.000000	100.013586
1575.000000	100.025654
1574.000000	100.000811
1573.000000	99.999797
1572.000000	100.019164
1571.000000	100.011356
1570.000000	100.020987
1569.000000	100.031029
1568.000000	100.003752
1567.000000	99.981956
1566.000000	99.995641
1565.000000	99.990774
1564.000000	100.012470
1563.000000	99.997567
1562.000000	99.997770
1561.000000	100.006387
1560.000000	99.991992
1559.000000	100.002129
1558.000000	100.027071
1557.000000	99.998277
1556.000000	99.986722
1555.000000	99.982364
1554.000000	99.990573
1553.000000	100.002129
1552.000000	99.987231
1551.000000	99.987333
1550.000000	100.002737
1549.000000	99.989865
1548.000000	99.994121
1547.000000	99.993108
1546.000000	100.011150
1545.000000	100.033354
1544.000000	99.991992
1543.000000	100.013381
1542.000000	100.013788
1541.000000	99.987635
1540.000000	100.002128
1539.000000	99.999595
1538.000000	100.010338
1537.000000	99.990474
1536.000000	99.980849
1535.000000	99.988447
1534.000000	100.011452
1533.000000	100.023517
1532.000000	100.021387
1531.000000	100.011960
1530.000000	100.003649
1529.000000	99.985508
1528.000000	99.998075
1527.000000	99.995743
1526.000000	99.996351
1525.000000	100.009020
1524.000000	99.991487
1523.000000	100.017331
1522.000000	100.013986
1521.000000	99.999797
1520.000000	100.033854
1519.000000	100.020675
1518.000000	100.014594
1517.000000	100.001317
1516.000000	100.009527
1515.000000	100.030208
1514.000000	100.006689
1513.000000	100.026858
1512.000000	100.018245
1511.000000	99.997365
1510.000000	100.009527
1509.000000	100.007601
1508.000000	99.987839
1507.000000	100.029798
1506.000000	100.007397
1505.000000	100.013277
1504.000000	100.003547
1503.000000	100.008817
1502.000000	99.996656
1501.000000	100.008513
1500.000000	100.020268
1499.000000	99.965147
1498.000000	100.032735
1497.000000	99.995744
1496.000000	100.019254
1495.000000	100.023307
1494.000000	100.007803
1493.000000	99.995947
