PE UV       SUBTECH     SPECTRUM    ASCII       PEDS        4.00        
   -1
TTgChevreUK 12.Sample.asc
18/03/06
17:27:24.00
18/03/06
17:27:24.00
Administrator

200.000000
1
Lambda 750
750N8071901
PerkinElmer UV WinLab 6.0.4.0738 / 1.61.00 Lambda 900

0
0
3350/servo 860.8/2
0
0
UV/VIS
1
1
1
CommonBeamDepol,150mm sphere / downward view
0
0
0
0
Program
Program
3350/servo 860.8/2
3350/0.2 860.8/0.2
3350/0.2 860.8/0.2
0
1
 
 
 
0
 
860.8
319.2
860.8
Front
100
on
 
 
0
0
0
 
0
 
 
 
0
 
 
0
0
0
0
0
 
 
 
 
0
0


0
0
#HDR
-1
-1
#GR
nm
%T
1.0
0.0
2350.000000
-1.000000
2151
8
36.992435
0.087976
#DATA
2350.000000	6.671475
2349.000000	6.832968
2348.000000	6.689461
2347.000000	7.385030
2346.000000	6.980987
2345.000000	6.818410
2344.000000	7.006188
2343.000000	6.728182
2342.000000	6.636724
2341.000000	6.797122
2340.000000	7.083104
2339.000000	7.442637
2338.000000	7.439406
2337.000000	7.350788
2336.000000	7.744528
2335.000000	7.430785
2334.000000	7.475731
2333.000000	7.731794
2332.000000	7.747348
2331.000000	7.762489
2330.000000	7.788764
2329.000000	7.675372
2328.000000	7.803201
2327.000000	7.607744
2326.000000	7.500950
2325.000000	7.419115
2324.000000	7.594588
2323.000000	7.478962
2322.000000	7.575897
2321.000000	7.141541
2320.000000	6.896256
2319.000000	7.158524
2318.000000	7.085117
2317.000000	7.347001
2316.000000	7.172985
2315.000000	7.241223
2314.000000	6.945899
2313.000000	7.106416
2312.000000	7.227178
2311.000000	7.054600
2310.000000	7.037737
2309.000000	6.830690
2308.000000	6.777482
2307.000000	6.841179
2306.000000	6.775010
2305.000000	6.677640
2304.000000	6.599501
2303.000000	6.773664
2302.000000	6.793686
2301.000000	6.557273
2300.000000	6.319953
2299.000000	6.563479
2298.000000	6.500400
2297.000000	6.540114
2296.000000	6.513195
2295.000000	6.442915
2294.000000	6.268817
2293.000000	6.269831
2292.000000	6.118689
2291.000000	6.108111
2290.000000	6.251048
2289.000000	6.209234
2288.000000	6.283320
2287.000000	6.344986
2286.000000	6.142762
2285.000000	6.086511
2284.000000	6.014766
2283.000000	6.091391
2282.000000	5.971894
2281.000000	5.981736
2280.000000	6.052754
2279.000000	6.079813
2278.000000	6.201002
2277.000000	6.087788
2276.000000	6.034592
2275.000000	6.198405
2274.000000	6.369565
2273.000000	6.197001
2272.000000	6.044524
2271.000000	6.101260
2270.000000	6.229359
2269.000000	6.310241
2268.000000	6.325645
2267.000000	6.384914
2266.000000	6.470887
2265.000000	6.591573
2264.000000	6.548207
2263.000000	6.634513
2262.000000	6.916391
2261.000000	7.056228
2260.000000	6.999304
2259.000000	7.021860
2258.000000	7.121296
2257.000000	7.219700
2256.000000	7.292800
2255.000000	7.439486
2254.000000	7.524290
2253.000000	7.554947
2252.000000	7.624952
2251.000000	7.778312
2250.000000	7.940408
2249.000000	8.100666
2248.000000	8.164009
2247.000000	8.338789
2246.000000	8.490560
2245.000000	8.587617
2244.000000	8.614305
2243.000000	8.752534
2242.000000	8.961300
2241.000000	8.973202
2240.000000	9.028583
2239.000000	9.155761
2238.000000	9.174955
2237.000000	9.326166
2236.000000	9.487258
2235.000000	9.531390
2234.000000	9.545622
2233.000000	9.456860
2232.000000	9.481984
2231.000000	9.658550
2230.000000	9.641177
2229.000000	9.613229
2228.000000	9.644736
2227.000000	9.708253
2226.000000	9.660523
2225.000000	9.567799
2224.000000	9.644866
2223.000000	9.651811
2222.000000	9.702092
2221.000000	9.685788
2220.000000	9.666553
2219.000000	9.667319
2218.000000	9.629417
2217.000000	9.518791
2216.000000	9.351199
2215.000000	9.440598
2214.000000	9.515617
2213.000000	9.460303
2212.000000	9.416180
2211.000000	9.254621
2210.000000	9.172997
2209.000000	9.111912
2208.000000	9.086111
2207.000000	9.070120
2206.000000	9.160850
2205.000000	9.181307
2204.000000	8.989009
2203.000000	8.887520
2202.000000	8.893517
2201.000000	8.847639
2200.000000	8.804428
2199.000000	8.807017
2198.000000	8.779014
2197.000000	8.708846
2196.000000	8.516925
2195.000000	8.552682
2194.000000	8.484924
2193.000000	8.403042
2192.000000	8.481054
2191.000000	8.446390
2190.000000	8.329360
2189.000000	8.265742
2188.000000	8.284075
2187.000000	8.293584
2186.000000	8.148703
2185.000000	8.082577
2184.000000	8.059979
2183.000000	8.143959
2182.000000	8.088131
2181.000000	8.005763
2180.000000	7.939741
2179.000000	8.092140
2178.000000	8.093012
2177.000000	8.084979
2176.000000	7.990232
2175.000000	8.016043
2174.000000	8.043745
2173.000000	8.032815
2172.000000	8.048945
2171.000000	8.107205
2170.000000	8.042720
2169.000000	8.189155
2168.000000	8.409421
2167.000000	8.426102
2166.000000	8.305574
2165.000000	8.236604
2164.000000	8.310322
2163.000000	8.302943
2162.000000	8.453944
2161.000000	8.472916
2160.000000	8.708887
2159.000000	8.608476
2158.000000	8.739838
2157.000000	8.819171
2156.000000	8.937909
2155.000000	9.044055
2154.000000	8.977139
2153.000000	9.376096
2152.000000	9.245687
2151.000000	9.462452
2150.000000	9.463573
2149.000000	9.479300
2148.000000	9.655926
2147.000000	9.724544
2146.000000	9.834527
2145.000000	9.791455
2144.000000	9.982097
2143.000000	9.976039
2142.000000	10.171475
2141.000000	10.317264
2140.000000	10.315148
2139.000000	10.314507
2138.000000	10.507300
2137.000000	10.449352
2136.000000	10.428839
2135.000000	10.613462
2134.000000	10.815743
2133.000000	10.675687
2132.000000	10.746677
2131.000000	10.972204
2130.000000	10.928321
2129.000000	11.022341
2128.000000	11.001941
2127.000000	10.962041
2126.000000	10.928904
2125.000000	11.168765
2124.000000	11.285809
2123.000000	11.110204
2122.000000	11.225887
2121.000000	11.332482
2120.000000	11.346865
2119.000000	11.455610
2118.000000	11.452102
2117.000000	11.339431
2116.000000	11.504644
2115.000000	11.535423
2114.000000	11.527179
2113.000000	11.420861
2112.000000	11.500459
2111.000000	11.552008
2110.000000	11.305535
2109.000000	11.462660
2108.000000	11.546476
2107.000000	11.452734
2106.000000	11.574165
2105.000000	11.466694
2104.000000	11.505410
2103.000000	11.546828
2102.000000	11.581134
2101.000000	11.627921
2100.000000	11.615905
2099.000000	11.666657
2098.000000	11.568719
2097.000000	11.518570
2096.000000	11.588909
2095.000000	11.623395
2094.000000	11.644355
2093.000000	11.644065
2092.000000	11.622537
2091.000000	11.627442
2090.000000	11.609577
2089.000000	11.533852
2088.000000	11.499011
2087.000000	11.519549
2086.000000	11.488960
2085.000000	11.530893
2084.000000	11.345576
2083.000000	11.328280
2082.000000	11.340552
2081.000000	11.295151
2080.000000	11.257052
2079.000000	11.209389
2078.000000	11.169268
2077.000000	11.078618
2076.000000	10.979404
2075.000000	10.885713
2074.000000	10.876566
2073.000000	10.784898
2072.000000	10.688715
2071.000000	10.559905
2070.000000	10.543430
2069.000000	10.412991
2068.000000	10.297229
2067.000000	10.206522
2066.000000	10.072981
2065.000000	9.986584
2064.000000	9.962161
2063.000000	9.827557
2062.000000	9.772896
2061.000000	9.735910
2060.000000	9.664386
2059.000000	9.584149
2058.000000	9.408020
2057.000000	9.266996
2056.000000	9.227609
2055.000000	9.127382
2054.000000	9.003780
2053.000000	8.946158
2052.000000	8.859699
2051.000000	8.763901
2050.000000	8.668691
2049.000000	8.634462
2048.000000	8.622407
2047.000000	8.542196
2046.000000	8.459468
2045.000000	8.475780
2044.000000	8.487504
2043.000000	8.496620
2042.000000	8.555887
2041.000000	8.567239
2040.000000	8.573048
2039.000000	8.554009
2038.000000	8.521689
2037.000000	8.539347
2036.000000	8.584885
2035.000000	8.662172
2034.000000	8.721053
2033.000000	8.802434
2032.000000	8.883569
2031.000000	8.935395
2030.000000	9.023705
2029.000000	9.123723
2028.000000	9.158136
2027.000000	9.201545
2026.000000	9.300268
2025.000000	9.424103
2024.000000	9.491724
2023.000000	9.491417
2022.000000	9.487084
2021.000000	9.519473
2020.000000	9.584706
2019.000000	9.599978
2018.000000	9.623030
2017.000000	9.671303
2016.000000	9.691236
2015.000000	9.697996
2014.000000	9.690322
2013.000000	9.673265
2012.000000	9.631640
2011.000000	9.638803
2010.000000	9.654661
2009.000000	9.595895
2008.000000	9.544476
2007.000000	9.500085
2006.000000	9.430350
2005.000000	9.407152
2004.000000	9.312889
2003.000000	9.257500
2002.000000	9.212962
2001.000000	9.140300
2000.000000	9.111177
1999.000000	9.036338
1998.000000	8.949158
1997.000000	8.965045
1996.000000	8.948173
1995.000000	8.859686
1994.000000	8.778279
1993.000000	8.659437
1992.000000	8.634619
1991.000000	8.545584
1990.000000	8.477376
1989.000000	8.373556
1988.000000	8.337302
1987.000000	8.303401
1986.000000	8.209275
1985.000000	8.150976
1984.000000	8.118416
1983.000000	8.066493
1982.000000	8.002344
1981.000000	7.972739
1980.000000	7.897392
1979.000000	7.835523
1978.000000	7.794322
1977.000000	7.700837
1976.000000	7.638734
1975.000000	7.589151
1974.000000	7.537189
1973.000000	7.488841
1972.000000	7.457319
1971.000000	7.382059
1970.000000	7.377774
1969.000000	7.341664
1968.000000	7.277475
1967.000000	7.202113
1966.000000	7.129874
1965.000000	7.118943
1964.000000	7.057063
1963.000000	7.005621
1962.000000	6.979372
1961.000000	6.951201
1960.000000	6.937476
1959.000000	6.869591
1958.000000	6.845607
1957.000000	6.803532
1956.000000	6.771204
1955.000000	6.715591
1954.000000	6.694122
1953.000000	6.672748
1952.000000	6.647908
1951.000000	6.675147
1950.000000	6.630141
1949.000000	6.548554
1948.000000	6.546353
1947.000000	6.538254
1946.000000	6.542128
1945.000000	6.584767
1944.000000	6.517716
1943.000000	6.538262
1942.000000	6.528803
1941.000000	6.561444
1940.000000	6.629935
1939.000000	6.684664
1938.000000	6.728638
1937.000000	6.736831
1936.000000	6.864571
1935.000000	6.872645
1934.000000	6.960276
1933.000000	6.968146
1932.000000	7.030979
1931.000000	7.117459
1930.000000	7.229832
1929.000000	7.304283
1928.000000	7.423285
1927.000000	7.566418
1926.000000	7.669049
1925.000000	7.814399
1924.000000	7.926647
1923.000000	8.001133
1922.000000	8.114508
1921.000000	8.396134
1920.000000	8.641905
1919.000000	8.758069
1918.000000	8.932212
1917.000000	9.172914
1916.000000	9.310385
1915.000000	9.621165
1914.000000	9.842451
1913.000000	10.040289
1912.000000	10.286522
1911.000000	10.565001
1910.000000	10.727227
1909.000000	11.034895
1908.000000	11.353866
1907.000000	11.699167
1906.000000	11.986184
1905.000000	12.341146
1904.000000	12.645503
1903.000000	12.997357
1902.000000	13.387166
1901.000000	13.655091
1900.000000	14.066818
1899.000000	14.451094
1898.000000	14.878075
1897.000000	15.275272
1896.000000	15.620089
1895.000000	16.020919
1894.000000	16.402666
1893.000000	16.820760
1892.000000	17.224194
1891.000000	17.593774
1890.000000	17.982696
1889.000000	18.336638
1888.000000	18.684768
1887.000000	19.097128
1886.000000	19.419503
1885.000000	19.803939
1884.000000	20.102991
1883.000000	20.476831
1882.000000	20.815188
1881.000000	21.123837
1880.000000	21.418475
1879.000000	21.711153
1878.000000	21.965952
1877.000000	22.268893
1876.000000	22.509559
1875.000000	22.790905
1874.000000	22.970969
1873.000000	23.154780
1872.000000	23.416506
1871.000000	23.629988
1870.000000	23.755589
1869.000000	23.927971
1868.000000	24.043039
1867.000000	24.138621
1866.000000	24.247670
1865.000000	24.371243
1864.000000	24.433876
1863.000000	24.502096
1862.000000	24.591756
1861.000000	24.664439
1860.000000	24.724047
1859.000000	24.758981
1858.000000	24.805188
1857.000000	24.891499
1856.000000	24.881668
1855.000000	24.914447
1854.000000	24.959794
1853.000000	24.978001
1852.000000	24.969519
1851.000000	24.986675
1850.000000	25.016153
1849.000000	24.999646
1848.000000	25.000051
1847.000000	25.009812
1846.000000	24.966902
1845.000000	24.933668
1844.000000	24.936462
1843.000000	24.895751
1842.000000	24.896277
1841.000000	24.868878
1840.000000	24.809086
1839.000000	24.765180
1838.000000	24.752841
1837.000000	24.682490
1836.000000	24.602636
1835.000000	24.584311
1834.000000	24.518141
1833.000000	24.482946
1832.000000	24.442361
1831.000000	24.377918
1830.000000	24.351182
1829.000000	24.304086
1828.000000	24.263747
1827.000000	24.242437
1826.000000	24.164229
1825.000000	24.111329
1824.000000	24.102534
1823.000000	24.058338
1822.000000	24.013701
1821.000000	23.963895
1820.000000	23.932631
1819.000000	23.874122
1818.000000	23.822931
1817.000000	23.788768
1816.000000	23.747703
1815.000000	23.721050
1814.000000	23.680934
1813.000000	23.645074
1812.000000	23.601676
1811.000000	23.555616
1810.000000	23.535817
1809.000000	23.513042
1808.000000	23.476231
1807.000000	23.442642
1806.000000	23.398777
1805.000000	23.369560
1804.000000	23.341209
1803.000000	23.301239
1802.000000	23.264308
1801.000000	23.243299
1800.000000	23.221084
1799.000000	23.181412
1798.000000	23.151425
1797.000000	23.139485
1796.000000	23.103641
1795.000000	23.081573
1794.000000	23.090620
1793.000000	23.065730
1792.000000	23.039185
1791.000000	23.025760
1790.000000	23.005584
1789.000000	22.985285
1788.000000	22.959934
1787.000000	22.925089
1786.000000	22.902806
1785.000000	22.887995
1784.000000	22.851320
1783.000000	22.842144
1782.000000	22.802632
1781.000000	22.757655
1780.000000	22.723578
1779.000000	22.675274
1778.000000	22.647243
1777.000000	22.601950
1776.000000	22.543150
1775.000000	22.488660
1774.000000	22.406341
1773.000000	22.363235
1772.000000	22.305354
1771.000000	22.251532
1770.000000	22.195397
1769.000000	22.129303
1768.000000	22.069117
1767.000000	22.003489
1766.000000	21.940648
1765.000000	21.890571
1764.000000	21.827756
1763.000000	21.774524
1762.000000	21.709959
1761.000000	21.654770
1760.000000	21.587281
1759.000000	21.547159
1758.000000	21.509021
1757.000000	21.432647
1756.000000	21.396365
1755.000000	21.356401
1754.000000	21.263245
1753.000000	21.222087
1752.000000	21.156318
1751.000000	21.101690
1750.000000	21.054340
1749.000000	20.995970
1748.000000	20.927987
1747.000000	20.865021
1746.000000	20.813461
1745.000000	20.750570
1744.000000	20.693414
1743.000000	20.631844
1742.000000	20.545667
1741.000000	20.507289
1740.000000	20.440457
1739.000000	20.389976
1738.000000	20.330827
1737.000000	20.283017
1736.000000	20.263491
1735.000000	20.233519
1734.000000	20.215585
1733.000000	20.183193
1732.000000	20.164862
1731.000000	20.195463
1730.000000	20.223000
1729.000000	20.222334
1728.000000	20.245207
1727.000000	20.271155
1726.000000	20.323217
1725.000000	20.391181
1724.000000	20.453822
1723.000000	20.522494
1722.000000	20.614507
1721.000000	20.695705
1720.000000	20.795515
1719.000000	20.888970
1718.000000	20.970767
1717.000000	21.044837
1716.000000	21.120430
1715.000000	21.206885
1714.000000	21.302854
1713.000000	21.384421
1712.000000	21.463945
1711.000000	21.535317
1710.000000	21.575517
1709.000000	21.635453
1708.000000	21.664875
1707.000000	21.735682
1706.000000	21.767275
1705.000000	21.791793
1704.000000	21.846888
1703.000000	21.891077
1702.000000	21.877124
1701.000000	21.901228
1700.000000	21.926735
1699.000000	21.935666
1698.000000	21.986501
1697.000000	22.009240
1696.000000	22.056532
1695.000000	22.076559
1694.000000	22.101162
1693.000000	22.197244
1692.000000	22.252707
1691.000000	22.289471
1690.000000	22.380831
1689.000000	22.474397
1688.000000	22.590404
1687.000000	22.704550
1686.000000	22.825517
1685.000000	22.928243
1684.000000	23.105306
1683.000000	23.250784
1682.000000	23.403407
1681.000000	23.571248
1680.000000	23.730973
1679.000000	23.911195
1678.000000	24.094353
1677.000000	24.262201
1676.000000	24.469449
1675.000000	24.644780
1674.000000	24.818836
1673.000000	25.007403
1672.000000	25.151343
1671.000000	25.347587
1670.000000	25.512293
1669.000000	25.715022
1668.000000	25.849956
1667.000000	25.979170
1666.000000	26.067695
1665.000000	26.182202
1664.000000	26.297765
1663.000000	26.393284
1662.000000	26.485232
1661.000000	26.562153
1660.000000	26.612982
1659.000000	26.685014
1658.000000	26.737619
1657.000000	26.794035
1656.000000	26.820738
1655.000000	26.856223
1654.000000	26.875899
1653.000000	26.911649
1652.000000	26.919883
1651.000000	26.933540
1650.000000	26.912340
1649.000000	26.941288
1648.000000	26.921735
1647.000000	26.932419
1646.000000	26.910497
1645.000000	26.881075
1644.000000	26.866404
1643.000000	26.824327
1642.000000	26.797240
1641.000000	26.750852
1640.000000	26.720068
1639.000000	26.706499
1638.000000	26.672737
1637.000000	26.651834
1636.000000	26.598291
1635.000000	26.546040
1634.000000	26.504385
1633.000000	26.461846
1632.000000	26.426404
1631.000000	26.379409
1630.000000	26.325974
1629.000000	26.273576
1628.000000	26.218614
1627.000000	26.168887
1626.000000	26.123722
1625.000000	26.082305
1624.000000	26.014752
1623.000000	25.968609
1622.000000	25.916358
1621.000000	25.861698
1620.000000	25.803792
1619.000000	25.741584
1618.000000	25.676607
1617.000000	25.615771
1616.000000	25.566108
1615.000000	25.512378
1614.000000	25.451151
1613.000000	25.387642
1612.000000	25.328407
1611.000000	25.265658
1610.000000	25.189096
1609.000000	25.126539
1608.000000	25.071475
1607.000000	25.006109
1606.000000	24.936974
1605.000000	24.866941
1604.000000	24.784813
1603.000000	24.719673
1602.000000	24.663251
1601.000000	24.592942
1600.000000	24.519970
1599.000000	24.460510
1598.000000	24.405261
1597.000000	24.335170
1596.000000	24.277829
1595.000000	24.218807
1594.000000	24.153753
1593.000000	24.100304
1592.000000	24.040197
1591.000000	23.974049
1590.000000	23.910284
1589.000000	23.854996
1588.000000	23.808123
1587.000000	23.755091
1586.000000	23.695820
1585.000000	23.643990
1584.000000	23.600193
1583.000000	23.555636
1582.000000	23.502671
1581.000000	23.452941
1580.000000	23.399479
1579.000000	23.344000
1578.000000	23.307781
1577.000000	23.259070
1576.000000	23.207552
1575.000000	23.157793
1574.000000	23.104563
1573.000000	23.058940
1572.000000	23.010353
1571.000000	22.945843
1570.000000	22.915391
1569.000000	22.884406
1568.000000	22.834345
1567.000000	22.779022
1566.000000	22.738678
1565.000000	22.709785
1564.000000	22.676443
1563.000000	22.643491
1562.000000	22.615726
1561.000000	22.580269
1560.000000	22.546394
1559.000000	22.495015
1558.000000	22.475035
1557.000000	22.462872
1556.000000	22.429025
1555.000000	22.390043
1554.000000	22.367961
1553.000000	22.332949
1552.000000	22.287589
1551.000000	22.261339
1550.000000	22.216727
1549.000000	22.165027
1548.000000	22.139042
1547.000000	22.073805
1546.000000	22.000933
1545.000000	21.931569
1544.000000	21.869957
1543.000000	21.806333
1542.000000	21.731214
1541.000000	21.641560
1540.000000	21.556925
1539.000000	21.472321
1538.000000	21.393322
1537.000000	21.306917
1536.000000	21.211231
1535.000000	21.125145
1534.000000	21.035920
1533.000000	20.957342
1532.000000	20.878979
1531.000000	20.800641
1530.000000	20.738556
1529.000000	20.710532
1528.000000	20.672972
1527.000000	20.624590
1526.000000	20.535724
1525.000000	20.438088
1524.000000	20.355907
1523.000000	20.298364
1522.000000	20.236012
1521.000000	20.213269
1520.000000	20.199351
1519.000000	20.124778
1518.000000	20.060242
1517.000000	20.003000
1516.000000	19.942780
1515.000000	19.918702
1514.000000	19.912739
1513.000000	19.869965
1512.000000	19.832143
1511.000000	19.788191
1510.000000	19.780013
1509.000000	19.773428
1508.000000	19.746868
1507.000000	19.717505
1506.000000	19.678120
1505.000000	19.651626
1504.000000	19.630639
1503.000000	19.610943
1502.000000	19.594155
1501.000000	19.595162
1500.000000	19.585898
1499.000000	19.595276
1498.000000	19.637987
1497.000000	19.618455
1496.000000	19.622501
1495.000000	19.636936
1494.000000	19.622998
1493.000000	19.639689
1492.000000	19.656813
1491.000000	19.702765
1490.000000	19.732052
1489.000000	19.747733
1488.000000	19.785869
1487.000000	19.839247
1486.000000	19.836945
1485.000000	19.867690
1484.000000	19.935987
1483.000000	19.979317
1482.000000	20.022363
1481.000000	20.068587
1480.000000	20.135038
1479.000000	20.189112
1478.000000	20.243933
1477.000000	20.303897
1476.000000	20.343699
1475.000000	20.399675
1474.000000	20.442048
1473.000000	20.471450
1472.000000	20.518708
1471.000000	20.574558
1470.000000	20.593376
1469.000000	20.637124
1468.000000	20.726158
1467.000000	20.761806
1466.000000	20.786219
1465.000000	20.817658
1464.000000	20.859779
1463.000000	20.922521
1462.000000	20.957710
1461.000000	20.988573
1460.000000	21.027247
1459.000000	21.059764
1458.000000	21.126572
1457.000000	21.199861
1456.000000	21.237849
1455.000000	21.265457
1454.000000	21.301042
1453.000000	21.392976
