PE UV       SUBTECH     SPECTRUM    ASCII       PEDS        4.00        
   -1
TTgChevreUK 32.Sample.asc
18/03/06
17:47:38.00
18/03/06
17:47:38.00
Administrator

200.000000
1
Lambda 750
750N8071901
PerkinElmer UV WinLab 6.0.4.0738 / 1.61.00 Lambda 900

0
0
3350/servo 860.8/2
0
0
UV/VIS
1
1
1
CommonBeamDepol,150mm sphere / downward view
0
0
0
0
Program
Program
3350/servo 860.8/2
3350/0.2 860.8/0.2
3350/0.2 860.8/0.2
0
1
 
 
 
0
 
860.8
319.2
860.8
Front
100
on
 
 
0
0
0
 
0
 
 
 
0
 
 
0
0
0
0
0
 
 
 
 
0
0


0
0
#HDR
-1
-1
#GR
nm
%T
1.0
0.0
2350.000000
-1.000000
2151
8
39.317787
0.110887
#DATA
2350.000000	7.741543
2349.000000	7.597584
2348.000000	7.372497
2347.000000	8.182293
2346.000000	7.878627
2345.000000	7.498378
2344.000000	7.345507
2343.000000	7.954414
2342.000000	7.494720
2341.000000	7.903572
2340.000000	7.946760
2339.000000	8.238919
2338.000000	8.482940
2337.000000	8.193308
2336.000000	8.437463
2335.000000	8.800238
2334.000000	8.648474
2333.000000	8.718647
2332.000000	8.656274
2331.000000	8.665963
2330.000000	8.852912
2329.000000	8.456273
2328.000000	8.468216
2327.000000	8.249109
2326.000000	8.471845
2325.000000	8.373771
2324.000000	8.437946
2323.000000	8.267418
2322.000000	8.370615
2321.000000	8.468132
2320.000000	8.146093
2319.000000	8.061893
2318.000000	8.307723
2317.000000	8.186601
2316.000000	8.111617
2315.000000	7.848315
2314.000000	7.868717
2313.000000	7.930719
2312.000000	7.579903
2311.000000	7.678925
2310.000000	7.846012
2309.000000	7.849676
2308.000000	7.672922
2307.000000	7.439764
2306.000000	7.513200
2305.000000	7.511535
2304.000000	7.593907
2303.000000	7.373048
2302.000000	7.437661
2301.000000	7.219765
2300.000000	7.289940
2299.000000	7.133520
2298.000000	7.058472
2297.000000	7.032968
2296.000000	7.114133
2295.000000	6.957035
2294.000000	7.109270
2293.000000	7.148304
2292.000000	7.058766
2291.000000	6.891834
2290.000000	6.924165
2289.000000	6.873318
2288.000000	6.850614
2287.000000	6.875718
2286.000000	6.911580
2285.000000	6.904561
2284.000000	6.920135
2283.000000	6.850033
2282.000000	6.860942
2281.000000	6.741506
2280.000000	6.700790
2279.000000	6.713351
2278.000000	6.763028
2277.000000	6.826513
2276.000000	6.961839
2275.000000	7.026955
2274.000000	7.041116
2273.000000	7.133405
2272.000000	7.071438
2271.000000	6.988712
2270.000000	7.049703
2269.000000	7.038755
2268.000000	7.114691
2267.000000	7.196924
2266.000000	7.247916
2265.000000	7.292065
2264.000000	7.543103
2263.000000	7.523635
2262.000000	7.472029
2261.000000	7.573966
2260.000000	7.667636
2259.000000	7.753702
2258.000000	7.964424
2257.000000	8.190013
2256.000000	8.207635
2255.000000	8.260322
2254.000000	8.367546
2253.000000	8.503563
2252.000000	8.703963
2251.000000	8.812845
2250.000000	8.834187
2249.000000	9.027622
2248.000000	9.270218
2247.000000	9.352795
2246.000000	9.363241
2245.000000	9.480809
2244.000000	9.785967
2243.000000	10.027133
2242.000000	10.099614
2241.000000	10.089562
2240.000000	10.116875
2239.000000	10.211844
2238.000000	10.260104
2237.000000	10.336952
2236.000000	10.463601
2235.000000	10.611147
2234.000000	10.545361
2233.000000	10.550591
2232.000000	10.647588
2231.000000	10.667032
2230.000000	10.644406
2229.000000	10.779005
2228.000000	10.970395
2227.000000	10.955043
2226.000000	10.888197
2225.000000	10.816856
2224.000000	10.755198
2223.000000	10.797205
2222.000000	10.796646
2221.000000	10.773559
2220.000000	10.697574
2219.000000	10.637382
2218.000000	10.584489
2217.000000	10.670941
2216.000000	10.744109
2215.000000	10.648697
2214.000000	10.497652
2213.000000	10.512864
2212.000000	10.430569
2211.000000	10.354778
2210.000000	10.269856
2209.000000	10.274286
2208.000000	10.248443
2207.000000	10.307341
2206.000000	10.235117
2205.000000	10.257819
2204.000000	10.073629
2203.000000	9.892482
2202.000000	9.985703
2201.000000	9.868302
2200.000000	9.732909
2199.000000	9.886769
2198.000000	9.806518
2197.000000	9.755400
2196.000000	9.714493
2195.000000	9.702140
2194.000000	9.510351
2193.000000	9.332849
2192.000000	9.358163
2191.000000	9.344703
2190.000000	9.353422
2189.000000	9.315976
2188.000000	9.286670
2187.000000	9.189558
2186.000000	9.000973
2185.000000	9.116604
2184.000000	9.147979
2183.000000	9.103623
2182.000000	9.133627
2181.000000	9.067385
2180.000000	9.051899
2179.000000	8.913231
2178.000000	8.857978
2177.000000	8.968046
2176.000000	8.999329
2175.000000	9.064670
2174.000000	8.916199
2173.000000	8.975515
2172.000000	8.979671
2171.000000	8.970903
2170.000000	9.157730
2169.000000	9.114275
2168.000000	9.210890
2167.000000	9.287928
2166.000000	9.228404
2165.000000	9.300690
2164.000000	9.478218
2163.000000	9.398305
2162.000000	9.546825
2161.000000	9.558516
2160.000000	9.623132
2159.000000	9.757791
2158.000000	9.839951
2157.000000	9.839790
2156.000000	10.007465
2155.000000	9.996611
2154.000000	10.220389
2153.000000	10.492103
2152.000000	10.459384
2151.000000	10.384477
2150.000000	10.672779
2149.000000	10.699842
2148.000000	10.696006
2147.000000	10.744984
2146.000000	10.942913
2145.000000	11.138411
2144.000000	10.948457
2143.000000	11.213069
2142.000000	11.337142
2141.000000	11.277868
2140.000000	11.411163
2139.000000	11.468881
2138.000000	11.650086
2137.000000	11.746978
2136.000000	11.849464
2135.000000	11.863341
2134.000000	12.056671
2133.000000	11.829431
2132.000000	12.071349
2131.000000	12.369448
2130.000000	12.344995
2129.000000	12.156721
2128.000000	12.233102
2127.000000	12.301561
2126.000000	12.313833
2125.000000	12.468042
2124.000000	12.485337
2123.000000	12.337166
2122.000000	12.573110
2121.000000	12.689475
2120.000000	12.631190
2119.000000	12.782003
2118.000000	12.795834
2117.000000	12.811607
2116.000000	12.771706
2115.000000	12.823864
2114.000000	12.762738
2113.000000	12.754305
2112.000000	12.804983
2111.000000	12.769943
2110.000000	12.790335
2109.000000	12.898169
2108.000000	12.840221
2107.000000	12.889187
2106.000000	12.942065
2105.000000	12.975858
2104.000000	12.973980
2103.000000	12.909810
2102.000000	12.940443
2101.000000	13.051291
2100.000000	12.953176
2099.000000	13.016949
2098.000000	12.957559
2097.000000	12.989075
2096.000000	12.950958
2095.000000	12.922798
2094.000000	12.976818
2093.000000	12.938501
2092.000000	12.981085
2091.000000	12.918931
2090.000000	12.833296
2089.000000	12.900105
2088.000000	12.854075
2087.000000	12.790228
2086.000000	12.850429
2085.000000	12.828221
2084.000000	12.699800
2083.000000	12.673797
2082.000000	12.590839
2081.000000	12.540477
2080.000000	12.505277
2079.000000	12.458774
2078.000000	12.465049
2077.000000	12.435109
2076.000000	12.270433
2075.000000	12.134995
2074.000000	12.170537
2073.000000	12.095383
2072.000000	11.903328
2071.000000	11.851853
2070.000000	11.754738
2069.000000	11.676805
2068.000000	11.577164
2067.000000	11.422851
2066.000000	11.282156
2065.000000	11.133212
2064.000000	11.132982
2063.000000	11.099449
2062.000000	10.951159
2061.000000	10.749195
2060.000000	10.745222
2059.000000	10.676704
2058.000000	10.528887
2057.000000	10.480031
2056.000000	10.392679
2055.000000	10.294360
2054.000000	10.139682
2053.000000	9.999069
2052.000000	9.924575
2051.000000	9.840658
2050.000000	9.751683
2049.000000	9.707583
2048.000000	9.638618
2047.000000	9.662813
2046.000000	9.628462
2045.000000	9.574101
2044.000000	9.573621
2043.000000	9.538762
2042.000000	9.529893
2041.000000	9.548871
2040.000000	9.582416
2039.000000	9.585789
2038.000000	9.577264
2037.000000	9.626169
2036.000000	9.661387
2035.000000	9.755638
2034.000000	9.844824
2033.000000	9.870814
2032.000000	9.952493
2031.000000	10.022144
2030.000000	10.104965
2029.000000	10.232834
2028.000000	10.328368
2027.000000	10.400509
2026.000000	10.496942
2025.000000	10.578369
2024.000000	10.626799
2023.000000	10.654327
2022.000000	10.719639
2021.000000	10.784759
2020.000000	10.792880
2019.000000	10.795349
2018.000000	10.858613
2017.000000	10.877897
2016.000000	10.886911
2015.000000	10.891313
2014.000000	10.894812
2013.000000	10.866146
2012.000000	10.837343
2011.000000	10.850498
2010.000000	10.860289
2009.000000	10.809174
2008.000000	10.720306
2007.000000	10.663286
2006.000000	10.616093
2005.000000	10.591326
2004.000000	10.506995
2003.000000	10.434045
2002.000000	10.397721
2001.000000	10.356280
2000.000000	10.266467
1999.000000	10.213671
1998.000000	10.156494
1997.000000	10.074918
1996.000000	9.998995
1995.000000	9.952928
1994.000000	9.883139
1993.000000	9.809054
1992.000000	9.714352
1991.000000	9.622173
1990.000000	9.577096
1989.000000	9.510226
1988.000000	9.458799
1987.000000	9.384942
1986.000000	9.308184
1985.000000	9.205334
1984.000000	9.171486
1983.000000	9.130095
1982.000000	9.077108
1981.000000	8.994919
1980.000000	8.919653
1979.000000	8.859416
1978.000000	8.803116
1977.000000	8.735374
1976.000000	8.655843
1975.000000	8.592622
1974.000000	8.523712
1973.000000	8.493866
1972.000000	8.442756
1971.000000	8.381147
1970.000000	8.314178
1969.000000	8.227519
1968.000000	8.182576
1967.000000	8.173979
1966.000000	8.150459
1965.000000	8.063240
1964.000000	7.964347
1963.000000	7.885616
1962.000000	7.883598
1961.000000	7.800885
1960.000000	7.765240
1959.000000	7.748090
1958.000000	7.715396
1957.000000	7.666023
1956.000000	7.591753
1955.000000	7.570862
1954.000000	7.576047
1953.000000	7.529611
1952.000000	7.480052
1951.000000	7.498373
1950.000000	7.479014
1949.000000	7.396492
1948.000000	7.400411
1947.000000	7.409365
1946.000000	7.395599
1945.000000	7.396960
1944.000000	7.441665
1943.000000	7.404569
1942.000000	7.463983
1941.000000	7.403081
1940.000000	7.489867
1939.000000	7.519486
1938.000000	7.643607
1937.000000	7.696253
1936.000000	7.711938
1935.000000	7.728429
1934.000000	7.817019
1933.000000	7.903965
1932.000000	8.009911
1931.000000	7.991920
1930.000000	8.230461
1929.000000	8.278943
1928.000000	8.403667
1927.000000	8.573997
1926.000000	8.688659
1925.000000	8.881008
1924.000000	8.940969
1923.000000	9.085012
1922.000000	9.279780
1921.000000	9.518697
1920.000000	9.737401
1919.000000	9.915110
1918.000000	10.078502
1917.000000	10.289520
1916.000000	10.446430
1915.000000	10.769418
1914.000000	10.934606
1913.000000	11.223335
1912.000000	11.571072
1911.000000	11.746779
1910.000000	12.107651
1909.000000	12.337537
1908.000000	12.709118
1907.000000	13.038495
1906.000000	13.325356
1905.000000	13.742592
1904.000000	14.119092
1903.000000	14.442453
1902.000000	14.817508
1901.000000	15.219361
1900.000000	15.650368
1899.000000	16.087549
1898.000000	16.478164
1897.000000	16.864606
1896.000000	17.283115
1895.000000	17.670625
1894.000000	18.043105
1893.000000	18.425842
1892.000000	18.911483
1891.000000	19.266421
1890.000000	19.701358
1889.000000	20.063195
1888.000000	20.421475
1887.000000	20.836639
1886.000000	21.195308
1885.000000	21.548052
1884.000000	21.874668
1883.000000	22.216869
1882.000000	22.550672
1881.000000	22.873340
1880.000000	23.231666
1879.000000	23.535013
1878.000000	23.781142
1877.000000	24.030144
1876.000000	24.261799
1875.000000	24.589207
1874.000000	24.814044
1873.000000	25.011930
1872.000000	25.225592
1871.000000	25.422721
1870.000000	25.597847
1869.000000	25.743344
1868.000000	25.886142
1867.000000	26.012252
1866.000000	26.092052
1865.000000	26.186129
1864.000000	26.266978
1863.000000	26.375761
1862.000000	26.446314
1861.000000	26.509215
1860.000000	26.594631
1859.000000	26.607710
1858.000000	26.664192
1857.000000	26.743825
1856.000000	26.742529
1855.000000	26.769418
1854.000000	26.814118
1853.000000	26.819876
1852.000000	26.817311
1851.000000	26.857348
1850.000000	26.847829
1849.000000	26.851831
1848.000000	26.874359
1847.000000	26.864118
1846.000000	26.843872
1845.000000	26.817859
1844.000000	26.791834
1843.000000	26.747223
1842.000000	26.717855
1841.000000	26.701248
1840.000000	26.659753
1839.000000	26.637069
1838.000000	26.608545
1837.000000	26.551128
1836.000000	26.466360
1835.000000	26.406705
1834.000000	26.365652
1833.000000	26.335878
1832.000000	26.279408
1831.000000	26.212686
1830.000000	26.188661
1829.000000	26.149360
1828.000000	26.097140
1827.000000	26.049304
1826.000000	26.008940
1825.000000	25.968368
1824.000000	25.952017
1823.000000	25.894611
1822.000000	25.846842
1821.000000	25.798138
1820.000000	25.758890
1819.000000	25.709813
1818.000000	25.653274
1817.000000	25.613776
1816.000000	25.564757
1815.000000	25.541801
1814.000000	25.503122
1813.000000	25.467256
1812.000000	25.457084
1811.000000	25.417388
1810.000000	25.373422
1809.000000	25.350290
1808.000000	25.320280
1807.000000	25.280913
1806.000000	25.238644
1805.000000	25.198660
1804.000000	25.150781
1803.000000	25.113291
1802.000000	25.094428
1801.000000	25.064315
1800.000000	25.021022
1799.000000	24.995131
1798.000000	24.977506
1797.000000	24.945022
1796.000000	24.919305
1795.000000	24.894436
1794.000000	24.879441
1793.000000	24.847206
1792.000000	24.817409
1791.000000	24.803248
1790.000000	24.795836
1789.000000	24.768010
1788.000000	24.749585
1787.000000	24.729924
1786.000000	24.704447
1785.000000	24.677864
1784.000000	24.635095
1783.000000	24.595001
1782.000000	24.563450
1781.000000	24.542277
1780.000000	24.522715
1779.000000	24.484607
1778.000000	24.428303
1777.000000	24.383372
1776.000000	24.318759
1775.000000	24.252051
1774.000000	24.179712
1773.000000	24.139635
1772.000000	24.083528
1771.000000	24.021813
1770.000000	23.954873
1769.000000	23.896229
1768.000000	23.825906
1767.000000	23.773810
1766.000000	23.715612
1765.000000	23.639804
1764.000000	23.608637
1763.000000	23.538819
1762.000000	23.470703
1761.000000	23.414100
1760.000000	23.338775
1759.000000	23.295544
1758.000000	23.241230
1757.000000	23.191122
1756.000000	23.140882
1755.000000	23.098117
1754.000000	23.016795
1753.000000	22.964549
1752.000000	22.897611
1751.000000	22.857975
1750.000000	22.801192
1749.000000	22.722971
1748.000000	22.649982
1747.000000	22.601963
1746.000000	22.545227
1745.000000	22.454685
1744.000000	22.394116
1743.000000	22.341354
1742.000000	22.264841
1741.000000	22.192198
1740.000000	22.152049
1739.000000	22.098127
1738.000000	22.060430
1737.000000	22.012013
1736.000000	21.991493
1735.000000	21.960818
1734.000000	21.911554
1733.000000	21.891054
1732.000000	21.899938
1731.000000	21.883465
1730.000000	21.871854
1729.000000	21.903437
1728.000000	21.955812
1727.000000	21.995172
1726.000000	22.059304
1725.000000	22.109587
1724.000000	22.141986
1723.000000	22.251601
1722.000000	22.334115
1721.000000	22.435172
1720.000000	22.516553
1719.000000	22.601572
1718.000000	22.673778
1717.000000	22.764118
1716.000000	22.863754
1715.000000	22.928196
1714.000000	23.019982
1713.000000	23.114136
1712.000000	23.181937
1711.000000	23.271184
1710.000000	23.293667
1709.000000	23.405125
1708.000000	23.445894
1707.000000	23.475178
1706.000000	23.522563
1705.000000	23.561639
1704.000000	23.596250
1703.000000	23.633387
1702.000000	23.650188
1701.000000	23.663491
1700.000000	23.694013
1699.000000	23.686004
1698.000000	23.724185
1697.000000	23.758549
1696.000000	23.817398
1695.000000	23.851809
1694.000000	23.884040
1693.000000	23.943913
1692.000000	23.994894
1691.000000	24.089457
1690.000000	24.161047
1689.000000	24.251083
1688.000000	24.367849
1687.000000	24.469754
1686.000000	24.599860
1685.000000	24.739582
1684.000000	24.878268
1683.000000	25.027683
1682.000000	25.197840
1681.000000	25.353982
1680.000000	25.555207
1679.000000	25.728254
1678.000000	25.894996
1677.000000	26.092015
1676.000000	26.291437
1675.000000	26.470657
1674.000000	26.646147
1673.000000	26.841181
1672.000000	26.997273
1671.000000	27.167605
1670.000000	27.336440
1669.000000	27.522955
1668.000000	27.665304
1667.000000	27.826220
1666.000000	27.911367
1665.000000	28.023932
1664.000000	28.129736
1663.000000	28.224466
1662.000000	28.314419
1661.000000	28.393187
1660.000000	28.472859
1659.000000	28.558695
1658.000000	28.615513
1657.000000	28.663884
1656.000000	28.694142
1655.000000	28.725698
1654.000000	28.764648
1653.000000	28.775574
1652.000000	28.796504
1651.000000	28.799323
1650.000000	28.811268
1649.000000	28.810406
1648.000000	28.791142
1647.000000	28.795394
1646.000000	28.768980
1645.000000	28.749729
1644.000000	28.753729
1643.000000	28.712505
1642.000000	28.681825
1641.000000	28.642594
1640.000000	28.613015
1639.000000	28.578165
1638.000000	28.555422
1637.000000	28.520783
1636.000000	28.458617
1635.000000	28.406124
1634.000000	28.372890
1633.000000	28.332247
1632.000000	28.286531
1631.000000	28.250635
1630.000000	28.203235
1629.000000	28.158861
1628.000000	28.096587
1627.000000	28.046691
1626.000000	27.988014
1625.000000	27.946725
1624.000000	27.893677
1623.000000	27.842495
1622.000000	27.792114
1621.000000	27.734651
1620.000000	27.684217
1619.000000	27.622367
1618.000000	27.568573
1617.000000	27.503234
1616.000000	27.435033
1615.000000	27.380864
1614.000000	27.319545
1613.000000	27.259091
1612.000000	27.198602
1611.000000	27.137586
1610.000000	27.070977
1609.000000	27.005159
1608.000000	26.933262
1607.000000	26.865136
1606.000000	26.794903
1605.000000	26.722516
1604.000000	26.648857
1603.000000	26.595009
1602.000000	26.530267
1601.000000	26.453794
1600.000000	26.388072
1599.000000	26.322183
1598.000000	26.254501
1597.000000	26.186962
1596.000000	26.122239
1595.000000	26.065282
1594.000000	26.003466
1593.000000	25.951310
1592.000000	25.898966
1591.000000	25.829837
1590.000000	25.768678
1589.000000	25.705620
1588.000000	25.647787
1587.000000	25.597556
1586.000000	25.545272
1585.000000	25.499633
1584.000000	25.446389
1583.000000	25.402049
1582.000000	25.348931
1581.000000	25.290908
1580.000000	25.240899
1579.000000	25.192032
1578.000000	25.146833
1577.000000	25.093298
1576.000000	25.037134
1575.000000	24.990291
1574.000000	24.946569
1573.000000	24.890281
1572.000000	24.843269
1571.000000	24.789188
1570.000000	24.732542
1569.000000	24.699416
1568.000000	24.672000
1567.000000	24.617254
1566.000000	24.584738
1565.000000	24.556535
1564.000000	24.520101
1563.000000	24.476658
1562.000000	24.432721
1561.000000	24.397323
1560.000000	24.373269
1559.000000	24.339484
1558.000000	24.314774
1557.000000	24.278879
1556.000000	24.245244
1555.000000	24.212601
1554.000000	24.187442
1553.000000	24.161312
1552.000000	24.123530
1551.000000	24.089376
1550.000000	24.046245
1549.000000	24.005347
1548.000000	23.970363
1547.000000	23.897891
1546.000000	23.838973
1545.000000	23.780819
1544.000000	23.689962
1543.000000	23.623958
1542.000000	23.553528
1541.000000	23.464154
1540.000000	23.377185
1539.000000	23.309200
1538.000000	23.217071
1537.000000	23.121662
1536.000000	23.034116
1535.000000	22.954883
1534.000000	22.869308
1533.000000	22.768146
1532.000000	22.671847
1531.000000	22.592233
1530.000000	22.527124
1529.000000	22.474193
1528.000000	22.447573
1527.000000	22.420583
1526.000000	22.368636
1525.000000	22.268032
1524.000000	22.168883
1523.000000	22.079449
1522.000000	22.035894
1521.000000	21.996933
1520.000000	21.929635
1519.000000	21.869568
1518.000000	21.834774
1517.000000	21.802586
1516.000000	21.763158
1515.000000	21.720333
1514.000000	21.676599
1513.000000	21.654276
1512.000000	21.606297
1511.000000	21.569106
1510.000000	21.538614
1509.000000	21.531902
1508.000000	21.512142
1507.000000	21.469721
1506.000000	21.444691
1505.000000	21.414375
1504.000000	21.405395
1503.000000	21.370557
1502.000000	21.358998
1501.000000	21.347050
1500.000000	21.345392
1499.000000	21.327102
1498.000000	21.339610
1497.000000	21.351072
1496.000000	21.357180
1495.000000	21.379192
1494.000000	21.389652
1493.000000	21.393725
1492.000000	21.420264
1491.000000	21.454097
1490.000000	21.493312
1489.000000	21.513421
1488.000000	21.548006
1487.000000	21.588424
1486.000000	21.641151
1485.000000	21.673401
1484.000000	21.740474
1483.000000	21.793602
1482.000000	21.821447
1481.000000	21.875832
1480.000000	21.924748
1479.000000	21.986234
1478.000000	22.038388
1477.000000	22.103289
1476.000000	22.171082
1475.000000	22.195267
1474.000000	22.246542
1473.000000	22.295652
1472.000000	22.332199
1471.000000	22.363544
1470.000000	22.400220
1469.000000	22.448727
1468.000000	22.493090
1467.000000	22.571733
1466.000000	22.634853
1465.000000	22.646210
1464.000000	22.685291
1463.000000	22.722941
1462.000000	22.763859
1461.000000	22.832060
1460.000000	22.871033
1459.000000	22.893487
1458.000000	22.945121
