PE UV       SUBTECH     SPECTRUM    ASCII       PEDS        4.00        
   -1
Empty Chamber.Sample.asc
18/03/15
17:41:22.00
18/03/15
17:41:22.00
Administrator

200.000000
1
Lambda 750
750N8071901
PerkinElmer UV WinLab 6.0.4.0738 / 1.61.00 Lambda 900

0
0
3350/servo 860.8/2
0
0
UV/VIS
1
1
1
CommonBeamDepol,150mm sphere / downward view
0
0
0
0
Program
Program
3350/servo 860.8/2
3350/0.2 860.8/0.2
3350/0.2 860.8/0.2
0
1
 
 
 
0
 
860.8
319.2
860.8
Front
100
on
 
 
0
0
0
 
0
 
 
 
0
 
 
0
0
0
0
0
 
 
 
 
0
0


0
0
#HDR
-1
-1
#GR
nm
%T
1.0
0.0
2350.000000
-1.000000
2151
8
100.681004
99.081052
#DATA
2350.000000	99.785739
2349.000000	99.737097
2348.000000	99.559145
2347.000000	99.771795
2346.000000	100.042809
2345.000000	99.621800
2344.000000	99.268831
2343.000000	100.016740
2342.000000	100.168366
2341.000000	99.845489
2340.000000	100.144448
2339.000000	99.870862
2338.000000	99.736246
2337.000000	99.754611
2336.000000	100.042075
2335.000000	99.692263
2334.000000	99.681329
2333.000000	100.053639
2332.000000	99.447008
2331.000000	100.103989
2330.000000	100.150227
2329.000000	100.235316
2328.000000	99.415323
2327.000000	99.922681
2326.000000	99.988763
2325.000000	99.931152
2324.000000	99.529983
2323.000000	99.616235
2322.000000	99.961659
2321.000000	100.172759
2320.000000	99.968596
2319.000000	100.481802
2318.000000	99.976581
2317.000000	100.212980
2316.000000	100.059316
2315.000000	99.828759
2314.000000	100.013688
2313.000000	100.239767
2312.000000	100.197109
2311.000000	99.933116
2310.000000	99.774016
2309.000000	100.021634
2308.000000	99.334456
2307.000000	99.803132
2306.000000	99.628199
2305.000000	99.749962
2304.000000	99.920655
2303.000000	100.099202
2302.000000	99.894336
2301.000000	100.173713
2300.000000	99.975601
2299.000000	99.883394
2298.000000	99.881666
2297.000000	99.985388
2296.000000	100.062003
2295.000000	100.138070
2294.000000	99.550261
2293.000000	99.644969
2292.000000	99.912982
2291.000000	99.967665
2290.000000	100.072681
2289.000000	99.913297
2288.000000	100.210715
2287.000000	100.047428
2286.000000	100.119186
2285.000000	99.912087
2284.000000	100.048484
2283.000000	100.233655
2282.000000	100.048926
2281.000000	99.803518
2280.000000	99.742809
2279.000000	99.792531
2278.000000	99.802315
2277.000000	99.969152
2276.000000	99.975377
2275.000000	99.792046
2274.000000	99.836674
2273.000000	100.048597
2272.000000	99.920680
2271.000000	99.853993
2270.000000	100.001522
2269.000000	100.125714
2268.000000	100.045209
2267.000000	100.131162
2266.000000	100.105652
2265.000000	100.143191
2264.000000	100.102649
2263.000000	100.085960
2262.000000	100.032384
2261.000000	100.095820
2260.000000	99.937064
2259.000000	100.066195
2258.000000	100.299462
2257.000000	100.233033
2256.000000	99.961050
2255.000000	99.866843
2254.000000	99.954697
2253.000000	99.923319
2252.000000	100.022545
2251.000000	100.103426
2250.000000	100.026472
2249.000000	99.876648
2248.000000	99.866018
2247.000000	100.008304
2246.000000	100.148007
2245.000000	100.061769
2244.000000	99.906580
2243.000000	99.881770
2242.000000	99.852831
2241.000000	99.898016
2240.000000	100.178640
2239.000000	100.203385
2238.000000	99.847489
2237.000000	99.754377
2236.000000	99.974135
2235.000000	100.088962
2234.000000	99.982233
2233.000000	99.951953
2232.000000	100.096531
2231.000000	100.026439
2230.000000	99.988759
2229.000000	100.238049
2228.000000	100.208448
2227.000000	100.090131
2226.000000	99.914137
2225.000000	100.012578
2224.000000	99.944004
2223.000000	99.844629
2222.000000	99.914682
2221.000000	99.917651
2220.000000	99.992501
2219.000000	100.001217
2218.000000	99.964695
2217.000000	99.847298
2216.000000	99.769484
2215.000000	99.891941
2214.000000	99.972358
2213.000000	100.053196
2212.000000	100.037514
2211.000000	100.085756
2210.000000	100.062594
2209.000000	100.022424
2208.000000	99.997059
2207.000000	99.929244
2206.000000	99.865924
2205.000000	99.930863
2204.000000	100.028182
2203.000000	100.076317
2202.000000	100.070316
2201.000000	99.856096
2200.000000	100.041640
2199.000000	100.063269
2198.000000	100.055926
2197.000000	99.934756
2196.000000	100.131360
2195.000000	100.063199
2194.000000	99.854967
2193.000000	99.844687
2192.000000	99.844198
2191.000000	100.015485
2190.000000	100.105207
2189.000000	99.980249
2188.000000	99.781658
2187.000000	99.955571
2186.000000	100.059939
2185.000000	99.953897
2184.000000	100.079202
2183.000000	100.056558
2182.000000	99.920792
2181.000000	99.939685
2180.000000	99.914545
2179.000000	99.852389
2178.000000	100.096462
2177.000000	100.011014
2176.000000	100.077480
2175.000000	99.985536
2174.000000	99.986162
2173.000000	100.002224
2172.000000	100.105409
2171.000000	99.955752
2170.000000	99.874028
2169.000000	99.903070
2168.000000	100.057341
2167.000000	100.075346
2166.000000	99.984248
2165.000000	100.045310
2164.000000	100.004439
2163.000000	100.085329
2162.000000	99.979597
2161.000000	99.855555
2160.000000	99.842283
2159.000000	100.051379
2158.000000	100.136496
2157.000000	100.151217
2156.000000	99.921957
2155.000000	100.177150
2154.000000	100.049075
2153.000000	100.220802
2152.000000	100.058899
2151.000000	99.943834
2150.000000	99.910706
2149.000000	100.041586
2148.000000	99.794123
2147.000000	99.933891
2146.000000	99.714715
2145.000000	99.894148
2144.000000	99.691620
2143.000000	99.987996
2142.000000	100.060475
2141.000000	100.119574
2140.000000	99.756150
2139.000000	100.026411
2138.000000	100.155094
2137.000000	100.076582
2136.000000	100.171784
2135.000000	100.077361
2134.000000	99.997475
2133.000000	100.043505
2132.000000	100.183445
2131.000000	100.006156
2130.000000	100.074263
2129.000000	100.068434
2128.000000	99.888300
2127.000000	100.057458
2126.000000	100.013422
2125.000000	100.026332
2124.000000	100.079418
2123.000000	99.902576
2122.000000	99.959735
2121.000000	99.986351
2120.000000	100.111059
2119.000000	99.933433
2118.000000	99.846600
2117.000000	99.907958
2116.000000	99.998890
2115.000000	100.237115
2114.000000	100.078395
2113.000000	100.277437
2112.000000	100.045980
2111.000000	99.983110
2110.000000	99.922514
2109.000000	99.810714
2108.000000	100.079792
2107.000000	99.985641
2106.000000	99.910529
2105.000000	99.980975
2104.000000	99.876650
2103.000000	99.862507
2102.000000	100.043981
2101.000000	100.031863
2100.000000	99.990200
2099.000000	100.031286
2098.000000	99.818866
2097.000000	100.036362
2096.000000	99.877611
2095.000000	100.030699
2094.000000	99.958728
2093.000000	100.047673
2092.000000	99.880364
2091.000000	99.852334
2090.000000	100.090833
2089.000000	99.982388
2088.000000	100.009818
2087.000000	99.938614
2086.000000	99.915674
2085.000000	99.926229
2084.000000	99.916197
2083.000000	99.987546
2082.000000	100.050284
2081.000000	100.069568
2080.000000	99.942019
2079.000000	99.802001
2078.000000	99.935822
2077.000000	99.958188
2076.000000	99.835425
2075.000000	99.948275
2074.000000	99.839525
2073.000000	99.927467
2072.000000	100.038591
2071.000000	100.109883
2070.000000	100.162848
2069.000000	100.026339
2068.000000	100.067476
2067.000000	99.985007
2066.000000	99.886776
2065.000000	100.020782
2064.000000	99.982364
2063.000000	99.877439
2062.000000	99.878076
2061.000000	99.962404
2060.000000	99.981663
2059.000000	99.946513
2058.000000	99.974077
2057.000000	99.998076
2056.000000	100.012158
2055.000000	100.066273
2054.000000	99.973551
2053.000000	100.020681
2052.000000	100.027668
2051.000000	99.997973
2050.000000	100.017229
2049.000000	99.986931
2048.000000	99.936381
2047.000000	99.995945
2046.000000	100.044215
2045.000000	99.978813
2044.000000	99.935051
2043.000000	99.955628
2042.000000	100.021693
2041.000000	99.992397
2040.000000	99.940407
2039.000000	99.963502
2038.000000	99.988843
2037.000000	99.986406
2036.000000	99.961150
2035.000000	99.952342
2034.000000	99.990063
2033.000000	100.023324
2032.000000	99.929754
2031.000000	99.993003
2030.000000	100.004260
2029.000000	99.970080
2028.000000	99.950403
2027.000000	99.940778
2026.000000	100.012375
2025.000000	100.007102
2024.000000	99.995740
2023.000000	99.974233
2022.000000	99.923831
2021.000000	100.007814
2020.000000	100.005886
2019.000000	99.930823
2018.000000	99.991678
2017.000000	100.004568
2016.000000	99.978479
2015.000000	99.954021
2014.000000	99.908895
2013.000000	100.029946
2012.000000	100.022028
2011.000000	100.017762
2010.000000	100.010359
2009.000000	99.961105
2008.000000	100.033408
2007.000000	99.976142
2006.000000	99.897805
2005.000000	99.933507
2004.000000	99.949533
2003.000000	99.946368
2002.000000	99.990248
2001.000000	99.973792
2000.000000	99.960283
1999.000000	99.945673
1998.000000	99.922938
1997.000000	99.940803
1996.000000	100.067272
1995.000000	100.023275
1994.000000	99.966981
1993.000000	99.984047
1992.000000	99.963822
1991.000000	100.007628
1990.000000	100.033451
1989.000000	99.988107
1988.000000	99.988408
1987.000000	99.978139
1986.000000	99.997560
1985.000000	99.999695
1984.000000	99.973775
1983.000000	99.970317
1982.000000	99.953745
1981.000000	100.031333
1980.000000	100.009868
1979.000000	100.025836
1978.000000	100.004170
1977.000000	99.929942
1976.000000	99.960541
1975.000000	100.005086
1974.000000	100.003560
1973.000000	99.963998
1972.000000	99.975499
1971.000000	100.001831
1970.000000	100.001424
1969.000000	100.032249
1968.000000	99.959346
1967.000000	99.961580
1966.000000	100.012406
1965.000000	99.992065
1964.000000	100.041605
1963.000000	100.062462
1962.000000	100.028266
1961.000000	100.034684
1960.000000	100.069174
1959.000000	99.966765
1958.000000	100.022995
1957.000000	100.038560
1956.000000	100.039154
1955.000000	99.964819
1954.000000	99.994410
1953.000000	100.013314
1952.000000	99.952044
1951.000000	99.971453
1950.000000	99.993294
1949.000000	100.000712
1948.000000	100.036808
1947.000000	99.933872
1946.000000	100.042597
1945.000000	100.058736
1944.000000	99.995125
1943.000000	100.045001
1942.000000	99.962218
1941.000000	99.921129
1940.000000	99.939353
1939.000000	99.956853
1938.000000	99.975758
1937.000000	99.919349
1936.000000	100.068622
1935.000000	99.948228
1934.000000	99.915396
1933.000000	99.941579
1932.000000	99.784446
1931.000000	99.939661
1930.000000	99.951844
1929.000000	99.988236
1928.000000	99.878252
1927.000000	99.999899
1926.000000	100.150594
1925.000000	99.955992
1924.000000	99.983468
1923.000000	99.898805
1922.000000	100.003445
1921.000000	100.038448
1920.000000	100.024958
1919.000000	100.039566
1918.000000	99.924241
1917.000000	99.976884
1916.000000	99.911321
1915.000000	99.999797
1914.000000	100.003955
1913.000000	100.022310
1912.000000	99.939252
1911.000000	100.115841
1910.000000	100.058448
1909.000000	99.925860
1908.000000	100.021717
1907.000000	100.016227
1906.000000	99.974343
1905.000000	99.903391
1904.000000	99.926968
1903.000000	100.103083
1902.000000	99.928143
1901.000000	99.927380
1900.000000	99.994622
1899.000000	100.021718
1898.000000	100.038971
1897.000000	100.044881
1896.000000	100.053184
1895.000000	99.970784
1894.000000	99.944196
1893.000000	99.904125
1892.000000	99.978801
1891.000000	99.941774
1890.000000	99.996652
1889.000000	100.113459
1888.000000	100.042891
1887.000000	99.998784
1886.000000	99.990982
1885.000000	100.008112
1884.000000	100.020481
1883.000000	100.018341
1882.000000	99.978219
1881.000000	99.980555
1880.000000	99.958280
1879.000000	100.036969
1878.000000	100.016707
1877.000000	99.985829
1876.000000	99.942023
1875.000000	99.963484
1874.000000	100.096166
1873.000000	100.047481
1872.000000	100.006374
1871.000000	100.013149
1870.000000	100.015478
1869.000000	100.018717
1868.000000	99.967425
1867.000000	100.002226
1866.000000	100.020751
1865.000000	100.027531
1864.000000	100.006174
1863.000000	100.083316
1862.000000	100.081291
1861.000000	99.989678
1860.000000	99.904896
1859.000000	99.963558
1858.000000	99.989571
1857.000000	99.952422
1856.000000	99.967101
1855.000000	100.023183
1854.000000	100.021159
1853.000000	100.021060
1852.000000	99.978836
1851.000000	99.981077
1850.000000	99.941100
1849.000000	99.970448
1848.000000	100.017915
1847.000000	100.003239
1846.000000	99.968826
1845.000000	99.989273
1844.000000	100.006173
1843.000000	99.999595
1842.000000	99.974095
1841.000000	99.956501
1840.000000	99.967523
1839.000000	100.016600
1838.000000	99.989065
1837.000000	99.984810
1836.000000	100.053886
1835.000000	100.025019
1834.000000	99.978122
1833.000000	99.992300
1832.000000	99.955732
1831.000000	99.953494
1830.000000	99.946088
1829.000000	99.979121
1828.000000	99.984694
1827.000000	99.955909
1826.000000	99.992295
1825.000000	99.983775
1824.000000	99.972013
1823.000000	99.994320
1822.000000	99.993609
1821.000000	100.030134
1820.000000	100.007204
1819.000000	99.992289
1818.000000	100.006087
1817.000000	99.997869
1816.000000	99.975443
1815.000000	99.964990
1814.000000	100.011269
1813.000000	100.025786
1812.000000	99.986603
1811.000000	99.964785
1810.000000	99.992285
1809.000000	99.983757
1808.000000	99.951587
1807.000000	99.954015
1806.000000	99.963445
1805.000000	99.972888
1804.000000	100.004569
1803.000000	99.998883
1802.000000	99.994923
1801.000000	99.989642
1800.000000	99.943859
1799.000000	99.992687
1798.000000	100.038708
1797.000000	99.989844
1796.000000	99.971159
1795.000000	99.999898
1794.000000	100.000914
1793.000000	99.992279
1792.000000	100.023165
1791.000000	100.036482
1790.000000	100.007215
1789.000000	100.010671
1788.000000	99.998679
1787.000000	99.989128
1786.000000	99.988517
1785.000000	99.946972
1784.000000	99.963118
1783.000000	99.985167
1782.000000	99.968709
1781.000000	99.935388
1780.000000	99.979783
1779.000000	99.997054
1778.000000	99.977342
1777.000000	100.041059
1776.000000	100.012398
1775.000000	99.998374
1774.000000	100.016461
1773.000000	100.014126
1772.000000	99.986181
1771.000000	99.941897
1770.000000	99.951138
1769.000000	100.024396
1768.000000	99.957935
1767.000000	99.976630
1766.000000	100.018089
1765.000000	100.006097
1764.000000	100.008435
1763.000000	99.961388
1762.000000	100.002946
1761.000000	99.981303
1760.000000	99.952658
1759.000000	100.018194
1758.000000	99.997358
1757.000000	100.005792
1756.000000	100.005285
1755.000000	99.990042
1754.000000	100.056514
1753.000000	99.982522
1752.000000	99.975921
1751.000000	100.015852
1750.000000	99.998679
1749.000000	100.024582
1748.000000	99.990755
1747.000000	100.013007
1746.000000	99.998882
1745.000000	99.972463
1744.000000	99.988113
1743.000000	100.005385
1742.000000	100.009958
1741.000000	99.995021
1740.000000	99.985570
1739.000000	99.960279
1738.000000	99.940177
1737.000000	100.019304
1736.000000	100.022148
1735.000000	99.999492
1734.000000	100.040347
1733.000000	99.998781
1732.000000	99.974300
1731.000000	99.938959
1730.000000	99.925058
1729.000000	99.992381
1728.000000	100.000813
1727.000000	99.980084
1726.000000	99.978263
1725.000000	99.997664
1724.000000	99.932468
1723.000000	99.909512
1722.000000	99.981821
1721.000000	99.907510
1720.000000	99.985782
1719.000000	100.009143
1718.000000	99.970649
1717.000000	99.997258
1716.000000	100.031197
1715.000000	99.975315
1714.000000	99.992585
1713.000000	100.014529
1712.000000	99.981712
1711.000000	100.021948
1710.000000	100.017469
1709.000000	100.017879
1708.000000	100.009346
1707.000000	99.982530
1706.000000	100.009955
1705.000000	100.020014
1704.000000	100.005181
1703.000000	100.009652
1702.000000	100.020117
1701.000000	100.020017
1700.000000	99.997258
1699.000000	100.013511
1698.000000	99.957051
1697.000000	100.009244
1696.000000	99.982533
1695.000000	99.952684
1694.000000	100.011578
1693.000000	100.013510
1692.000000	100.007312
1691.000000	100.009141
1690.000000	100.001219
1689.000000	99.997562
1688.000000	100.015236
1687.000000	100.030270
1686.000000	99.987407
1685.000000	99.999086
1684.000000	99.977147
1683.000000	100.008633
1682.000000	100.000508
1681.000000	100.021939
1680.000000	99.965782
1679.000000	99.989945
1678.000000	99.961308
1677.000000	99.998375
1676.000000	99.974313
1675.000000	99.994923
1674.000000	99.977459
1673.000000	100.015032
1672.000000	100.018995
1671.000000	99.959988
1670.000000	99.974312
1669.000000	99.999594
1668.000000	99.969243
1667.000000	99.961231
1666.000000	99.978892
1665.000000	100.036136
1664.000000	100.023962
1663.000000	99.947535
1662.000000	99.983860
1661.000000	100.003858
1660.000000	99.984266
1659.000000	99.981222
1658.000000	99.983965
1657.000000	99.965493
1656.000000	99.991475
1655.000000	99.974631
1654.000000	99.992490
1653.000000	99.970569
1652.000000	99.960319
1651.000000	99.980818
1650.000000	99.992387
1649.000000	100.011370
1648.000000	99.991170
1647.000000	100.009643
1646.000000	100.016139
1645.000000	99.978280
1644.000000	99.942770
1643.000000	99.974530
1642.000000	99.974529
1641.000000	99.983664
1640.000000	99.982644
1639.000000	99.995027
1638.000000	99.969559
1637.000000	99.972193
1636.000000	99.984271
1635.000000	99.995028
1634.000000	100.000406
1633.000000	99.962661
1632.000000	99.967328
1631.000000	99.969455
1630.000000	99.979601
1629.000000	99.996448
1628.000000	100.010049
1627.000000	99.994013
1626.000000	99.956674
1625.000000	99.967117
1624.000000	99.987619
1623.000000	99.994622
1622.000000	99.988736
1621.000000	99.987924
1620.000000	99.983255
1619.000000	99.971995
1618.000000	99.976360
1617.000000	99.999391
1616.000000	99.972395
1615.000000	99.964685
1614.000000	100.008831
1613.000000	99.990967
1612.000000	99.982850
1611.000000	100.012077
1610.000000	100.001624
1609.000000	99.985491
1608.000000	99.986503
1607.000000	99.968033
1606.000000	99.956976
1605.000000	99.988532
1604.000000	99.984066
1603.000000	99.990764
1602.000000	100.001624
1601.000000	99.969357
1600.000000	99.965504
1599.000000	100.006293
1598.000000	100.007409
1597.000000	99.994824
1596.000000	99.976459
1595.000000	99.962970
1594.000000	99.987520
1593.000000	100.001928
1592.000000	99.996347
1591.000000	100.020502
1590.000000	100.013196
1589.000000	99.980412
1588.000000	99.982038
1587.000000	99.987314
1586.000000	99.986603
1585.000000	99.994723
1584.000000	100.003146
1583.000000	100.002943
1582.000000	99.980417
1581.000000	99.964085
1580.000000	99.972400
1579.000000	99.983866
1578.000000	99.983359
1577.000000	99.959617
1576.000000	99.949473
1575.000000	99.980923
1574.000000	99.966414
1573.000000	99.961247
1572.000000	99.997564
1571.000000	100.007511
1570.000000	99.981026
1569.000000	99.983665
1568.000000	99.982346
1567.000000	99.950695
1566.000000	99.967125
1565.000000	100.010147
1564.000000	99.988942
1563.000000	99.970476
1562.000000	99.966114
1561.000000	99.995332
1560.000000	99.980723
1559.000000	99.953543
1558.000000	99.965611
1557.000000	99.984072
1556.000000	99.983567
1555.000000	99.998884
1554.000000	99.984173
1553.000000	99.980929
1552.000000	99.980828
1551.000000	99.981031
1550.000000	99.969772
1549.000000	99.984480
1548.000000	100.007305
1547.000000	99.972712
1546.000000	99.984784
1545.000000	99.996145
1544.000000	99.994117
1543.000000	99.993610
1542.000000	99.973424
1541.000000	99.976367
1540.000000	100.011970
1539.000000	100.012883
1538.000000	99.977486
1537.000000	99.991278
1536.000000	99.970995
1535.000000	99.988235
1534.000000	100.004159
1533.000000	100.002333
1532.000000	99.985192
1531.000000	99.998884
1530.000000	99.980122
1529.000000	99.997971
1528.000000	99.988438
1527.000000	100.008419
1526.000000	99.969983
1525.000000	99.975557
1524.000000	99.975456
1523.000000	99.979110
1522.000000	100.000000
1521.000000	99.984180
1520.000000	99.983772
1519.000000	99.988539
1518.000000	99.967447
1517.000000	99.971198
1516.000000	99.993103
1515.000000	99.986309
1514.000000	99.976570
1513.000000	99.987423
1512.000000	100.005680
1511.000000	99.991886
1510.000000	99.996044
1509.000000	99.994117
1508.000000	99.973428
1507.000000	99.979719
1506.000000	99.984583
1505.000000	99.978297
1504.000000	99.982050
1503.000000	99.990972
1502.000000	100.012679
1501.000000	99.986207
1500.000000	99.971503
1499.000000	99.994422
1498.000000	100.002739
1497.000000	99.959744
1496.000000	100.000000
1495.000000	100.009332
1494.000000	99.956699
1493.000000	99.980427
1492.000000	99.999899
1491.000000	99.977997
1490.000000	99.983777
1489.000000	100.017951
1488.000000	100.007301
1487.000000	99.990875
1486.000000	100.020890
1485.000000	99.991280
1484.000000	99.975161
