PE UV       SUBTECH     SPECTRUM    ASCII       PEDS        4.00        
   -1
Empty Chamber.Sample.asc
18/03/06
08:54:46.00
18/03/06
08:54:46.00
Administrator

200.000000
1
Lambda 750
750N8071901
PerkinElmer UV WinLab 6.0.4.0738 / 1.61.00 Lambda 900

0
0
3350/servo 860.8/2
0
0
UV/VIS
1
1
1
CommonBeamDepol,150mm sphere / downward view
0
0
0
0
Program
Program
3350/servo 860.8/2
3350/0.2 860.8/0.2
3350/0.2 860.8/0.2
0
1
 
 
 
0
 
860.8
319.2
860.8
Front
100
on
 
 
0
0
0
 
0
 
 
 
0
 
 
0
0
0
0
0
 
 
 
 
0
0


0
0
#HDR
-1
-1
#GR
nm
%T
1.0
0.0
2350.000000
-1.000000
2151
8
100.794063
99.274594
#DATA
2350.000000	100.049263
2349.000000	99.924186
2348.000000	99.274594
2347.000000	100.029846
2346.000000	100.058484
2345.000000	100.377124
2344.000000	100.400642
2343.000000	100.087800
2342.000000	99.818402
2341.000000	99.892603
2340.000000	100.246520
2339.000000	99.759699
2338.000000	99.499624
2337.000000	99.894640
2336.000000	99.899677
2335.000000	99.451327
2334.000000	99.727955
2333.000000	100.158345
2332.000000	100.490574
2331.000000	99.971468
2330.000000	100.393948
2329.000000	100.255825
2328.000000	99.834120
2327.000000	100.087089
2326.000000	100.040815
2325.000000	100.204327
2324.000000	100.284653
2323.000000	99.977094
2322.000000	99.726038
2321.000000	100.069206
2320.000000	99.943752
2319.000000	99.571505
2318.000000	99.788605
2317.000000	99.917893
2316.000000	99.515141
2315.000000	99.702800
2314.000000	99.955139
2313.000000	100.043007
2312.000000	99.968047
2311.000000	100.156084
2310.000000	99.911621
2309.000000	99.788546
2308.000000	100.047239
2307.000000	99.703376
2306.000000	100.018671
2305.000000	99.679053
2304.000000	99.643150
2303.000000	99.890127
2302.000000	99.777003
2301.000000	99.832043
2300.000000	100.101647
2299.000000	99.954936
2298.000000	99.887818
2297.000000	99.920842
2296.000000	99.719538
2295.000000	99.825134
2294.000000	99.814534
2293.000000	99.822758
2292.000000	99.796090
2291.000000	99.804386
2290.000000	99.866680
2289.000000	99.861700
2288.000000	100.119110
2287.000000	100.242098
2286.000000	100.308340
2285.000000	99.872772
2284.000000	100.115297
2283.000000	100.168383
2282.000000	100.121422
2281.000000	100.194074
2280.000000	100.296726
2279.000000	100.086114
2278.000000	100.022201
2277.000000	99.935103
2276.000000	99.945178
2275.000000	100.037275
2274.000000	100.099414
2273.000000	100.116694
2272.000000	100.209225
2271.000000	99.819633
2270.000000	99.832427
2269.000000	99.950727
2268.000000	99.932539
2267.000000	99.982670
2266.000000	100.126141
2265.000000	99.969960
2264.000000	99.899464
2263.000000	99.910035
2262.000000	99.822486
2261.000000	99.963868
2260.000000	99.893203
2259.000000	99.816647
2258.000000	99.846432
2257.000000	99.972351
2256.000000	99.922983
2255.000000	99.837486
2254.000000	99.874259
2253.000000	99.752490
2252.000000	99.848457
2251.000000	99.716530
2250.000000	99.665587
2249.000000	99.890786
2248.000000	99.950188
2247.000000	99.935544
2246.000000	99.893637
2245.000000	99.906341
2244.000000	99.890802
2243.000000	99.950309
2242.000000	99.971550
2241.000000	100.067743
2240.000000	100.029191
2239.000000	99.918917
2238.000000	99.829504
2237.000000	100.052257
2236.000000	100.229599
2235.000000	99.915858
2234.000000	99.864646
2233.000000	99.868841
2232.000000	99.970798
2231.000000	99.991592
2230.000000	100.029994
2229.000000	100.088300
2228.000000	100.109987
2227.000000	100.032261
2226.000000	99.913102
2225.000000	99.942201
2224.000000	100.234587
2223.000000	100.165473
2222.000000	100.048897
2221.000000	100.108863
2220.000000	99.954357
2219.000000	100.071560
2218.000000	99.967252
2217.000000	99.968158
2216.000000	99.911339
2215.000000	99.879091
2214.000000	99.944893
2213.000000	100.106912
2212.000000	99.895865
2211.000000	99.815174
2210.000000	99.844085
2209.000000	99.973840
2208.000000	99.945185
2207.000000	100.084616
2206.000000	100.173253
2205.000000	99.917031
2204.000000	99.946910
2203.000000	99.860301
2202.000000	100.051587
2201.000000	100.062047
2200.000000	100.017534
2199.000000	100.108181
2198.000000	100.000506
2197.000000	99.978121
2196.000000	100.162150
2195.000000	100.320269
2194.000000	99.917330
2193.000000	100.032170
2192.000000	99.928747
2191.000000	100.112230
2190.000000	100.114755
2189.000000	100.054806
2188.000000	99.940553
2187.000000	99.914578
2186.000000	99.973084
2185.000000	99.804981
2184.000000	99.855771
2183.000000	100.021715
2182.000000	100.025669
2181.000000	99.803222
2180.000000	100.026913
2179.000000	100.244939
2178.000000	99.898499
2177.000000	99.965309
2176.000000	100.006472
2175.000000	99.892803
2174.000000	99.914113
2173.000000	99.889108
2172.000000	100.009701
2171.000000	99.955665
2170.000000	99.993938
2169.000000	100.127681
2168.000000	100.231911
2167.000000	99.931993
2166.000000	99.986657
2165.000000	99.945899
2164.000000	100.002727
2163.000000	99.948951
2162.000000	100.116188
2161.000000	99.982730
2160.000000	99.779212
2159.000000	100.161118
2158.000000	100.066016
2157.000000	100.028260
2156.000000	100.051169
2155.000000	100.135237
2154.000000	100.044712
2153.000000	100.185906
2152.000000	99.948417
2151.000000	99.973544
2150.000000	100.353865
2149.000000	100.071209
2148.000000	99.893359
2147.000000	99.882761
2146.000000	100.185587
2145.000000	99.702736
2144.000000	100.063209
2143.000000	99.708615
2142.000000	100.043046
2141.000000	100.031448
2140.000000	99.988399
2139.000000	100.018039
2138.000000	100.015208
2137.000000	99.624895
2136.000000	100.014027
2135.000000	100.021407
2134.000000	99.741493
2133.000000	100.068865
2132.000000	100.146957
2131.000000	99.955095
2130.000000	100.372180
2129.000000	99.700123
2128.000000	99.958992
2127.000000	100.211801
2126.000000	99.838917
2125.000000	99.965466
2124.000000	99.951960
2123.000000	99.956391
2122.000000	99.903599
2121.000000	100.041731
2120.000000	99.944854
2119.000000	99.945163
2118.000000	99.862458
2117.000000	100.159483
2116.000000	99.980527
2115.000000	100.365729
2114.000000	99.919238
2113.000000	99.906875
2112.000000	99.960175
2111.000000	99.725856
2110.000000	100.071760
2109.000000	100.093232
2108.000000	99.938153
2107.000000	99.873932
2106.000000	99.960602
2105.000000	99.786358
2104.000000	99.841716
2103.000000	99.908855
2102.000000	100.068535
2101.000000	100.077504
2100.000000	99.899225
2099.000000	99.935483
2098.000000	99.951448
2097.000000	99.996153
2096.000000	99.829839
2095.000000	100.184573
2094.000000	100.084161
2093.000000	100.047571
2092.000000	100.033128
2091.000000	100.102369
2090.000000	100.058220
2089.000000	99.895277
2088.000000	99.999899
2087.000000	100.068261
2086.000000	100.049705
2085.000000	100.112766
2084.000000	99.961053
2083.000000	99.919049
2082.000000	99.941911
2081.000000	99.873725
2080.000000	99.972254
2079.000000	100.084520
2078.000000	100.065051
2077.000000	100.023406
2076.000000	100.098561
2075.000000	99.996761
2074.000000	99.836094
2073.000000	99.947386
2072.000000	100.141163
2071.000000	100.176357
2070.000000	100.168818
2069.000000	100.063185
2068.000000	100.034136
2067.000000	100.016912
2066.000000	99.924093
2065.000000	100.051157
2064.000000	100.075384
2063.000000	100.061734
2062.000000	99.980952
2061.000000	99.987234
2060.000000	99.953725
2059.000000	99.831120
2058.000000	99.960505
2057.000000	99.908217
2056.000000	99.965774
2055.000000	100.024615
2054.000000	100.005065
2053.000000	100.014797
2052.000000	100.003750
2051.000000	100.005880
2050.000000	100.096632
2049.000000	100.088330
2048.000000	100.030923
2047.000000	100.027876
2046.000000	99.985510
2045.000000	99.971535
2044.000000	99.936687
2043.000000	99.960890
2042.000000	99.981157
2041.000000	99.993821
2040.000000	100.138153
2039.000000	100.063912
2038.000000	100.028392
2037.000000	100.053562
2036.000000	99.960561
2035.000000	99.980633
2034.000000	99.963917
2033.000000	99.973651
2032.000000	100.001623
2031.000000	100.010043
2030.000000	99.972013
2029.000000	99.977589
2028.000000	100.027984
2027.000000	99.982760
2026.000000	100.018059
2025.000000	100.036523
2024.000000	99.996043
2023.000000	100.019084
2022.000000	100.043759
2021.000000	100.058060
2020.000000	100.059461
2019.000000	99.982853
2018.000000	100.041723
2017.000000	100.048832
2016.000000	99.950174
2015.000000	99.927737
2014.000000	99.945891
2013.000000	100.016554
2012.000000	100.039709
2011.000000	100.004264
2010.000000	100.008021
2009.000000	100.049458
2008.000000	100.103640
2007.000000	100.038600
2006.000000	100.013613
2005.000000	100.044298
2004.000000	100.019811
2003.000000	100.041472
2002.000000	100.006200
2001.000000	100.013620
2000.000000	99.982014
1999.000000	99.965153
1998.000000	100.043502
1997.000000	99.977750
1996.000000	100.014533
1995.000000	99.995224
1994.000000	99.950524
1993.000000	99.996138
1992.000000	99.937510
1991.000000	99.976929
1990.000000	100.049122
1989.000000	100.001627
1988.000000	99.965647
1987.000000	99.988206
1986.000000	100.000610
1985.000000	99.897742
1984.000000	99.960149
1983.000000	100.012303
1982.000000	100.017189
1981.000000	100.072932
1980.000000	99.990138
1979.000000	99.931982
1978.000000	100.030719
1977.000000	99.982505
1976.000000	99.967872
1975.000000	99.990648
1974.000000	100.000814
1973.000000	99.950061
1972.000000	100.020145
1971.000000	100.025433
1970.000000	99.888186
1969.000000	99.970302
1968.000000	100.043321
1967.000000	100.013218
1966.000000	100.047386
1965.000000	100.020546
1964.000000	99.990948
1963.000000	99.996949
1962.000000	99.988201
1961.000000	100.000000
1960.000000	100.014438
1959.000000	100.039868
1958.000000	99.990241
1957.000000	100.021657
1956.000000	100.004677
1955.000000	99.938791
1954.000000	100.044022
1953.000000	100.008943
1952.000000	99.960077
1951.000000	100.019514
1950.000000	100.052051
1949.000000	99.992580
1948.000000	100.057435
1947.000000	100.013617
1946.000000	99.997358
1945.000000	100.105865
1944.000000	100.000407
1943.000000	99.891251
1942.000000	100.009044
1941.000000	100.057992
1940.000000	100.041347
1939.000000	100.017475
1938.000000	100.053426
1937.000000	100.001624
1936.000000	99.926001
1935.000000	100.103865
1934.000000	100.045269
1933.000000	100.045690
1932.000000	99.965403
1931.000000	100.017149
1930.000000	100.038044
1929.000000	100.139563
1928.000000	100.056460
1927.000000	99.892166
1926.000000	99.965110
1925.000000	99.886239
1924.000000	99.854731
1923.000000	99.930804
1922.000000	99.990158
1921.000000	100.032241
1920.000000	100.082907
1919.000000	99.982861
1918.000000	100.039024
1917.000000	99.990969
1916.000000	99.995741
1915.000000	99.948601
1914.000000	99.927861
1913.000000	100.054696
1912.000000	99.967248
1911.000000	99.980930
1910.000000	99.944736
1909.000000	99.918147
1908.000000	99.962064
1907.000000	100.143466
1906.000000	100.016941
1905.000000	99.996549
1904.000000	99.980424
1903.000000	99.983057
1902.000000	99.901816
1901.000000	99.937407
1900.000000	100.046872
1899.000000	100.048808
1898.000000	99.980924
1897.000000	99.984574
1896.000000	99.964987
1895.000000	100.040319
1894.000000	99.907442
1893.000000	99.969137
1892.000000	100.077284
1891.000000	99.973718
1890.000000	99.960417
1889.000000	99.965611
1888.000000	99.951321
1887.000000	99.936630
1886.000000	99.986212
1885.000000	99.931686
1884.000000	100.011049
1883.000000	100.016728
1882.000000	99.961183
1881.000000	100.054431
1880.000000	100.042265
1879.000000	99.955431
1878.000000	99.984507
1877.000000	100.009416
1876.000000	99.974588
1875.000000	99.998684
1874.000000	100.032311
1873.000000	100.026132
1872.000000	99.966082
1871.000000	100.005365
1870.000000	99.978645
1869.000000	99.959804
1868.000000	100.002633
1867.000000	99.929987
1866.000000	99.956475
1865.000000	99.996456
1864.000000	99.997974
1863.000000	100.023704
1862.000000	100.017830
1861.000000	99.994227
1860.000000	99.973160
1859.000000	100.017227
1858.000000	99.932537
1857.000000	99.944680
1856.000000	99.984497
1855.000000	99.981466
1854.000000	99.952101
1853.000000	99.991999
1852.000000	99.970839
1851.000000	99.969014
1850.000000	99.993314
1849.000000	99.954645
1848.000000	100.000911
1847.000000	100.065346
1846.000000	100.017930
1845.000000	99.996962
1844.000000	100.010431
1843.000000	99.977522
1842.000000	100.018029
1841.000000	100.018228
1840.000000	100.005266
1839.000000	100.004659
1838.000000	99.963134
1837.000000	99.936313
1836.000000	99.974678
1835.000000	100.037896
1834.000000	100.019153
1833.000000	99.985914
1832.000000	100.035384
1831.000000	100.041985
1830.000000	99.996553
1829.000000	99.996553
1828.000000	99.988849
1827.000000	99.972829
1826.000000	99.955087
1825.000000	99.975462
1824.000000	100.001116
1823.000000	100.010448
1822.000000	100.010957
1821.000000	100.015221
1820.000000	100.047300
1819.000000	100.022634
1818.000000	100.020400
1817.000000	100.021622
1816.000000	100.024876
1815.000000	100.023150
1814.000000	100.025483
1813.000000	99.977063
1812.000000	99.962041
1811.000000	99.987310
1810.000000	99.985278
1809.000000	100.005687
1808.000000	100.009953
1807.000000	99.975529
1806.000000	99.955221
1805.000000	99.961408
1804.000000	99.982025
1803.000000	99.995734
1802.000000	100.022959
1801.000000	100.032002
1800.000000	100.026211
1799.000000	100.002133
1798.000000	99.969425
1797.000000	99.981716
1796.000000	99.982530
1795.000000	99.972171
1794.000000	99.991772
1793.000000	99.997562
1792.000000	99.989535
1791.000000	100.028653
1790.000000	100.009348
1789.000000	99.996952
1788.000000	99.987501
1787.000000	100.010974
1786.000000	100.022154
1785.000000	100.021035
1784.000000	100.022049
1783.000000	99.967901
1782.000000	99.993294
1781.000000	100.015143
1780.000000	99.998882
1779.000000	99.968914
1778.000000	99.972569
1777.000000	99.971147
1776.000000	100.009044
1775.000000	99.996444
1774.000000	99.990552
1773.000000	99.995123
1772.000000	99.976631
1771.000000	100.013007
1770.000000	99.996342
1769.000000	100.032012
1768.000000	100.011484
1767.000000	99.987502
1766.000000	100.007011
1765.000000	99.987095
1764.000000	100.031202
1763.000000	100.041675
1762.000000	100.027137
1761.000000	100.025612
1760.000000	100.007824
1759.000000	100.018389
1758.000000	100.025510
1757.000000	99.989331
1756.000000	99.964849
1755.000000	100.027236
1754.000000	99.994412
1753.000000	99.976838
1752.000000	99.995631
1751.000000	100.017676
1750.000000	100.013310
1749.000000	99.975417
1748.000000	99.967184
1747.000000	99.995631
1746.000000	99.972673
1745.000000	99.957437
1744.000000	100.028860
1743.000000	100.031506
1742.000000	99.991464
1741.000000	99.952766
1740.000000	100.013311
1739.000000	99.958353
1738.000000	99.957952
1737.000000	99.970546
1736.000000	100.011888
1735.000000	99.995835
1734.000000	99.981206
1733.000000	99.982017
1732.000000	99.961198
1731.000000	99.980292
1730.000000	99.968103
1729.000000	100.014529
1728.000000	100.012800
1727.000000	100.040238
1726.000000	99.994209
1725.000000	99.979885
1724.000000	100.024898
1723.000000	99.964049
1722.000000	99.923230
1721.000000	99.965871
1720.000000	99.983546
1719.000000	100.018795
1718.000000	99.986389
1717.000000	99.985882
1716.000000	99.994007
1715.000000	99.995023
1714.000000	100.002234
1713.000000	100.035360
1712.000000	100.035047
1711.000000	100.012087
1710.000000	100.006602
1709.000000	100.013408
1708.000000	99.968612
1707.000000	99.964860
1706.000000	100.013102
1705.000000	99.977248
1704.000000	99.962520
1703.000000	100.003453
1702.000000	99.977857
1701.000000	100.002031
1700.000000	99.994110
1699.000000	100.026614
1698.000000	100.014118
1697.000000	100.031281
1696.000000	99.994416
1695.000000	100.013509
1694.000000	100.035246
1693.000000	99.994719
1692.000000	99.967708
1691.000000	99.999594
1690.000000	99.967111
1689.000000	100.006601
1688.000000	100.030374
1687.000000	100.006398
1686.000000	99.972278
1685.000000	99.981828
1684.000000	99.967416
1683.000000	100.000812
1682.000000	99.980204
1681.000000	100.021630
1680.000000	99.974212
1679.000000	99.984868
1678.000000	99.988424
1677.000000	99.967000
1676.000000	100.009851
1675.000000	99.999188
1674.000000	99.974310
1673.000000	100.004469
1672.000000	100.006397
1671.000000	99.983855
1670.000000	100.008425
1669.000000	100.017559
1668.000000	100.027711
1667.000000	99.992287
1666.000000	99.982950
1665.000000	100.021622
1664.000000	99.967429
1663.000000	99.998173
1662.000000	100.017657
1661.000000	99.983760
1660.000000	99.993302
1659.000000	99.989244
1658.000000	100.007815
1657.000000	99.991678
1656.000000	99.966623
1655.000000	99.973316
1654.000000	99.986402
1653.000000	99.985693
1652.000000	100.002943
1651.000000	99.996650
1650.000000	100.008120
1649.000000	99.995128
1648.000000	100.004465
1647.000000	100.009236
1646.000000	100.027914
1645.000000	99.997057
1644.000000	100.023551
1643.000000	100.014718
1642.000000	99.990866
1641.000000	99.988533
1640.000000	99.985793
1639.000000	99.971585
1638.000000	99.958498
1637.000000	99.970068
1636.000000	99.978892
1635.000000	99.986198
1634.000000	99.990664
1633.000000	100.002639
1632.000000	99.987821
1631.000000	99.970469
1630.000000	100.002740
1629.000000	100.005176
1628.000000	100.004161
1627.000000	99.992998
1626.000000	99.968243
1625.000000	99.979910
1624.000000	100.015019
1623.000000	99.995941
1622.000000	100.017658
1621.000000	100.019281
1620.000000	99.990158
1619.000000	100.002233
1618.000000	99.995941
1617.000000	100.006799
1616.000000	100.001319
1615.000000	100.001624
1614.000000	99.999797
1613.000000	99.993709
1612.000000	99.997463
1611.000000	100.007610
1610.000000	99.959015
1609.000000	99.947964
1608.000000	99.980824
1607.000000	100.000304
1606.000000	100.002029
1605.000000	99.987114
1604.000000	99.992795
1603.000000	100.015629
1602.000000	100.005176
1601.000000	99.984678
1600.000000	100.002232
1599.000000	99.992593
1598.000000	100.014918
1597.000000	100.033594
1596.000000	99.999290
1595.000000	100.001522
1594.000000	100.008017
1593.000000	99.998579
1592.000000	99.998478
1591.000000	100.004566
1590.000000	100.008930
1589.000000	99.994216
1588.000000	99.988941
1587.000000	99.997768
1586.000000	100.000406
1585.000000	100.000913
1584.000000	100.019788
1583.000000	100.008625
1582.000000	99.980826
1581.000000	99.987319
1580.000000	99.998174
1579.000000	100.017454
1578.000000	100.025268
1577.000000	99.991782
1576.000000	99.990361
1575.000000	100.019586
1574.000000	100.015726
1573.000000	100.011160
1572.000000	100.014815
1571.000000	100.003754
1570.000000	100.008725
1569.000000	99.991681
1568.000000	99.977682
1567.000000	99.982855
1566.000000	99.973930
1565.000000	99.982248
1564.000000	99.996044
1563.000000	99.993305
1562.000000	100.005478
1561.000000	99.998783
1560.000000	99.991985
1559.000000	99.968457
1558.000000	99.992696
1557.000000	99.991784
1556.000000	100.024756
1555.000000	100.020696
1554.000000	99.994522
1553.000000	99.994218
1552.000000	99.971297
1551.000000	99.983367
1550.000000	99.989555
1549.000000	99.989756
1548.000000	99.999290
1547.000000	99.982452
1546.000000	99.977988
1545.000000	99.979814
1544.000000	99.961667
1543.000000	99.989248
1542.000000	100.001724
1541.000000	99.979513
1540.000000	99.987627
1539.000000	100.015621
1538.000000	99.997160
1537.000000	99.996348
1536.000000	99.998681
1535.000000	99.990771
1534.000000	100.010752
1533.000000	100.015520
1532.000000	100.003043
1531.000000	99.993510
1530.000000	100.001826
1529.000000	99.964611
1528.000000	99.984282
1527.000000	99.991987
1526.000000	100.012478
1525.000000	99.998986
1524.000000	99.996348
1523.000000	99.997059
1522.000000	100.003448
1521.000000	99.976573
1520.000000	99.982962
1519.000000	99.983369
1518.000000	99.982455
1517.000000	100.013085
1516.000000	100.024445
1515.000000	100.004970
1514.000000	99.979005
1513.000000	99.998377
1512.000000	99.997464
1511.000000	99.994726
1510.000000	100.012983
1509.000000	99.993206
1508.000000	100.016736
1507.000000	99.995234
1506.000000	99.975562
1505.000000	100.003043
1504.000000	100.014302
1503.000000	100.009027
1502.000000	100.004767
1501.000000	100.012677
1500.000000	99.991989
1499.000000	100.016227
1498.000000	99.995842
1497.000000	99.977284
1496.000000	99.998377
1495.000000	99.999696
1494.000000	100.006187
1493.000000	99.986514
1492.000000	100.010548
1491.000000	100.013082
1490.000000	100.008721
1489.000000	99.993410
1488.000000	99.992699
1487.000000	99.995031
