PE UV       SUBTECH     SPECTRUM    ASCII       PEDS        4.00        
   -1
Empty Chamber.Sample.asc
18/03/02
09:33:46.00
18/03/02
09:33:46.00
Administrator

200.000000
1
Lambda 750
750N8071901
PerkinElmer UV WinLab 6.0.4.0738 / 1.61.00 Lambda 900

0
0
3350/servo 860.8/2
0
0
UV/VIS
1
1
1
CommonBeamDepol,150mm sphere / downward view
0
0
0
0
Program
Program
3350/servo 860.8/2
3350/0.2 860.8/0.2
3350/0.2 860.8/0.2
0
1
 
 
 
0
 
860.8
319.2
860.8
Front
100
on
 
 
0
0
0
 
0
 
 
 
0
 
 
0
0
0
0
0
 
 
 
 
0
0


0
0
#HDR
-1
-1
#GR
nm
%T
1.0
0.0
2350.000000
-1.000000
2151
8
100.849963
99.477400
#DATA
2350.000000	99.736162
2349.000000	99.953457
2348.000000	99.933150
2347.000000	100.318077
2346.000000	99.988281
2345.000000	100.098449
2344.000000	100.107990
2343.000000	99.986278
2342.000000	99.913393
2341.000000	100.246997
2340.000000	99.775035
2339.000000	99.869527
2338.000000	100.166404
2337.000000	100.006955
2336.000000	99.543179
2335.000000	99.898385
2334.000000	99.892481
2333.000000	100.052560
2332.000000	100.487360
2331.000000	99.814039
2330.000000	100.069788
2329.000000	100.097835
2328.000000	99.951430
2327.000000	100.189522
2326.000000	100.091281
2325.000000	99.797326
2324.000000	100.144126
2323.000000	100.026490
2322.000000	99.873696
2321.000000	100.128924
2320.000000	100.068500
2319.000000	100.106598
2318.000000	100.095541
2317.000000	100.231812
2316.000000	99.903680
2315.000000	100.166866
2314.000000	99.949648
2313.000000	100.071520
2312.000000	99.880248
2311.000000	100.331706
2310.000000	100.267926
2309.000000	99.960063
2308.000000	99.906064
2307.000000	99.806966
2306.000000	100.010209
2305.000000	99.977165
2304.000000	100.211092
2303.000000	100.025452
2302.000000	100.119602
2301.000000	100.124853
2300.000000	100.111539
2299.000000	100.218419
2298.000000	100.209878
2297.000000	100.294147
2296.000000	100.049960
2295.000000	99.767697
2294.000000	99.979181
2293.000000	100.234835
2292.000000	100.154049
2291.000000	99.957383
2290.000000	100.056205
2289.000000	99.936935
2288.000000	100.027569
2287.000000	100.029602
2286.000000	99.904919
2285.000000	100.346166
2284.000000	100.332744
2283.000000	100.030523
2282.000000	100.036414
2281.000000	100.094557
2280.000000	100.157744
2279.000000	100.219183
2278.000000	99.968051
2277.000000	99.794281
2276.000000	99.843321
2275.000000	99.932362
2274.000000	100.194507
2273.000000	99.869443
2272.000000	100.067897
2271.000000	99.895445
2270.000000	99.774282
2269.000000	99.997878
2268.000000	99.941071
2267.000000	99.970854
2266.000000	100.027233
2265.000000	100.116600
2264.000000	100.172428
2263.000000	99.966740
2262.000000	99.874934
2261.000000	99.977874
2260.000000	99.900559
2259.000000	99.981802
2258.000000	100.075106
2257.000000	99.979786
2256.000000	99.912365
2255.000000	99.843470
2254.000000	99.813688
2253.000000	99.807732
2252.000000	99.924744
2251.000000	100.126606
2250.000000	100.094573
2249.000000	99.923125
2248.000000	100.015172
2247.000000	99.965441
2246.000000	99.828756
2245.000000	99.978166
2244.000000	100.032670
2243.000000	100.050640
2242.000000	99.904316
2241.000000	99.724636
2240.000000	99.810585
2239.000000	99.839291
2238.000000	99.992314
2237.000000	100.092694
2236.000000	100.074365
2235.000000	100.118621
2234.000000	99.983615
2233.000000	99.861973
2232.000000	99.913580
2231.000000	99.933938
2230.000000	99.894027
2229.000000	99.837843
2228.000000	99.985240
2227.000000	100.017200
2226.000000	100.137679
2225.000000	100.188849
2224.000000	100.136391
2223.000000	100.206430
2222.000000	100.079690
2221.000000	100.008609
2220.000000	99.959707
2219.000000	99.875458
2218.000000	99.800495
2217.000000	99.908651
2216.000000	99.951385
2215.000000	99.995555
2214.000000	100.005458
2213.000000	100.160329
2212.000000	100.025988
2211.000000	99.925878
2210.000000	100.039659
2209.000000	99.983715
2208.000000	99.854366
2207.000000	100.083261
2206.000000	100.102476
2205.000000	100.031451
2204.000000	100.090151
2203.000000	100.004144
2202.000000	99.900626
2201.000000	99.863032
2200.000000	100.009190
2199.000000	99.953370
2198.000000	100.074806
2197.000000	100.067513
2196.000000	99.928427
2195.000000	99.980986
2194.000000	99.890234
2193.000000	99.946501
2192.000000	99.847942
2191.000000	99.984640
2190.000000	99.976346
2189.000000	100.036171
2188.000000	100.001817
2187.000000	99.952336
2186.000000	100.103517
2185.000000	100.018171
2184.000000	100.018364
2183.000000	100.024425
2182.000000	100.128739
2181.000000	100.073223
2180.000000	100.024526
2179.000000	99.920080
2178.000000	99.785676
2177.000000	100.045030
2176.000000	99.931432
2175.000000	100.023785
2174.000000	100.053538
2173.000000	99.947374
2172.000000	99.892637
2171.000000	99.776430
2170.000000	99.950570
2169.000000	99.940064
2168.000000	99.979047
2167.000000	99.985875
2166.000000	100.084923
2165.000000	100.075451
2164.000000	99.816063
2163.000000	99.926421
2162.000000	99.968779
2161.000000	100.100871
2160.000000	100.097339
2159.000000	99.987811
2158.000000	100.073981
2157.000000	100.030800
2156.000000	99.914479
2155.000000	100.121003
2154.000000	99.991353
2153.000000	100.117271
2152.000000	100.002917
2151.000000	100.063784
2150.000000	100.145457
2149.000000	99.857398
2148.000000	100.031072
2147.000000	100.267584
2146.000000	99.790184
2145.000000	99.810486
2144.000000	100.046865
2143.000000	100.094460
2142.000000	100.021549
2141.000000	99.961514
2140.000000	99.936665
2139.000000	100.063852
2138.000000	100.079798
2137.000000	100.032664
2136.000000	99.875241
2135.000000	99.985315
2134.000000	100.035871
2133.000000	99.848328
2132.000000	100.010865
2131.000000	99.925920
2130.000000	100.107303
2129.000000	99.753075
2128.000000	100.023540
2127.000000	100.060196
2126.000000	99.899099
2125.000000	99.966213
2124.000000	99.943801
2123.000000	99.950780
2122.000000	100.136489
2121.000000	100.112732
2120.000000	100.048188
2119.000000	99.805241
2118.000000	99.956607
2117.000000	99.940175
2116.000000	100.064504
2115.000000	100.214864
2114.000000	99.875740
2113.000000	100.053891
2112.000000	99.884695
2111.000000	99.989118
2110.000000	100.026309
2109.000000	100.061975
2108.000000	100.071941
2107.000000	100.055543
2106.000000	100.080111
2105.000000	99.978124
2104.000000	100.007558
2103.000000	99.945993
2102.000000	99.869708
2101.000000	100.084644
2100.000000	100.130489
2099.000000	100.066741
2098.000000	99.995964
2097.000000	99.970552
2096.000000	99.891406
2095.000000	100.052671
2094.000000	100.090629
2093.000000	100.093623
2092.000000	99.934936
2091.000000	99.956319
2090.000000	100.094636
2089.000000	100.119141
2088.000000	99.959450
2087.000000	99.872900
2086.000000	100.005247
2085.000000	100.131751
2084.000000	99.946514
2083.000000	99.999192
2082.000000	100.052810
2081.000000	99.989094
2080.000000	100.055719
2079.000000	100.187829
2078.000000	100.068072
2077.000000	100.068352
2076.000000	100.094868
2075.000000	99.959641
2074.000000	99.968996
2073.000000	100.102633
2072.000000	100.057955
2071.000000	99.992125
2070.000000	100.026970
2069.000000	99.904063
2068.000000	100.109164
2067.000000	100.143155
2066.000000	99.941108
2065.000000	99.921130
2064.000000	99.996060
2063.000000	100.045667
2062.000000	99.949732
2061.000000	99.995961
2060.000000	100.068811
2059.000000	99.982525
2058.000000	100.027876
2057.000000	100.003030
2056.000000	100.023639
2055.000000	100.066113
2054.000000	99.984338
2053.000000	100.000707
2052.000000	99.973123
2051.000000	99.947439
2050.000000	100.041156
2049.000000	100.035588
2048.000000	100.027891
2047.000000	99.969183
2046.000000	99.933391
2045.000000	99.979477
2044.000000	99.980296
2043.000000	99.961612
2042.000000	100.031337
2041.000000	100.049463
2040.000000	100.013049
2039.000000	99.988875
2038.000000	100.017096
2037.000000	99.961160
2036.000000	99.942249
2035.000000	100.003945
2034.000000	100.017299
2033.000000	100.026919
2032.000000	100.035122
2031.000000	100.004249
2030.000000	99.946691
2029.000000	99.964183
2028.000000	99.956097
2027.000000	99.935867
2026.000000	100.005566
2025.000000	99.991296
2024.000000	99.935130
2023.000000	99.985317
2022.000000	99.966385
2021.000000	99.982387
2020.000000	99.993521
2019.000000	100.043662
2018.000000	100.031719
2017.000000	99.954117
2016.000000	100.002735
2015.000000	99.993212
2014.000000	100.023714
2013.000000	100.020571
2012.000000	100.024121
2011.000000	100.032541
2010.000000	100.012668
2009.000000	99.986523
2008.000000	100.007197
2007.000000	99.967765
2006.000000	99.960061
2005.000000	100.000406
2004.000000	99.991990
2003.000000	99.960458
2002.000000	99.951542
2001.000000	100.022106
2000.000000	100.033157
1999.000000	100.031238
1998.000000	100.015312
1997.000000	99.953677
1996.000000	99.928736
1995.000000	99.985802
1994.000000	100.012478
1993.000000	100.008726
1992.000000	99.955973
1991.000000	99.947770
1990.000000	100.046075
1989.000000	100.071472
1988.000000	100.006089
1987.000000	100.001725
1986.000000	100.004260
1985.000000	99.949800
1984.000000	99.965207
1983.000000	99.957795
1982.000000	99.942583
1981.000000	100.009031
1980.000000	99.985998
1979.000000	100.001928
1978.000000	100.024360
1977.000000	99.983156
1976.000000	99.977168
1975.000000	100.034809
1974.000000	100.013598
1973.000000	100.011569
1972.000000	100.021317
1971.000000	100.023947
1970.000000	99.998580
1969.000000	99.997869
1968.000000	99.992391
1967.000000	99.959125
1966.000000	100.012889
1965.000000	100.027809
1964.000000	99.997869
1963.000000	100.029327
1962.000000	99.994826
1961.000000	99.960338
1960.000000	100.016032
1959.000000	99.967948
1958.000000	99.971497
1957.000000	99.993609
1956.000000	100.033583
1955.000000	99.905995
1954.000000	99.932046
1953.000000	100.023120
1952.000000	99.986311
1951.000000	99.982458
1950.000000	99.966029
1949.000000	100.035195
1948.000000	100.029623
1947.000000	100.019577
1946.000000	100.039033
1945.000000	100.026057
1944.000000	100.004259
1943.000000	99.981136
1942.000000	100.036802
1941.000000	99.952565
1940.000000	99.942827
1939.000000	99.974466
1938.000000	100.016108
1937.000000	99.950771
1936.000000	100.004557
1935.000000	99.978932
1934.000000	100.032410
1933.000000	99.980254
1932.000000	100.010834
1931.000000	99.994836
1930.000000	100.001013
1929.000000	100.047717
1928.000000	100.020955
1927.000000	99.987246
1926.000000	100.056696
1925.000000	99.952726
1924.000000	99.968502
1923.000000	99.878606
1922.000000	99.944246
1921.000000	100.064528
1920.000000	100.035649
1919.000000	100.081340
1918.000000	99.921436
1917.000000	99.948468
1916.000000	100.011235
1915.000000	100.031492
1914.000000	99.942906
1913.000000	100.006787
1912.000000	99.966164
1911.000000	100.032013
1910.000000	100.031810
1909.000000	99.961120
1908.000000	100.013672
1907.000000	100.002026
1906.000000	100.049540
1905.000000	100.021282
1904.000000	100.003850
1903.000000	100.026557
1902.000000	99.961087
1901.000000	99.949326
1900.000000	100.024435
1899.000000	99.986418
1898.000000	100.058931
1897.000000	99.921645
1896.000000	100.044523
1895.000000	100.058934
1894.000000	99.979617
1893.000000	99.973441
1892.000000	100.015420
1891.000000	100.057959
1890.000000	100.023531
1889.000000	99.981244
1888.000000	99.992700
1887.000000	100.019664
1886.000000	100.010034
1885.000000	100.003445
1884.000000	100.000608
1883.000000	99.938096
1882.000000	99.920204
1881.000000	99.967989
1880.000000	100.012661
1879.000000	99.980759
1878.000000	99.956565
1877.000000	100.038689
1876.000000	100.017517
1875.000000	99.981981
1874.000000	100.041712
1873.000000	99.996963
1872.000000	100.004050
1871.000000	99.966906
1870.000000	99.975506
1869.000000	99.995039
1868.000000	100.014175
1867.000000	99.963051
1866.000000	99.969325
1865.000000	100.002633
1864.000000	100.021774
1863.000000	100.033926
1862.000000	100.033418
1861.000000	99.986430
1860.000000	99.999899
1859.000000	100.024509
1858.000000	99.976302
1857.000000	99.965976
1856.000000	99.969423
1855.000000	100.050449
1854.000000	100.022085
1853.000000	100.003444
1852.000000	100.011242
1851.000000	100.034540
1850.000000	100.034529
1849.000000	100.020760
1848.000000	100.015699
1847.000000	99.999291
1846.000000	99.970334
1845.000000	99.996051
1844.000000	100.025016
1843.000000	100.000405
1842.000000	99.939985
1841.000000	99.982486
1840.000000	100.014177
1839.000000	100.009723
1838.000000	99.983692
1837.000000	99.979543
1836.000000	100.018437
1835.000000	100.043983
1834.000000	100.025739
1833.000000	99.997771
1832.000000	100.005674
1831.000000	100.014998
1830.000000	99.979429
1829.000000	99.977301
1828.000000	99.958051
1827.000000	99.960171
1826.000000	99.993410
1825.000000	99.985505
1824.000000	99.987635
1823.000000	99.968377
1822.000000	99.960267
1821.000000	100.006794
1820.000000	100.020487
1819.000000	100.013791
1818.000000	100.022514
1817.000000	100.015112
1816.000000	100.002940
1815.000000	99.990266
1814.000000	99.992495
1813.000000	100.011057
1812.000000	99.992596
1811.000000	99.965823
1810.000000	99.984176
1809.000000	99.986406
1808.000000	99.986913
1807.000000	99.997362
1806.000000	99.972101
1805.000000	99.976868
1804.000000	100.000000
1803.000000	100.012075
1802.000000	100.011162
1801.000000	99.987013
1800.000000	99.991782
1799.000000	99.988130
1798.000000	99.967538
1797.000000	99.985187
1796.000000	99.998377
1795.000000	100.004465
1794.000000	100.023952
1793.000000	99.972909
1792.000000	99.989243
1791.000000	100.007713
1790.000000	99.991071
1789.000000	99.990157
1788.000000	99.992388
1787.000000	99.980208
1786.000000	99.992083
1785.000000	100.001624
1784.000000	99.990155
1783.000000	99.989243
1782.000000	99.991679
1781.000000	99.964388
1780.000000	99.980314
1779.000000	100.010250
1778.000000	100.005074
1777.000000	99.988939
1776.000000	100.002842
1775.000000	99.993607
1774.000000	99.983563
1773.000000	99.996245
1772.000000	100.007715
1771.000000	100.015530
1770.000000	100.048424
1769.000000	99.983560
1768.000000	99.986505
1767.000000	99.998681
1766.000000	99.996448
1765.000000	100.004770
1764.000000	100.041516
1763.000000	99.999391
1762.000000	99.999290
1761.000000	99.991476
1760.000000	99.987924
1759.000000	100.007915
1758.000000	99.998579
1757.000000	99.989446
1756.000000	99.980417
1755.000000	99.985693
1754.000000	99.960438
1753.000000	99.974029
1752.000000	99.992998
1751.000000	99.984987
1750.000000	100.022221
1749.000000	100.048816
1748.000000	100.000101
1747.000000	99.985389
1746.000000	100.003044
1745.000000	100.007306
1744.000000	99.991985
1743.000000	99.982445
1742.000000	99.981127
1741.000000	99.996450
1740.000000	100.028002
1739.000000	99.993101
1738.000000	100.006391
1737.000000	100.005276
1736.000000	99.981840
1735.000000	100.038261
1734.000000	100.019890
1733.000000	99.992391
1732.000000	99.953337
1731.000000	99.956786
1730.000000	99.984883
1729.000000	99.946436
1728.000000	100.002334
1727.000000	100.023945
1726.000000	100.022927
1725.000000	99.986101
1724.000000	99.968347
1723.000000	100.004159
1722.000000	99.961664
1721.000000	99.993000
1720.000000	100.019784
1719.000000	100.018768
1718.000000	99.992291
1717.000000	99.983869
1716.000000	100.016639
1715.000000	99.989044
1714.000000	100.003550
1713.000000	100.035110
1712.000000	100.006188
1711.000000	99.991378
1710.000000	100.011363
1709.000000	99.994826
1708.000000	99.987931
1707.000000	99.998072
1706.000000	99.997261
1705.000000	100.045050
1704.000000	100.005174
1703.000000	100.001217
1702.000000	99.987930
1701.000000	99.988437
1700.000000	100.027995
1699.000000	99.997870
1698.000000	99.961976
1697.000000	99.976066
1696.000000	100.034596
1695.000000	99.931960
1694.000000	100.023635
1693.000000	100.024349
1692.000000	99.962476
1691.000000	99.973833
1690.000000	100.010447
1689.000000	99.959127
1688.000000	99.963591
1687.000000	99.975860
1686.000000	99.983267
1685.000000	100.002840
1684.000000	99.992698
1683.000000	100.002333
1682.000000	99.957812
1681.000000	99.988031
1680.000000	99.993204
1679.000000	100.016637
1678.000000	100.025568
1677.000000	99.999391
1676.000000	99.961567
1675.000000	99.964713
1674.000000	100.009029
1673.000000	100.018867
1672.000000	99.985294
1671.000000	100.002333
1670.000000	100.025866
1669.000000	99.999290
1668.000000	99.997263
1667.000000	100.006489
1666.000000	99.992701
1665.000000	100.023219
1664.000000	99.987733
1663.000000	100.002738
1662.000000	100.030417
1661.000000	99.993815
1660.000000	100.016932
1659.000000	100.018352
1658.000000	99.982058
1657.000000	99.982974
1656.000000	100.000101
1655.000000	99.980841
1654.000000	100.003143
1653.000000	100.035181
1652.000000	100.028186
1651.000000	99.992600
1650.000000	99.978208
1649.000000	99.979928
1648.000000	99.974150
1647.000000	99.969287
1646.000000	99.993106
1645.000000	100.007300
1644.000000	100.029406
1643.000000	99.991890
1642.000000	99.983782
1641.000000	99.976887
1640.000000	100.000304
1639.000000	99.991284
1638.000000	99.974766
1637.000000	99.978715
1636.000000	99.994324
1635.000000	100.016929
1634.000000	100.010036
1633.000000	100.000405
1632.000000	99.999493
1631.000000	99.973850
1630.000000	99.981854
1629.000000	100.007908
1628.000000	100.006082
1627.000000	99.982566
1626.000000	99.986519
1625.000000	99.970811
1624.000000	99.975168
1623.000000	99.987330
1622.000000	99.999088
1621.000000	99.994526
1620.000000	99.998581
1619.000000	99.988849
1618.000000	99.998378
1617.000000	99.994830
1616.000000	99.996350
1615.000000	99.986620
1614.000000	99.979223
1613.000000	99.994324
1612.000000	100.005170
1611.000000	100.010644
1610.000000	100.006386
1609.000000	100.004763
1608.000000	99.992905
1607.000000	99.979325
1606.000000	99.982264
1605.000000	99.973650
1604.000000	99.981553
1603.000000	99.991587
1602.000000	99.984899
1601.000000	99.978513
1600.000000	99.996959
1599.000000	100.019870
1598.000000	100.003649
1597.000000	99.988751
1596.000000	99.993919
1595.000000	99.980846
1594.000000	99.993108
1593.000000	99.988851
1592.000000	99.981150
1591.000000	99.989055
1590.000000	99.995439
1589.000000	100.009123
1588.000000	100.006285
1587.000000	100.008413
1586.000000	100.008211
1585.000000	99.981857
1584.000000	100.001115
1583.000000	100.000811
1582.000000	99.980746
1581.000000	99.973450
1580.000000	99.961497
1579.000000	99.974264
1578.000000	99.984901
1577.000000	99.990373
1576.000000	100.009831
1575.000000	99.996554
1574.000000	100.003344
1573.000000	100.019154
1572.000000	100.004865
1571.000000	99.992805
1570.000000	99.978516
1569.000000	99.981455
1568.000000	100.005574
1567.000000	99.991995
1566.000000	99.975683
1565.000000	99.971835
1564.000000	100.006789
1563.000000	100.010640
1562.000000	99.997771
1561.000000	100.000405
1560.000000	99.987942
1559.000000	100.001216
1558.000000	99.995947
1557.000000	99.993110
1556.000000	100.012971
1555.000000	100.003141
1554.000000	99.992401
1553.000000	99.982068
1552.000000	99.995036
1551.000000	100.022898
1550.000000	100.006686
1549.000000	100.000912
1548.000000	100.010334
1547.000000	99.997974
1546.000000	99.987235
1545.000000	100.002735
1544.000000	99.993922
1543.000000	99.987944
1542.000000	100.002026
1541.000000	100.001013
1540.000000	99.998480
1539.000000	99.998480
1538.000000	100.002938
1537.000000	100.003039
1536.000000	100.010839
1535.000000	99.996050
1534.000000	100.000000
1533.000000	99.995036
1532.000000	99.990984
1531.000000	99.987136
1530.000000	99.989567
1529.000000	99.993720
1528.000000	99.996454
1527.000000	100.000304
1526.000000	99.994833
1525.000000	100.010437
1524.000000	99.997467
1523.000000	100.006890
1522.000000	99.996150
1521.000000	100.001115
1520.000000	100.016213
1519.000000	99.983688
1518.000000	99.995744
1517.000000	100.002736
1516.000000	99.986221
1515.000000	100.007498
1514.000000	99.973860
1513.000000	99.996757
1512.000000	99.995744
1511.000000	100.015808
1510.000000	99.997771
1509.000000	100.006485
1508.000000	100.015303
1507.000000	99.985608
1506.000000	99.997973
1505.000000	99.987334
1504.000000	100.004358
1503.000000	99.994932
1502.000000	99.988953
1501.000000	99.975374
1500.000000	99.994325
1499.000000	99.994224
1498.000000	99.985915
1497.000000	100.009932
1496.000000	100.002736
1495.000000	99.987029
1494.000000	100.004965
1493.000000	99.989056
1492.000000	99.996555
1491.000000	100.008309
1490.000000	100.010539
1489.000000	99.991184
1488.000000	100.012262
