PE UV       SUBTECH     SPECTRUM    ASCII       PEDS        4.00        
   -1
Empty chamber.Sample2D.asc
18/03/02
13:59:37.00
18/03/02
13:59:37.00
Administrator

200.000000
1
Lambda 750
750N8071901
PerkinElmer UV WinLab 6.0.4.0738 / 1.61.00 Lambda 900

0
0
3350/servo 860.8/2
0
0
UV/VIS
1
1
1
CommonBeamDepol,150mm sphere / downward view
0
0
0
0
Program
Program
3350/servo 860.8/2
3350/0.2 860.8/0.2
3350/0.2 860.8/0.2
0
1
 
 
 
0
 
860.8
319.2
860.8
Front
100
on
 
 
0
0
0
 
0
 
 
 
0
 
 
0
0
0
0
0
 
 
 
 
0
0


0
0
#HDR
-1
-1
#GR
nm
%T
1.0
0.0
2350.000000
-1.000000
2151
8
100.796071
99.132396
#DATA
2350.000000	100.150983
2349.000000	99.714743
2348.000000	99.694120
2347.000000	100.796071
2346.000000	99.925928
2345.000000	100.016431
2344.000000	99.938579
2343.000000	99.496161
2342.000000	99.827234
2341.000000	99.955118
2340.000000	100.036575
2339.000000	100.151325
2338.000000	100.064967
2337.000000	99.663202
2336.000000	99.846094
2335.000000	100.231986
2334.000000	100.296399
2333.000000	100.071310
2332.000000	100.284056
2331.000000	100.197575
2330.000000	99.847522
2329.000000	100.087099
2328.000000	99.893474
2327.000000	100.050306
2326.000000	100.077508
2325.000000	100.120234
2324.000000	100.057771
2323.000000	100.101190
2322.000000	99.955375
2321.000000	99.607475
2320.000000	99.941356
2319.000000	99.879118
2318.000000	99.873564
2317.000000	100.159078
2316.000000	100.100653
2315.000000	100.059210
2314.000000	100.027079
2313.000000	100.259685
2312.000000	99.932930
2311.000000	100.122458
2310.000000	100.074477
2309.000000	100.096773
2308.000000	99.973652
2307.000000	100.053553
2306.000000	99.872487
2305.000000	99.748767
2304.000000	99.726268
2303.000000	100.007162
2302.000000	99.987172
2301.000000	99.884320
2300.000000	99.994941
2299.000000	100.053734
2298.000000	99.959682
2297.000000	99.968663
2296.000000	99.958593
2295.000000	100.088146
2294.000000	100.006060
2293.000000	100.026477
2292.000000	100.049692
2291.000000	99.904107
2290.000000	99.938681
2289.000000	100.177632
2288.000000	100.242740
2287.000000	100.181003
2286.000000	99.856721
2285.000000	99.815359
2284.000000	100.027075
2283.000000	99.906570
2282.000000	99.673680
2281.000000	100.075935
2280.000000	100.047637
2279.000000	100.047870
2278.000000	99.954543
2277.000000	99.875163
2276.000000	99.780333
2275.000000	100.009081
2274.000000	99.929880
2273.000000	99.959613
2272.000000	100.104178
2271.000000	99.966969
2270.000000	100.085369
2269.000000	100.091076
2268.000000	100.164255
2267.000000	100.034888
2266.000000	99.829382
2265.000000	99.949239
2264.000000	100.064058
2263.000000	99.971009
2262.000000	99.887343
2261.000000	99.989088
2260.000000	99.998384
2259.000000	99.868613
2258.000000	99.919254
2257.000000	99.866901
2256.000000	99.960484
2255.000000	100.062958
2254.000000	99.855980
2253.000000	99.808570
2252.000000	100.094760
2251.000000	100.159266
2250.000000	99.982012
2249.000000	99.939568
2248.000000	100.000506
2247.000000	100.027022
2246.000000	100.072017
2245.000000	100.123409
2244.000000	100.068514
2243.000000	100.070321
2242.000000	100.063066
2241.000000	99.992119
2240.000000	99.961904
2239.000000	99.971395
2238.000000	100.018097
2237.000000	99.963297
2236.000000	99.958037
2235.000000	99.935912
2234.000000	99.875569
2233.000000	99.878754
2232.000000	99.845894
2231.000000	99.973418
2230.000000	99.898105
2229.000000	99.802188
2228.000000	99.959393
2227.000000	100.008289
2226.000000	99.989177
2225.000000	99.890387
2224.000000	99.848361
2223.000000	99.900356
2222.000000	100.153886
2221.000000	100.164687
2220.000000	100.029327
2219.000000	99.992821
2218.000000	100.083729
2217.000000	100.074762
2216.000000	100.018478
2215.000000	99.962430
2214.000000	99.955766
2213.000000	100.088042
2212.000000	100.079092
2211.000000	99.888974
2210.000000	99.946249
2209.000000	99.840296
2208.000000	99.764974
2207.000000	99.804125
2206.000000	100.082110
2205.000000	99.984252
2204.000000	100.158582
2203.000000	100.072153
2202.000000	100.061281
2201.000000	99.992330
2200.000000	99.926281
2199.000000	99.984869
2198.000000	100.056754
2197.000000	100.158715
2196.000000	100.070355
2195.000000	99.969704
2194.000000	99.995763
2193.000000	99.993039
2192.000000	100.026959
2191.000000	100.116844
2190.000000	100.186544
2189.000000	100.116533
2188.000000	99.986480
2187.000000	99.921125
2186.000000	100.008170
2185.000000	100.134021
2184.000000	100.188543
2183.000000	100.304092
2182.000000	99.899350
2181.000000	99.925613
2180.000000	100.056465
2179.000000	100.011995
2178.000000	99.948230
2177.000000	99.963736
2176.000000	99.989004
2175.000000	99.986299
2174.000000	100.144380
2173.000000	100.059271
2172.000000	99.968694
2171.000000	100.073006
2170.000000	99.805616
2169.000000	99.948945
2168.000000	99.998388
2167.000000	99.928335
2166.000000	100.067910
2165.000000	100.062311
2164.000000	100.010672
2163.000000	100.029801
2162.000000	99.897655
2161.000000	100.072446
2160.000000	100.054874
2159.000000	100.012074
2158.000000	99.987718
2157.000000	99.831556
2156.000000	99.817130
2155.000000	100.031290
2154.000000	100.087060
2153.000000	100.279190
2152.000000	99.877342
2151.000000	99.764830
2150.000000	100.010672
2149.000000	99.805632
2148.000000	100.014985
2147.000000	100.086358
2146.000000	100.105596
2145.000000	99.830033
2144.000000	99.912679
2143.000000	99.756084
2142.000000	99.926374
2141.000000	100.056505
2140.000000	99.966048
2139.000000	99.921627
2138.000000	100.222351
2137.000000	99.921645
2136.000000	99.974665
2135.000000	100.070969
2134.000000	99.924667
2133.000000	100.211893
2132.000000	99.804741
2131.000000	100.079256
2130.000000	99.999899
2129.000000	99.769753
2128.000000	99.929375
2127.000000	100.177853
2126.000000	99.806318
2125.000000	99.985528
2124.000000	100.012079
2123.000000	100.197919
2122.000000	100.099606
2121.000000	99.976860
2120.000000	99.877985
2119.000000	99.877690
2118.000000	99.922139
2117.000000	99.987925
2116.000000	99.967723
2115.000000	100.067944
2114.000000	99.806730
2113.000000	99.810640
2112.000000	100.226668
2111.000000	99.837279
2110.000000	100.041000
2109.000000	100.064909
2108.000000	100.239504
2107.000000	100.045043
2106.000000	100.130361
2105.000000	99.943772
2104.000000	100.013703
2103.000000	100.067659
2102.000000	100.062116
2101.000000	99.981664
2100.000000	100.116328
2099.000000	99.965525
2098.000000	99.876573
2097.000000	100.178511
2096.000000	100.066134
2095.000000	99.957262
2094.000000	100.149990
2093.000000	100.011901
2092.000000	100.057222
2091.000000	100.025614
2090.000000	99.962105
2089.000000	99.988807
2088.000000	99.983869
2087.000000	100.020767
2086.000000	100.136124
2085.000000	100.077446
2084.000000	99.825199
2083.000000	99.988504
2082.000000	100.056622
2081.000000	99.891097
2080.000000	99.922334
2079.000000	100.000807
2078.000000	100.011801
2077.000000	99.962386
2076.000000	99.940593
2075.000000	100.035202
2074.000000	99.889220
2073.000000	100.009684
2072.000000	100.037328
2071.000000	100.046411
2070.000000	100.121477
2069.000000	100.087706
2068.000000	100.068371
2067.000000	100.007064
2066.000000	99.900292
2065.000000	100.012821
2064.000000	100.061805
2063.000000	99.958306
2062.000000	99.895684
2061.000000	99.908398
2060.000000	99.867668
2059.000000	99.921479
2058.000000	99.987888
2057.000000	100.003734
2056.000000	100.090167
2055.000000	100.002221
2054.000000	99.976268
2053.000000	100.001818
2052.000000	100.053848
2051.000000	99.995657
2050.000000	99.984655
2049.000000	100.045554
2048.000000	100.025658
2047.000000	100.035167
2046.000000	99.975144
2045.000000	99.969293
2044.000000	100.018184
2043.000000	100.038088
2042.000000	100.050014
2041.000000	100.022329
2040.000000	100.033043
2039.000000	100.018699
2038.000000	100.007278
2037.000000	99.978075
2036.000000	99.930815
2035.000000	99.906963
2034.000000	99.971099
2033.000000	100.025675
2032.000000	100.010516
2031.000000	99.973512
2030.000000	99.948046
2029.000000	99.949465
2028.000000	99.983630
2027.000000	99.999899
2026.000000	100.060488
2025.000000	100.060792
2024.000000	100.017598
2023.000000	100.054635
2022.000000	100.001315
2021.000000	99.985738
2020.000000	100.012948
2019.000000	100.012848
2018.000000	99.985939
2017.000000	99.994941
2016.000000	99.955688
2015.000000	99.936902
2014.000000	99.961776
2013.000000	99.956913
2012.000000	99.957525
2011.000000	100.010925
2010.000000	100.018620
2009.000000	100.028543
2008.000000	100.007288
2007.000000	99.957590
2006.000000	99.945752
2005.000000	99.998785
2004.000000	100.010834
2003.000000	100.008100
2002.000000	100.007696
2001.000000	100.021064
2000.000000	100.013371
1999.000000	99.970631
1998.000000	99.968612
1997.000000	99.989366
1996.000000	100.001519
1995.000000	99.971748
1994.000000	99.941071
1993.000000	99.992909
1992.000000	99.986425
1991.000000	99.975587
1990.000000	100.011454
1989.000000	100.011859
1988.000000	99.990070
1987.000000	100.016929
1986.000000	100.006487
1985.000000	99.982056
1984.000000	99.982973
1983.000000	100.005471
1982.000000	100.028373
1981.000000	100.012667
1980.000000	100.010541
1979.000000	100.017334
1978.000000	100.023723
1977.000000	99.983276
1976.000000	99.940228
1975.000000	99.968280
1974.000000	99.974364
1973.000000	99.935966
1972.000000	99.962191
1971.000000	99.975886
1970.000000	99.960079
1969.000000	99.954214
1968.000000	100.005067
1967.000000	99.920794
1966.000000	99.963938
1965.000000	99.955120
1964.000000	99.922411
1963.000000	99.984900
1962.000000	99.990777
1961.000000	100.000203
1960.000000	100.010337
1959.000000	100.069824
1958.000000	99.967491
1957.000000	100.042971
1956.000000	100.034961
1955.000000	99.954226
1954.000000	100.025119
1953.000000	100.008710
1952.000000	100.002734
1951.000000	99.954853
1950.000000	99.946658
1949.000000	99.958089
1948.000000	99.965275
1947.000000	99.991089
1946.000000	100.039488
1945.000000	99.969123
1944.000000	99.945154
1943.000000	99.885868
1942.000000	100.050638
1941.000000	99.979456
1940.000000	99.939768
1939.000000	99.930704
1938.000000	99.934463
1937.000000	100.028941
1936.000000	99.985638
1935.000000	99.900502
1934.000000	99.999798
1933.000000	100.014665
1932.000000	99.976534
1931.000000	99.979776
1930.000000	99.966115
1929.000000	100.023677
1928.000000	99.927090
1927.000000	100.033069
1926.000000	99.885771
1925.000000	99.949955
1924.000000	100.034362
1923.000000	99.966854
1922.000000	99.960285
1921.000000	100.004348
1920.000000	99.909746
1919.000000	100.023671
1918.000000	100.003338
1917.000000	99.925309
1916.000000	99.942985
1915.000000	99.979374
1914.000000	99.948022
1913.000000	100.019828
1912.000000	100.012651
1911.000000	99.965817
1910.000000	100.058396
1909.000000	100.026817
1908.000000	99.926608
1907.000000	99.967736
1906.000000	100.003643
1905.000000	99.976624
1904.000000	99.906523
1903.000000	99.923628
1902.000000	99.977433
1901.000000	99.952344
1900.000000	100.026009
1899.000000	99.936444
1898.000000	100.010630
1897.000000	99.971447
1896.000000	100.021159
1895.000000	99.991291
1894.000000	99.918611
1893.000000	99.951822
1892.000000	99.929452
1891.000000	99.980454
1890.000000	99.979546
1889.000000	99.996457
1888.000000	100.008097
1887.000000	99.918835
1886.000000	99.992613
1885.000000	100.049270
1884.000000	100.020233
1883.000000	100.026803
1882.000000	99.940257
1881.000000	99.963705
1880.000000	99.979078
1879.000000	99.975546
1878.000000	99.968572
1877.000000	100.045697
1876.000000	99.966857
1875.000000	99.972420
1874.000000	100.022842
1873.000000	100.029407
1872.000000	99.961102
1871.000000	99.946669
1870.000000	99.937191
1869.000000	100.027277
1868.000000	100.011621
1867.000000	99.917982
1866.000000	99.954238
1865.000000	100.027589
1864.000000	99.983525
1863.000000	99.984235
1862.000000	99.983323
1861.000000	100.000404
1860.000000	99.987769
1859.000000	99.998180
1858.000000	99.974728
1857.000000	99.945016
1856.000000	99.940169
1855.000000	99.952395
1854.000000	99.983926
1853.000000	99.994845
1852.000000	99.957142
1851.000000	99.972607
1850.000000	99.960384
1849.000000	99.952811
1848.000000	99.958366
1847.000000	99.994945
1846.000000	99.992822
1845.000000	99.936726
1844.000000	99.951585
1843.000000	99.904042
1842.000000	99.932516
1841.000000	99.977162
1840.000000	99.959177
1839.000000	99.970594
1838.000000	100.004043
1837.000000	100.011021
1836.000000	99.972905
1835.000000	99.979370
1834.000000	99.992009
1833.000000	99.977743
1832.000000	99.974806
1831.000000	99.983813
1830.000000	99.976933
1829.000000	99.970051
1828.000000	99.942234
1827.000000	99.931302
1826.000000	99.988463
1825.000000	100.012147
1824.000000	100.012758
1823.000000	99.994936
1822.000000	99.955839
1821.000000	99.977411
1820.000000	99.970227
1819.000000	99.947752
1818.000000	99.964142
1817.000000	100.002736
1816.000000	100.001114
1815.000000	99.997973
1814.000000	99.992601
1813.000000	99.950654
1812.000000	99.937592
1811.000000	99.969702
1810.000000	99.983279
1809.000000	99.996351
1808.000000	100.015208
1807.000000	99.998378
1806.000000	100.001926
1805.000000	99.981044
1804.000000	99.960474
1803.000000	99.998276
1802.000000	100.006896
1801.000000	99.985094
1800.000000	99.955491
1799.000000	99.970194
1798.000000	99.989962
1797.000000	99.974348
1796.000000	99.965831
1795.000000	99.972417
1794.000000	100.001521
1793.000000	99.987830
1792.000000	99.991480
1791.000000	100.010143
1790.000000	99.975152
1789.000000	99.979716
1788.000000	100.015826
1787.000000	100.009941
1786.000000	99.977488
1785.000000	100.000913
1784.000000	99.985089
1783.000000	99.967035
1782.000000	99.977688
1781.000000	99.979108
1780.000000	99.982151
1779.000000	99.984178
1778.000000	99.984279
1777.000000	99.965316
1776.000000	99.988234
1775.000000	99.996551
1774.000000	99.996653
1773.000000	99.974443
1772.000000	99.989349
1771.000000	99.965009
1770.000000	99.977382
1769.000000	99.986104
1768.000000	99.963289
1767.000000	99.972618
1766.000000	99.970389
1765.000000	99.989453
1764.000000	100.013087
1763.000000	99.994320
1762.000000	100.022322
1761.000000	100.015016
1760.000000	99.998580
1759.000000	99.993408
1758.000000	99.989755
1757.000000	100.019374
1756.000000	100.021609
1755.000000	100.004463
1754.000000	99.994220
1753.000000	99.983977
1752.000000	99.975661
1751.000000	99.987425
1750.000000	99.991584
1749.000000	100.032762
1748.000000	100.012071
1747.000000	99.994119
1746.000000	100.015622
1745.000000	99.988842
1744.000000	99.986712
1743.000000	99.985193
1742.000000	99.996552
1741.000000	99.999493
1740.000000	100.002738
1739.000000	99.997262
1738.000000	99.967657
1737.000000	99.956212
1736.000000	99.973849
1735.000000	99.999797
1734.000000	99.985096
1733.000000	99.965528
1732.000000	99.978710
1731.000000	100.016431
1730.000000	99.957313
1729.000000	99.973742
1728.000000	99.997059
1727.000000	99.960752
1726.000000	99.975762
1725.000000	99.998580
1724.000000	99.970502
1723.000000	99.984183
1722.000000	99.989253
1721.000000	100.016630
1720.000000	100.052032
1719.000000	99.994728
1718.000000	99.993105
1717.000000	99.997262
1716.000000	100.003549
1715.000000	99.973746
1714.000000	99.968671
1713.000000	99.987831
1712.000000	99.989252
1711.000000	100.003143
1710.000000	99.974248
1709.000000	99.948715
1708.000000	99.965031
1707.000000	99.979518
1706.000000	99.990166
1705.000000	99.987227
1704.000000	99.973031
1703.000000	99.989658
1702.000000	99.973236
1701.000000	100.023929
1700.000000	99.978209
1699.000000	100.007907
1698.000000	99.984793
1697.000000	99.998378
1696.000000	100.006387
1695.000000	99.966250
1694.000000	100.016425
1693.000000	99.992498
1692.000000	99.953476
1691.000000	100.040963
1690.000000	100.011457
1689.000000	99.974656
1688.000000	99.964727
1687.000000	99.993918
1686.000000	99.991383
1685.000000	99.985505
1684.000000	99.991789
1683.000000	99.987734
1682.000000	99.981552
1681.000000	100.008617
1680.000000	99.995539
1679.000000	100.003954
1678.000000	99.982464
1677.000000	100.005880
1676.000000	99.995540
1675.000000	99.982767
1674.000000	100.009124
1673.000000	100.023015
1672.000000	99.974254
1671.000000	99.978209
1670.000000	100.000304
1669.000000	99.992501
1668.000000	99.981156
1667.000000	100.001419
1666.000000	99.992806
1665.000000	100.012059
1664.000000	99.994630
1663.000000	99.978517
1662.000000	99.974468
1661.000000	99.977204
1660.000000	99.968594
1659.000000	99.991085
1658.000000	100.013883
1657.000000	99.972037
1656.000000	99.977204
1655.000000	99.998987
1654.000000	100.011349
1653.000000	100.007294
1652.000000	100.003242
1651.000000	100.012056
1650.000000	100.008105
1649.000000	99.995035
1648.000000	99.999595
1647.000000	100.009120
1646.000000	99.989969
1645.000000	99.969704
1644.000000	99.987134
1643.000000	99.992706
1642.000000	99.985005
1641.000000	99.988147
1640.000000	100.005876
1639.000000	99.996758
1638.000000	99.975993
1637.000000	99.978726
1636.000000	99.970620
1635.000000	99.970924
1634.000000	99.976294
1633.000000	99.979842
1632.000000	99.989363
1631.000000	100.004762
1630.000000	99.991287
1629.000000	99.988653
1628.000000	99.999392
1627.000000	100.002026
1626.000000	100.005978
1625.000000	99.990073
1624.000000	99.993922
1623.000000	99.998177
1622.000000	99.985717
1621.000000	99.987338
1620.000000	99.995441
1619.000000	99.984501
1618.000000	99.978729
1617.000000	99.999595
1616.000000	100.000507
1615.000000	99.975284
1614.000000	99.994023
1613.000000	99.998582
1612.000000	99.989060
1611.000000	99.999291
1610.000000	99.997670
1609.000000	100.000101
1608.000000	99.995847
1607.000000	99.966476
1606.000000	99.963235
1605.000000	99.965869
1604.000000	99.976399
1603.000000	99.985110
1602.000000	99.991593
1601.000000	100.009522
1600.000000	100.012966
1599.000000	100.005267
1598.000000	99.985921
1597.000000	99.984604
1596.000000	99.985921
1595.000000	99.984402
1594.000000	99.992505
1593.000000	99.986731
1592.000000	99.983085
1591.000000	100.002533
1590.000000	100.000507
1589.000000	99.980250
1588.000000	100.005166
1587.000000	100.018034
1586.000000	99.991086
1585.000000	99.984402
1584.000000	99.970831
1583.000000	99.972047
1582.000000	99.983593
1581.000000	99.980557
1580.000000	99.976710
1579.000000	99.976709
1578.000000	99.997569
1577.000000	99.989062
1576.000000	99.985619
1575.000000	100.000709
1574.000000	99.995138
1573.000000	99.988555
1572.000000	99.998278
1571.000000	99.981063
1570.000000	99.990481
1569.000000	100.002937
1568.000000	99.995949
1567.000000	99.994937
1566.000000	99.999494
1565.000000	99.996456
1564.000000	99.984610
1563.000000	99.957478
1562.000000	99.989063
1561.000000	100.003545
1560.000000	99.990582
1559.000000	99.995443
1558.000000	99.988152
1557.000000	99.991494
1556.000000	99.982382
1555.000000	99.975599
1554.000000	99.992609
1553.000000	99.994533
1552.000000	100.002734
1551.000000	99.990382
1550.000000	99.985928
1549.000000	99.982891
1548.000000	99.988763
1547.000000	99.987345
1546.000000	99.993419
1545.000000	99.985522
1544.000000	99.975097
1543.000000	100.001316
1542.000000	100.011745
1541.000000	99.999190
1540.000000	100.007087
1539.000000	100.005062
1538.000000	99.980869
1537.000000	99.985121
1536.000000	99.982490
1535.000000	99.978745
1534.000000	99.978340
1533.000000	99.995849
1532.000000	99.991092
1531.000000	99.982489
1530.000000	100.000101
1529.000000	99.995647
1528.000000	99.984004
1527.000000	99.990988
1526.000000	99.991394
1525.000000	99.992609
1524.000000	99.966592
1523.000000	99.979650
1522.000000	99.989369
1521.000000	99.977017
1520.000000	99.987645
1519.000000	99.980359
1518.000000	99.973476
1517.000000	99.979345
1516.000000	99.992508
1515.000000	99.975499
1514.000000	99.989368
1513.000000	99.973575
1512.000000	99.995039
1511.000000	99.977624
1510.000000	99.975093
1509.000000	100.011953
1508.000000	99.998582
1507.000000	99.976509
1506.000000	99.974080
1505.000000	99.973981
1504.000000	99.995645
1503.000000	100.005165
1502.000000	99.993418
1501.000000	99.988761
1500.000000	99.990178
1499.000000	99.986634
1498.000000	99.993519
1497.000000	99.980965
1496.000000	100.008202
1495.000000	99.989369
1494.000000	99.974487
1493.000000	99.977729
1492.000000	99.990989
1491.000000	99.985824
1490.000000	99.991900
1489.000000	99.992002
1488.000000	100.001822
1487.000000	99.986838
1486.000000	99.972468
1485.000000	99.996153
1484.000000	100.032094
