PE UV       SUBTECH     SPECTRUM    ASCII       PEDS        4.00        
   -1
RTAgneauUK 12.Sample.asc
18/03/02
15:19:21.00
18/03/02
15:19:21.00
Administrator

200.000000
1
Lambda 750
750N8071901
PerkinElmer UV WinLab 6.0.4.0738 / 1.61.00 Lambda 900

0
0
3350/servo 860.8/2
0
0
UV/VIS
1
1
1
CommonBeamDepol,150mm sphere / downward view
0
0
0
0
Program
Program
3350/servo 860.8/2
3350/0.2 860.8/0.2
3350/0.2 860.8/0.2
0
1
 
 
 
0
 
860.8
319.2
860.8
Front
100
on
 
 
0
0
0
 
0
 
 
 
0
 
 
0
0
0
0
0
 
 
 
 
0
0


0
0
#HDR
-1
-1
#GR
nm
%R
1.0
0.0
2350.000000
-1.000000
2151
8
72.273098
17.465961
#DATA
2350.000000	44.941128
2349.000000	44.657497
2348.000000	44.455580
2347.000000	45.565031
2346.000000	45.228097
2345.000000	45.000978
2344.000000	44.910207
2343.000000	44.474500
2342.000000	45.047921
2341.000000	44.875126
2340.000000	44.943419
2339.000000	45.487771
2338.000000	45.082147
2337.000000	45.036924
2336.000000	45.541450
2335.000000	45.510812
2334.000000	45.481629
2333.000000	45.494971
2332.000000	45.630750
2331.000000	45.284000
2330.000000	44.948118
2329.000000	45.219388
2328.000000	45.301777
2327.000000	45.245183
2326.000000	45.179930
2325.000000	45.126433
2324.000000	45.178675
2323.000000	45.019935
2322.000000	45.055004
2321.000000	44.946643
2320.000000	44.946177
2319.000000	44.644964
2318.000000	44.840805
2317.000000	44.858520
2316.000000	44.807026
2315.000000	44.698744
2314.000000	44.551234
2313.000000	44.458024
2312.000000	44.626037
2311.000000	44.484444
2310.000000	44.278401
2309.000000	44.436538
2308.000000	44.017832
2307.000000	44.048941
2306.000000	43.943337
2305.000000	43.880130
2304.000000	43.698165
2303.000000	43.642649
2302.000000	43.801304
2301.000000	43.564089
2300.000000	43.505828
2299.000000	43.361391
2298.000000	43.262601
2297.000000	43.143625
2296.000000	43.185892
2295.000000	43.246522
2294.000000	42.975345
2293.000000	42.921573
2292.000000	42.779979
2291.000000	42.781539
2290.000000	42.744088
2289.000000	42.666346
2288.000000	42.656128
2287.000000	42.399228
2286.000000	42.323045
2285.000000	42.321251
2284.000000	42.458658
2283.000000	42.477805
2282.000000	42.279577
2281.000000	42.294023
2280.000000	42.452237
2279.000000	42.454038
2278.000000	42.411083
2277.000000	42.274397
2276.000000	42.220951
2275.000000	42.344499
2274.000000	42.346928
2273.000000	42.492604
2272.000000	42.570146
2271.000000	42.485676
2270.000000	42.559627
2269.000000	42.724507
2268.000000	42.803172
2267.000000	42.825577
2266.000000	42.935896
2265.000000	43.066079
2264.000000	43.126222
2263.000000	43.223450
2262.000000	43.369171
2261.000000	43.547820
2260.000000	43.591657
2259.000000	43.736591
2258.000000	44.009738
2257.000000	44.155037
2256.000000	44.319979
2255.000000	44.572621
2254.000000	44.784410
2253.000000	44.894628
2252.000000	45.126762
2251.000000	45.358637
2250.000000	45.519571
2249.000000	45.640987
2248.000000	45.796609
2247.000000	46.108996
2246.000000	46.424244
2245.000000	46.583511
2244.000000	46.608110
2243.000000	46.721657
2242.000000	47.059781
2241.000000	47.213463
2240.000000	47.259749
2239.000000	47.428796
2238.000000	47.571421
2237.000000	47.721372
2236.000000	47.947395
2235.000000	48.017116
2234.000000	48.033754
2233.000000	48.205766
2232.000000	48.256021
2231.000000	48.344682
2230.000000	48.386953
2229.000000	48.331318
2228.000000	48.356487
2227.000000	48.518964
2226.000000	48.474657
2225.000000	48.367036
2224.000000	48.345764
2223.000000	48.360623
2222.000000	48.493488
2221.000000	48.490367
2220.000000	48.370606
2219.000000	48.343697
2218.000000	48.314240
2217.000000	48.175160
2216.000000	48.209208
2215.000000	48.199184
2214.000000	48.159684
2213.000000	48.276207
2212.000000	48.246981
2211.000000	48.036187
2210.000000	47.983915
2209.000000	47.860103
2208.000000	47.778760
2207.000000	47.688931
2206.000000	47.701687
2205.000000	47.610698
2204.000000	47.640167
2203.000000	47.520658
2202.000000	47.498034
2201.000000	47.400165
2200.000000	47.191063
2199.000000	47.294767
2198.000000	47.183326
2197.000000	47.115429
2196.000000	47.080075
2195.000000	47.069427
2194.000000	46.879180
2193.000000	46.723936
2192.000000	46.777688
2191.000000	46.713310
2190.000000	46.659621
2189.000000	46.589960
2188.000000	46.489804
2187.000000	46.429375
2186.000000	46.404842
2185.000000	46.427058
2184.000000	46.474557
2183.000000	46.465487
2182.000000	46.212907
2181.000000	46.218588
2180.000000	46.222621
2179.000000	46.269231
2178.000000	46.176167
2177.000000	46.209971
2176.000000	46.436775
2175.000000	46.320819
2174.000000	46.296558
2173.000000	46.236721
2172.000000	46.316197
2171.000000	46.350534
2170.000000	46.345041
2169.000000	46.472045
2168.000000	46.655520
2167.000000	46.689918
2166.000000	46.669340
2165.000000	46.758768
2164.000000	47.061631
2163.000000	46.918449
2162.000000	47.228327
2161.000000	47.425085
2160.000000	47.552437
2159.000000	47.700977
2158.000000	47.733668
2157.000000	47.794408
2156.000000	47.918046
2155.000000	48.317227
2154.000000	48.360579
2153.000000	48.565720
2152.000000	48.554977
2151.000000	48.803237
2150.000000	48.997852
2149.000000	49.072784
2148.000000	49.218373
2147.000000	49.470979
2146.000000	49.651856
2145.000000	49.766422
2144.000000	49.905637
2143.000000	49.954894
2142.000000	50.198931
2141.000000	50.276493
2140.000000	50.424399
2139.000000	50.604882
2138.000000	50.797704
2137.000000	50.887115
2136.000000	50.816064
2135.000000	51.087233
2134.000000	51.152900
2133.000000	51.223132
2132.000000	51.268979
2131.000000	51.594416
2130.000000	51.597584
2129.000000	51.622339
2128.000000	51.725779
2127.000000	51.834707
2126.000000	51.862140
2125.000000	51.777034
2124.000000	52.036902
2123.000000	52.029451
2122.000000	52.180523
2121.000000	52.065910
2120.000000	52.054129
2119.000000	52.104383
2118.000000	52.340312
2117.000000	52.251854
2116.000000	52.329599
2115.000000	52.472915
2114.000000	52.234465
2113.000000	52.255513
2112.000000	52.307365
2111.000000	52.421238
2110.000000	52.358958
2109.000000	52.466177
2108.000000	52.555548
2107.000000	52.463434
2106.000000	52.518246
2105.000000	52.482449
2104.000000	52.527910
2103.000000	52.636748
2102.000000	52.628389
2101.000000	52.537786
2100.000000	52.619859
2099.000000	52.598552
2098.000000	52.534492
2097.000000	52.646986
2096.000000	52.579983
2095.000000	52.605929
2094.000000	52.698605
2093.000000	52.520585
2092.000000	52.543486
2091.000000	52.607361
2090.000000	52.559492
2089.000000	52.584806
2088.000000	52.472013
2087.000000	52.557658
2086.000000	52.606543
2085.000000	52.483666
2084.000000	52.334337
2083.000000	52.321568
2082.000000	52.266628
2081.000000	52.233612
2080.000000	52.094616
2079.000000	52.115725
2078.000000	52.024155
2077.000000	51.902953
2076.000000	51.850642
2075.000000	51.767976
2074.000000	51.606819
2073.000000	51.542871
2072.000000	51.469532
2071.000000	51.395270
2070.000000	51.358818
2069.000000	51.242277
2068.000000	51.008905
2067.000000	50.836964
2066.000000	50.696996
2065.000000	50.609818
2064.000000	50.506961
2063.000000	50.310330
2062.000000	50.052814
2061.000000	49.974477
2060.000000	49.841293
2059.000000	49.695001
2058.000000	49.513568
2057.000000	49.342492
2056.000000	49.238121
2055.000000	49.092842
2054.000000	48.991478
2053.000000	48.848583
2052.000000	48.712537
2051.000000	48.527529
2050.000000	48.394274
2049.000000	48.359457
2048.000000	48.302934
2047.000000	48.201894
2046.000000	48.101699
2045.000000	48.037463
2044.000000	48.012777
2043.000000	47.993902
2042.000000	48.025264
2041.000000	48.022430
2040.000000	48.022898
2039.000000	48.045071
2038.000000	48.086345
2037.000000	48.083110
2036.000000	48.121387
2035.000000	48.255735
2034.000000	48.359851
2033.000000	48.464935
2032.000000	48.648706
2031.000000	48.751283
2030.000000	48.826636
2029.000000	48.948475
2028.000000	49.070032
2027.000000	49.191835
2026.000000	49.373475
2025.000000	49.511285
2024.000000	49.590036
2023.000000	49.684329
2022.000000	49.767150
2021.000000	49.831743
2020.000000	49.910880
2019.000000	49.999747
2018.000000	50.068836
2017.000000	50.141691
2016.000000	50.175124
2015.000000	50.156835
2014.000000	50.185102
2013.000000	50.201476
2012.000000	50.156044
2011.000000	50.182746
2010.000000	50.190504
2009.000000	50.125153
2008.000000	50.067614
2007.000000	50.047673
2006.000000	49.987754
2005.000000	49.945584
2004.000000	49.880672
2003.000000	49.844877
2002.000000	49.773882
2001.000000	49.657197
2000.000000	49.618777
1999.000000	49.554199
1998.000000	49.465034
1997.000000	49.391801
1996.000000	49.317249
1995.000000	49.210981
1994.000000	49.085986
1993.000000	49.040169
1992.000000	48.961134
1991.000000	48.849905
1990.000000	48.808367
1989.000000	48.700481
1988.000000	48.589627
1987.000000	48.522201
1986.000000	48.426293
1985.000000	48.359309
1984.000000	48.266741
1983.000000	48.165857
1982.000000	48.102533
1981.000000	47.993563
1980.000000	47.883808
1979.000000	47.782331
1978.000000	47.685649
1977.000000	47.618705
1976.000000	47.501428
1975.000000	47.428975
1974.000000	47.293925
1973.000000	47.226483
1972.000000	47.142038
1971.000000	47.026950
1970.000000	46.932175
1969.000000	46.856219
1968.000000	46.785110
1967.000000	46.641176
1966.000000	46.576862
1965.000000	46.503200
1964.000000	46.370912
1963.000000	46.273291
1962.000000	46.198689
1961.000000	46.127110
1960.000000	46.045355
1959.000000	45.966085
1958.000000	45.877654
1957.000000	45.815306
1956.000000	45.697137
1955.000000	45.610649
1954.000000	45.583701
1953.000000	45.507559
1952.000000	45.452530
1951.000000	45.374852
1950.000000	45.320292
1949.000000	45.284436
1948.000000	45.266767
1947.000000	45.217818
1946.000000	45.178774
1945.000000	45.163335
1944.000000	45.137109
1943.000000	45.146551
1942.000000	45.211559
1941.000000	45.138187
1940.000000	45.246811
1939.000000	45.308846
1938.000000	45.301101
1937.000000	45.437830
1936.000000	45.487517
1935.000000	45.567869
1934.000000	45.673259
1933.000000	45.754746
1932.000000	45.949245
1931.000000	46.085488
1930.000000	46.256421
1929.000000	46.449806
1928.000000	46.605508
1927.000000	46.756690
1926.000000	46.975961
1925.000000	47.209416
1924.000000	47.334857
1923.000000	47.620559
1922.000000	47.925149
1921.000000	48.181926
1920.000000	48.415660
1919.000000	48.734238
1918.000000	48.959259
1917.000000	49.252838
1916.000000	49.553030
1915.000000	49.900865
1914.000000	50.277990
1913.000000	50.577329
1912.000000	50.918790
1911.000000	51.247923
1910.000000	51.581588
1909.000000	51.949960
1908.000000	52.235689
1907.000000	52.679488
1906.000000	53.044351
1905.000000	53.433568
1904.000000	53.827539
1903.000000	54.131528
1902.000000	54.561020
1901.000000	54.995695
1900.000000	55.399906
1899.000000	55.820000
1898.000000	56.221943
1897.000000	56.571810
1896.000000	57.016599
1895.000000	57.387934
1894.000000	57.745060
1893.000000	58.038370
1892.000000	58.498570
1891.000000	58.842128
1890.000000	59.178677
1889.000000	59.475154
1888.000000	59.789749
1887.000000	60.130794
1886.000000	60.474873
1885.000000	60.687175
1884.000000	60.997513
1883.000000	61.218537
1882.000000	61.441828
1881.000000	61.653544
1880.000000	61.918161
1879.000000	62.108950
1878.000000	62.287279
1877.000000	62.536547
1876.000000	62.695057
1875.000000	62.848114
1874.000000	63.056527
1873.000000	63.156549
1872.000000	63.298474
1871.000000	63.415400
1870.000000	63.478992
1869.000000	63.624663
1868.000000	63.738258
1867.000000	63.778141
1866.000000	63.811640
1865.000000	63.903646
1864.000000	63.971599
1863.000000	64.012349
1862.000000	64.040773
1861.000000	64.074008
1860.000000	64.133143
1859.000000	64.126848
1858.000000	64.155717
1857.000000	64.188987
1856.000000	64.213322
1855.000000	64.216256
1854.000000	64.232560
1853.000000	64.230760
1852.000000	64.242958
1851.000000	64.249592
1850.000000	64.264412
1849.000000	64.257623
1848.000000	64.239533
1847.000000	64.270291
1846.000000	64.270427
1845.000000	64.255363
1844.000000	64.231509
1843.000000	64.145824
1842.000000	64.134418
1841.000000	64.152526
1840.000000	64.128717
1839.000000	64.104904
1838.000000	64.090675
1837.000000	64.049919
1836.000000	64.028846
1835.000000	63.997488
1834.000000	63.969602
1833.000000	63.967117
1832.000000	63.944343
1831.000000	63.893132
1830.000000	63.882613
1829.000000	63.823581
1828.000000	63.773564
1827.000000	63.781154
1826.000000	63.783735
1825.000000	63.748885
1824.000000	63.736818
1823.000000	63.730151
1822.000000	63.685018
1821.000000	63.659579
1820.000000	63.620124
1819.000000	63.582073
1818.000000	63.600616
1817.000000	63.608607
1816.000000	63.554877
1815.000000	63.528756
1814.000000	63.509138
1813.000000	63.454631
1812.000000	63.407683
1811.000000	63.389180
1810.000000	63.395263
1809.000000	63.395646
1808.000000	63.355084
1807.000000	63.319410
1806.000000	63.308470
1805.000000	63.264348
1804.000000	63.220059
1803.000000	63.196907
1802.000000	63.188937
1801.000000	63.192964
1800.000000	63.156433
1799.000000	63.121013
1798.000000	63.123774
1797.000000	63.104115
1796.000000	63.083191
1795.000000	63.073065
1794.000000	63.064601
1793.000000	63.038006
1792.000000	62.999755
1791.000000	62.986837
1790.000000	62.980715
1789.000000	62.955526
1788.000000	62.936955
1787.000000	62.915194
1786.000000	62.881486
1785.000000	62.860783
1784.000000	62.848057
1783.000000	62.821735
1782.000000	62.788896
1781.000000	62.755819
1780.000000	62.714960
1779.000000	62.706707
1778.000000	62.674524
1777.000000	62.629697
1776.000000	62.598148
1775.000000	62.558885
1774.000000	62.486536
1773.000000	62.452803
1772.000000	62.418777
1771.000000	62.370306
1770.000000	62.329795
1769.000000	62.273626
1768.000000	62.217796
1767.000000	62.165120
1766.000000	62.125471
1765.000000	62.082877
1764.000000	62.055249
1763.000000	61.979781
1762.000000	61.977692
1761.000000	61.940538
1760.000000	61.862335
1759.000000	61.808219
1758.000000	61.781637
1757.000000	61.735608
1756.000000	61.709236
1755.000000	61.658393
1754.000000	61.586044
1753.000000	61.523078
1752.000000	61.502132
1751.000000	61.466532
1750.000000	61.396183
1749.000000	61.384178
1748.000000	61.338573
1747.000000	61.279780
1746.000000	61.231543
1745.000000	61.198667
1744.000000	61.142342
1743.000000	61.100575
1742.000000	61.047078
1741.000000	61.019478
1740.000000	60.972696
1739.000000	60.898230
1738.000000	60.847626
1737.000000	60.826222
1736.000000	60.810371
1735.000000	60.778001
1734.000000	60.781075
1733.000000	60.789455
1732.000000	60.772891
1731.000000	60.801137
1730.000000	60.812048
1729.000000	60.835073
1728.000000	60.900712
1727.000000	60.931190
1726.000000	60.960006
1725.000000	61.025779
1724.000000	61.054091
1723.000000	61.133901
1722.000000	61.197018
1721.000000	61.246916
1720.000000	61.368581
1719.000000	61.454238
1718.000000	61.529032
1717.000000	61.579739
1716.000000	61.659948
1715.000000	61.715055
1714.000000	61.775313
1713.000000	61.874828
1712.000000	61.898422
1711.000000	61.952613
1710.000000	61.996995
1709.000000	62.026555
1708.000000	62.076166
1707.000000	62.137641
1706.000000	62.173270
1705.000000	62.172533
1704.000000	62.187593
1703.000000	62.222490
1702.000000	62.189022
1701.000000	62.251037
1700.000000	62.208909
1699.000000	62.233893
1698.000000	62.303161
1697.000000	62.294304
1696.000000	62.349706
1695.000000	62.324318
1694.000000	62.359206
1693.000000	62.411450
1692.000000	62.431367
1691.000000	62.492269
1690.000000	62.557653
1689.000000	62.614873
1688.000000	62.692127
1687.000000	62.786921
1686.000000	62.875767
1685.000000	62.975228
1684.000000	63.061562
1683.000000	63.169537
1682.000000	63.303573
1681.000000	63.451055
1680.000000	63.551334
1679.000000	63.687661
1678.000000	63.818501
1677.000000	63.933680
1676.000000	64.073835
1675.000000	64.186359
1674.000000	64.312226
1673.000000	64.455647
1672.000000	64.577659
1671.000000	64.680949
1670.000000	64.802269
1669.000000	64.922443
1668.000000	65.024654
1667.000000	65.126676
1666.000000	65.208791
1665.000000	65.277042
1664.000000	65.336224
1663.000000	65.418223
1662.000000	65.463574
1661.000000	65.519945
1660.000000	65.561489
1659.000000	65.615869
1658.000000	65.666887
1657.000000	65.693305
1656.000000	65.731610
1655.000000	65.752509
1654.000000	65.778719
1653.000000	65.783331
1652.000000	65.813451
1651.000000	65.791057
1650.000000	65.806488
1649.000000	65.824319
1648.000000	65.813531
1647.000000	65.827417
1646.000000	65.809720
1645.000000	65.800169
1644.000000	65.783113
1643.000000	65.765089
1642.000000	65.767155
1641.000000	65.750838
1640.000000	65.740442
1639.000000	65.719852
1638.000000	65.685717
1637.000000	65.685885
1636.000000	65.654215
1635.000000	65.626247
1634.000000	65.594934
1633.000000	65.574986
1632.000000	65.561031
1631.000000	65.543103
1630.000000	65.528865
1629.000000	65.489111
1628.000000	65.456588
1627.000000	65.428868
1626.000000	65.405003
1625.000000	65.356345
1624.000000	65.326123
1623.000000	65.314660
1622.000000	65.291581
1621.000000	65.247983
1620.000000	65.213925
1619.000000	65.179874
1618.000000	65.133176
1617.000000	65.117431
1616.000000	65.086806
1615.000000	65.047670
1614.000000	65.013878
1613.000000	64.973501
1612.000000	64.938708
1611.000000	64.897014
1610.000000	64.852805
1609.000000	64.828042
1608.000000	64.787012
1607.000000	64.737482
1606.000000	64.687044
1605.000000	64.647015
1604.000000	64.614888
1603.000000	64.573356
1602.000000	64.528676
1601.000000	64.489135
1600.000000	64.460139
1599.000000	64.410593
1598.000000	64.361924
1597.000000	64.329580
1596.000000	64.287270
1595.000000	64.244166
1594.000000	64.211136
1593.000000	64.190828
1592.000000	64.155077
1591.000000	64.119074
1590.000000	64.071478
1589.000000	64.025701
1588.000000	64.007022
1587.000000	63.975798
1586.000000	63.927500
1585.000000	63.895526
1584.000000	63.855230
1583.000000	63.832783
1582.000000	63.809858
1581.000000	63.771164
1580.000000	63.745356
1579.000000	63.715196
1578.000000	63.693384
1577.000000	63.664785
1576.000000	63.626881
1575.000000	63.599507
1574.000000	63.570207
1573.000000	63.543822
1572.000000	63.504745
1571.000000	63.467418
1570.000000	63.447532
1569.000000	63.421948
1568.000000	63.392358
1567.000000	63.370286
1566.000000	63.351793
1565.000000	63.343048
1564.000000	63.319084
1563.000000	63.294409
1562.000000	63.286586
1561.000000	63.262787
1560.000000	63.251891
1559.000000	63.235796
1558.000000	63.221089
1557.000000	63.217827
1556.000000	63.202607
1555.000000	63.181161
1554.000000	63.167471
1553.000000	63.158449
1552.000000	63.147279
1551.000000	63.117327
1550.000000	63.096763
1549.000000	63.065578
1548.000000	63.039772
1547.000000	62.996240
1546.000000	62.960844
1545.000000	62.923385
1544.000000	62.859003
1543.000000	62.822636
1542.000000	62.781555
1541.000000	62.726288
1540.000000	62.668096
1539.000000	62.614886
1538.000000	62.531645
1537.000000	62.464676
1536.000000	62.407692
1535.000000	62.336511
1534.000000	62.272090
1533.000000	62.220206
1532.000000	62.143851
1531.000000	62.066358
1530.000000	62.011860
1529.000000	61.950591
1528.000000	61.901739
1527.000000	61.862004
1526.000000	61.799483
1525.000000	61.748026
1524.000000	61.696764
1523.000000	61.647117
1522.000000	61.588728
1521.000000	61.546927
1520.000000	61.511500
1519.000000	61.453028
1518.000000	61.408258
1517.000000	61.394851
1516.000000	61.372854
1515.000000	61.332939
1514.000000	61.348522
1513.000000	61.360799
1512.000000	61.355019
1511.000000	61.307946
1510.000000	61.267509
1509.000000	61.275550
1508.000000	61.228121
1507.000000	61.186581
1506.000000	61.178244
1505.000000	61.151850
1504.000000	61.155446
1503.000000	61.146313
1502.000000	61.118627
1501.000000	61.112517
1500.000000	61.128145
1499.000000	61.127397
1498.000000	61.140501
1497.000000	61.169272
1496.000000	61.159554
1495.000000	61.175609
1494.000000	61.204899
1493.000000	61.221821
1492.000000	61.262621
1491.000000	61.317697
1490.000000	61.341325
1489.000000	61.381602
1488.000000	61.432909
1487.000000	61.502154
1486.000000	61.541887
1485.000000	61.619574
1484.000000	61.691736
1483.000000	61.740730
1482.000000	61.797291
1481.000000	61.858255
1480.000000	61.921057
1479.000000	61.990290
1478.000000	62.052563
1477.000000	62.115449
1476.000000	62.193872
1475.000000	62.250411
1474.000000	62.322579
1473.000000	62.383698
1472.000000	62.451958
1471.000000	62.534090
1470.000000	62.603581
