PE UV       SUBTECH     SPECTRUM    ASCII       PEDS        4.00        
   -1
RTAgneauUK 32.Sample.asc
18/03/02
15:39:59.00
18/03/02
15:39:59.00
Administrator

200.000000
1
Lambda 750
750N8071901
PerkinElmer UV WinLab 6.0.4.0738 / 1.61.00 Lambda 900

0
0
3350/servo 860.8/2
0
0
UV/VIS
1
1
1
CommonBeamDepol,150mm sphere / downward view
0
0
0
0
Program
Program
3350/servo 860.8/2
3350/0.2 860.8/0.2
3350/0.2 860.8/0.2
0
1
 
 
 
0
 
860.8
319.2
860.8
Front
100
on
 
 
0
0
0
 
0
 
 
 
0
 
 
0
0
0
0
0
 
 
 
 
0
0


0
0
#HDR
-1
-1
#GR
nm
%R
1.0
0.0
2350.000000
-1.000000
2151
8
72.910029
17.424090
#DATA
2350.000000	41.425017
2349.000000	41.284196
2348.000000	41.307986
2347.000000	41.822299
2346.000000	41.744795
2345.000000	41.421190
2344.000000	41.495091
2343.000000	40.981380
2342.000000	41.481695
2341.000000	41.497744
2340.000000	41.684382
2339.000000	41.607058
2338.000000	41.754685
2337.000000	41.541979
2336.000000	41.967181
2335.000000	41.919824
2334.000000	42.016768
2333.000000	42.030889
2332.000000	42.022739
2331.000000	41.845876
2330.000000	41.766716
2329.000000	41.867636
2328.000000	41.767789
2327.000000	41.931525
2326.000000	41.866911
2325.000000	41.846698
2324.000000	41.735059
2323.000000	41.672564
2322.000000	41.570013
2321.000000	41.519209
2320.000000	41.342084
2319.000000	41.219608
2318.000000	41.260947
2317.000000	41.274075
2316.000000	41.354408
2315.000000	41.212905
2314.000000	41.053277
2313.000000	41.019793
2312.000000	41.103328
2311.000000	41.047237
2310.000000	40.908237
2309.000000	40.806249
2308.000000	40.798450
2307.000000	40.894894
2306.000000	40.558999
2305.000000	40.420955
2304.000000	40.425262
2303.000000	40.397752
2302.000000	40.103833
2301.000000	40.041790
2300.000000	39.938559
2299.000000	39.796034
2298.000000	39.797603
2297.000000	39.623650
2296.000000	39.631817
2295.000000	39.688740
2294.000000	39.444383
2293.000000	39.168753
2292.000000	39.088739
2291.000000	39.143364
2290.000000	39.014052
2289.000000	38.999014
2288.000000	38.885822
2287.000000	38.877598
2286.000000	38.813505
2285.000000	38.708542
2284.000000	38.672253
2283.000000	38.578940
2282.000000	38.571925
2281.000000	38.659663
2280.000000	38.642198
2279.000000	38.704690
2278.000000	38.713575
2277.000000	38.729470
2276.000000	38.758834
2275.000000	38.671331
2274.000000	38.645676
2273.000000	38.774346
2272.000000	38.911400
2271.000000	38.981854
2270.000000	39.010887
2269.000000	39.068616
2268.000000	39.068308
2267.000000	39.071206
2266.000000	39.199896
2265.000000	39.245589
2264.000000	39.326682
2263.000000	39.521980
2262.000000	39.756985
2261.000000	39.909186
2260.000000	39.971904
2259.000000	40.103455
2258.000000	40.402298
2257.000000	40.649653
2256.000000	40.900092
2255.000000	41.049311
2254.000000	41.214335
2253.000000	41.388984
2252.000000	41.562308
2251.000000	41.817472
2250.000000	41.897473
2249.000000	42.124794
2248.000000	42.569269
2247.000000	42.777869
2246.000000	42.908266
2245.000000	43.116941
2244.000000	43.268313
2243.000000	43.529547
2242.000000	43.791848
2241.000000	43.883723
2240.000000	43.978925
2239.000000	44.176432
2238.000000	44.413317
2237.000000	44.527288
2236.000000	44.550605
2235.000000	44.635518
2234.000000	44.749270
2233.000000	44.884544
2232.000000	44.897815
2231.000000	44.967338
2230.000000	45.038869
2229.000000	45.052289
2228.000000	45.138048
2227.000000	45.187922
2226.000000	45.175334
2225.000000	45.023854
2224.000000	45.009916
2223.000000	45.121483
2222.000000	45.141914
2221.000000	45.135143
2220.000000	45.078547
2219.000000	45.057987
2218.000000	44.956067
2217.000000	44.893126
2216.000000	44.868248
2215.000000	44.852156
2214.000000	44.855143
2213.000000	44.885126
2212.000000	44.820036
2211.000000	44.682884
2210.000000	44.627478
2209.000000	44.524195
2208.000000	44.414898
2207.000000	44.378042
2206.000000	44.400716
2205.000000	44.265130
2204.000000	44.237269
2203.000000	44.213320
2202.000000	44.167261
2201.000000	44.014424
2200.000000	43.917072
2199.000000	43.744515
2198.000000	43.725700
2197.000000	43.737123
2196.000000	43.661905
2195.000000	43.500671
2194.000000	43.288346
2193.000000	43.339218
2192.000000	43.325767
2191.000000	43.351787
2190.000000	43.220569
2189.000000	43.219067
2188.000000	43.052303
2187.000000	42.907416
2186.000000	43.028819
2185.000000	42.947970
2184.000000	42.905461
2183.000000	42.962271
2182.000000	42.989173
2181.000000	42.745058
2180.000000	42.571734
2179.000000	42.651611
2178.000000	42.543098
2177.000000	42.627353
2176.000000	42.744370
2175.000000	42.706464
2174.000000	42.788145
2173.000000	42.755736
2172.000000	42.809458
2171.000000	42.816317
2170.000000	42.895836
2169.000000	43.033715
2168.000000	43.141667
2167.000000	43.113809
2166.000000	43.251072
2165.000000	43.288071
2164.000000	43.307646
2163.000000	43.504358
2162.000000	43.623100
2161.000000	43.672390
2160.000000	43.911751
2159.000000	44.046245
2158.000000	44.183384
2157.000000	44.262005
2156.000000	44.541283
2155.000000	44.839098
2154.000000	44.843276
2153.000000	45.167856
2152.000000	45.091421
2151.000000	45.280515
2150.000000	45.666317
2149.000000	45.544420
2148.000000	45.817309
2147.000000	46.005471
2146.000000	46.121797
2145.000000	46.386601
2144.000000	46.545799
2143.000000	46.684133
2142.000000	46.595277
2141.000000	47.035397
2140.000000	47.153063
2139.000000	47.218449
2138.000000	47.563303
2137.000000	47.447849
2136.000000	47.594435
2135.000000	47.877829
2134.000000	47.977151
2133.000000	47.904480
2132.000000	48.094596
2131.000000	48.421274
2130.000000	48.410263
2129.000000	48.323041
2128.000000	48.485794
2127.000000	48.617534
2126.000000	48.600461
2125.000000	48.507171
2124.000000	48.746936
2123.000000	48.821248
2122.000000	48.826507
2121.000000	48.734417
2120.000000	48.725034
2119.000000	49.017746
2118.000000	49.081912
2117.000000	49.015326
2116.000000	49.051087
2115.000000	49.264240
2114.000000	49.166265
2113.000000	49.210264
2112.000000	49.306132
2111.000000	49.322903
2110.000000	49.238731
2109.000000	49.285954
2108.000000	49.413649
2107.000000	49.377806
2106.000000	49.368712
2105.000000	49.415399
2104.000000	49.393439
2103.000000	49.579474
2102.000000	49.601438
2101.000000	49.477209
2100.000000	49.529797
2099.000000	49.495874
2098.000000	49.435307
2097.000000	49.510584
2096.000000	49.472087
2095.000000	49.438455
2094.000000	49.465548
2093.000000	49.419878
2092.000000	49.481069
2091.000000	49.518582
2090.000000	49.394897
2089.000000	49.385650
2088.000000	49.401958
2087.000000	49.384452
2086.000000	49.427450
2085.000000	49.299507
2084.000000	49.144825
2083.000000	49.147960
2082.000000	49.107933
2081.000000	49.073622
2080.000000	49.072999
2079.000000	49.114297
2078.000000	48.948585
2077.000000	48.828560
2076.000000	48.734249
2075.000000	48.567100
2074.000000	48.434207
2073.000000	48.406185
2072.000000	48.371267
2071.000000	48.223550
2070.000000	48.103673
2069.000000	47.956147
2068.000000	47.704664
2067.000000	47.556919
2066.000000	47.471629
2065.000000	47.350387
2064.000000	47.245949
2063.000000	47.015728
2062.000000	46.827984
2061.000000	46.670043
2060.000000	46.486708
2059.000000	46.356568
2058.000000	46.252012
2057.000000	46.056060
2056.000000	45.905869
2055.000000	45.756786
2054.000000	45.625831
2053.000000	45.479026
2052.000000	45.315438
2051.000000	45.152761
2050.000000	45.030685
2049.000000	44.947467
2048.000000	44.830213
2047.000000	44.767368
2046.000000	44.683798
2045.000000	44.611179
2044.000000	44.550000
2043.000000	44.511910
2042.000000	44.516114
2041.000000	44.556821
2040.000000	44.581626
2039.000000	44.574381
2038.000000	44.585718
2037.000000	44.637314
2036.000000	44.694836
2035.000000	44.787813
2034.000000	44.932522
2033.000000	45.071739
2032.000000	45.203506
2031.000000	45.336481
2030.000000	45.432942
2029.000000	45.540519
2028.000000	45.669480
2027.000000	45.838682
2026.000000	46.038753
2025.000000	46.141412
2024.000000	46.240335
2023.000000	46.389720
2022.000000	46.477911
2021.000000	46.577051
2020.000000	46.671913
2019.000000	46.712440
2018.000000	46.768759
2017.000000	46.849754
2016.000000	46.902000
2015.000000	46.907080
2014.000000	46.947412
2013.000000	46.949435
2012.000000	46.945861
2011.000000	46.953409
2010.000000	46.942780
2009.000000	46.895050
2008.000000	46.821747
2007.000000	46.785752
2006.000000	46.707582
2005.000000	46.662691
2004.000000	46.625159
2003.000000	46.569280
2002.000000	46.473047
2001.000000	46.379860
2000.000000	46.358703
1999.000000	46.267606
1998.000000	46.143456
1997.000000	46.071643
1996.000000	45.990036
1995.000000	45.883879
1994.000000	45.769940
1993.000000	45.687370
1992.000000	45.612754
1991.000000	45.490534
1990.000000	45.424681
1989.000000	45.332537
1988.000000	45.223031
1987.000000	45.152818
1986.000000	45.047679
1985.000000	44.929708
1984.000000	44.826978
1983.000000	44.712071
1982.000000	44.636629
1981.000000	44.543795
1980.000000	44.413632
1979.000000	44.315359
1978.000000	44.241978
1977.000000	44.131369
1976.000000	44.027357
1975.000000	43.937164
1974.000000	43.782760
1973.000000	43.700366
1972.000000	43.638892
1971.000000	43.495379
1970.000000	43.427696
1969.000000	43.307101
1968.000000	43.245401
1967.000000	43.139791
1966.000000	43.049741
1965.000000	42.922213
1964.000000	42.823109
1963.000000	42.753020
1962.000000	42.653332
1961.000000	42.548386
1960.000000	42.476268
1959.000000	42.332618
1958.000000	42.238237
1957.000000	42.209865
1956.000000	42.083060
1955.000000	42.011913
1954.000000	41.988818
1953.000000	41.866047
1952.000000	41.824031
1951.000000	41.777358
1950.000000	41.680761
1949.000000	41.593053
1948.000000	41.590713
1947.000000	41.617385
1946.000000	41.520873
1945.000000	41.527433
1944.000000	41.480973
1943.000000	41.498976
1942.000000	41.551272
1941.000000	41.522023
1940.000000	41.630949
1939.000000	41.613321
1938.000000	41.691808
1937.000000	41.788377
1936.000000	41.890233
1935.000000	41.971667
1934.000000	42.084467
1933.000000	42.251176
1932.000000	42.358802
1931.000000	42.527126
1930.000000	42.646157
1929.000000	42.788713
1928.000000	43.074803
1927.000000	43.283467
1926.000000	43.469330
1925.000000	43.636514
1924.000000	43.946101
1923.000000	44.172663
1922.000000	44.507403
1921.000000	44.781763
1920.000000	44.959340
1919.000000	45.327783
1918.000000	45.644102
1917.000000	45.976040
1916.000000	46.218575
1915.000000	46.660398
1914.000000	47.022907
1913.000000	47.412187
1912.000000	47.819891
1911.000000	48.102605
1910.000000	48.560605
1909.000000	48.925392
1908.000000	49.308686
1907.000000	49.737993
1906.000000	50.181579
1905.000000	50.654716
1904.000000	51.078271
1903.000000	51.464574
1902.000000	51.957744
1901.000000	52.432511
1900.000000	52.898487
1899.000000	53.380292
1898.000000	53.798710
1897.000000	54.231776
1896.000000	54.601467
1895.000000	55.087686
1894.000000	55.528021
1893.000000	55.934332
1892.000000	56.370587
1891.000000	56.811912
1890.000000	57.234322
1889.000000	57.516142
1888.000000	57.928018
1887.000000	58.309045
1886.000000	58.697159
1885.000000	59.012791
1884.000000	59.340420
1883.000000	59.628561
1882.000000	59.894969
1881.000000	60.148070
1880.000000	60.424538
1879.000000	60.690514
1878.000000	60.906767
1877.000000	61.168468
1876.000000	61.354985
1875.000000	61.585781
1874.000000	61.778098
1873.000000	61.950063
1872.000000	62.111441
1871.000000	62.224848
1870.000000	62.304202
1869.000000	62.448541
1868.000000	62.585286
1867.000000	62.653934
1866.000000	62.754479
1865.000000	62.852835
1864.000000	62.919244
1863.000000	62.946176
1862.000000	62.985678
1861.000000	63.035840
1860.000000	63.117557
1859.000000	63.164407
1858.000000	63.180740
1857.000000	63.218986
1856.000000	63.258046
1855.000000	63.275267
1854.000000	63.336552
1853.000000	63.331800
1852.000000	63.307268
1851.000000	63.296907
1850.000000	63.325555
1849.000000	63.321632
1848.000000	63.293471
1847.000000	63.299710
1846.000000	63.300716
1845.000000	63.287357
1844.000000	63.288570
1843.000000	63.216140
1842.000000	63.216217
1841.000000	63.211113
1840.000000	63.175950
1839.000000	63.161586
1838.000000	63.115188
1837.000000	63.072518
1836.000000	63.032195
1835.000000	63.012385
1834.000000	62.983174
1833.000000	62.948867
1832.000000	62.932755
1831.000000	62.904841
1830.000000	62.864430
1829.000000	62.826870
1828.000000	62.790728
1827.000000	62.750788
1826.000000	62.716539
1825.000000	62.681908
1824.000000	62.690246
1823.000000	62.699805
1822.000000	62.655539
1821.000000	62.608639
1820.000000	62.562369
1819.000000	62.521631
1818.000000	62.515245
1817.000000	62.498379
1816.000000	62.440489
1815.000000	62.417729
1814.000000	62.396277
1813.000000	62.344806
1812.000000	62.305506
1811.000000	62.281936
1810.000000	62.270880
1809.000000	62.259663
1808.000000	62.229707
1807.000000	62.185263
1806.000000	62.163206
1805.000000	62.128406
1804.000000	62.091032
1803.000000	62.093312
1802.000000	62.073942
1801.000000	62.046499
1800.000000	62.008626
1799.000000	61.962018
1798.000000	61.951991
1797.000000	61.939332
1796.000000	61.916784
1795.000000	61.907085
1794.000000	61.891838
1793.000000	61.864885
1792.000000	61.836289
1791.000000	61.820873
1790.000000	61.806482
1789.000000	61.768411
1788.000000	61.755916
1787.000000	61.721992
1786.000000	61.680850
1785.000000	61.658182
1784.000000	61.638416
1783.000000	61.613808
1782.000000	61.583820
1781.000000	61.555921
1780.000000	61.508435
1779.000000	61.472726
1778.000000	61.424790
1777.000000	61.367280
1776.000000	61.338156
1775.000000	61.279331
1774.000000	61.222132
1773.000000	61.171606
1772.000000	61.136650
1771.000000	61.078081
1770.000000	61.024341
1769.000000	60.967065
1768.000000	60.903803
1767.000000	60.861752
1766.000000	60.799346
1765.000000	60.729219
1764.000000	60.710851
1763.000000	60.634928
1762.000000	60.593596
1761.000000	60.568020
1760.000000	60.499359
1759.000000	60.420168
1758.000000	60.402197
1757.000000	60.326952
1756.000000	60.283435
1755.000000	60.216537
1754.000000	60.153404
1753.000000	60.121084
1752.000000	60.054845
1751.000000	59.999452
1750.000000	59.945670
1749.000000	59.930480
1748.000000	59.862292
1747.000000	59.764291
1746.000000	59.721608
1745.000000	59.674695
1744.000000	59.622641
1743.000000	59.562922
1742.000000	59.519202
1741.000000	59.465827
1740.000000	59.446330
1739.000000	59.361163
1738.000000	59.306829
1737.000000	59.267173
1736.000000	59.252675
1735.000000	59.258576
1734.000000	59.252951
1733.000000	59.224618
1732.000000	59.228954
1731.000000	59.272824
1730.000000	59.233742
1729.000000	59.258058
1728.000000	59.327681
1727.000000	59.381370
1726.000000	59.440284
1725.000000	59.475815
1724.000000	59.531028
1723.000000	59.639621
1722.000000	59.733620
1721.000000	59.792816
1720.000000	59.915756
1719.000000	59.984589
1718.000000	60.057674
1717.000000	60.134699
1716.000000	60.224710
1715.000000	60.256514
1714.000000	60.369561
1713.000000	60.477575
1712.000000	60.508843
1711.000000	60.596964
1710.000000	60.632025
1709.000000	60.662545
1708.000000	60.696461
1707.000000	60.788688
1706.000000	60.783067
1705.000000	60.788659
1704.000000	60.848799
1703.000000	60.861101
1702.000000	60.842008
1701.000000	60.875812
1700.000000	60.873760
1699.000000	60.880614
1698.000000	60.939010
1697.000000	60.928000
1696.000000	60.973174
1695.000000	60.985451
1694.000000	61.018107
1693.000000	61.070877
1692.000000	61.090980
1691.000000	61.195944
1690.000000	61.242214
1689.000000	61.314006
1688.000000	61.388036
1687.000000	61.496961
1686.000000	61.621326
1685.000000	61.729476
1684.000000	61.852528
1683.000000	62.011159
1682.000000	62.115471
1681.000000	62.298642
1680.000000	62.428451
1679.000000	62.570876
1678.000000	62.723640
1677.000000	62.863254
1676.000000	63.018167
1675.000000	63.191026
1674.000000	63.352437
1673.000000	63.494090
1672.000000	63.607420
1671.000000	63.755795
1670.000000	63.929660
1669.000000	64.078722
1668.000000	64.194513
1667.000000	64.317872
1666.000000	64.411219
1665.000000	64.505992
1664.000000	64.581911
1663.000000	64.666320
1662.000000	64.727088
1661.000000	64.780343
1660.000000	64.847870
1659.000000	64.899196
1658.000000	64.991077
1657.000000	65.017132
1656.000000	65.057065
1655.000000	65.067853
1654.000000	65.103259
1653.000000	65.109939
1652.000000	65.153907
1651.000000	65.136377
1650.000000	65.132177
1649.000000	65.153750
1648.000000	65.138751
1647.000000	65.148856
1646.000000	65.142793
1645.000000	65.136997
1644.000000	65.113584
1643.000000	65.074951
1642.000000	65.084897
1641.000000	65.067005
1640.000000	65.047851
1639.000000	65.047734
1638.000000	64.996298
1637.000000	64.983528
1636.000000	64.953965
1635.000000	64.924980
1634.000000	64.882640
1633.000000	64.860964
1632.000000	64.823255
1631.000000	64.797573
1630.000000	64.767055
1629.000000	64.738690
1628.000000	64.701484
1627.000000	64.663070
1626.000000	64.633578
1625.000000	64.601757
1624.000000	64.561260
1623.000000	64.538747
1622.000000	64.509662
1621.000000	64.456760
1620.000000	64.416943
1619.000000	64.382719
1618.000000	64.335419
1617.000000	64.293327
1616.000000	64.248585
1615.000000	64.194243
1614.000000	64.146660
1613.000000	64.108330
1612.000000	64.077919
1611.000000	64.018687
1610.000000	63.969088
1609.000000	63.939915
1608.000000	63.893205
1607.000000	63.837491
1606.000000	63.775000
1605.000000	63.715748
1604.000000	63.670858
1603.000000	63.625562
1602.000000	63.585624
1601.000000	63.532985
1600.000000	63.480158
1599.000000	63.432865
1598.000000	63.377838
1597.000000	63.320129
1596.000000	63.265546
1595.000000	63.228784
1594.000000	63.182338
1593.000000	63.132157
1592.000000	63.090662
1591.000000	63.065195
1590.000000	63.022712
1589.000000	62.959429
1588.000000	62.923512
1587.000000	62.889218
1586.000000	62.846933
1585.000000	62.815517
1584.000000	62.769507
1583.000000	62.725285
1582.000000	62.688942
1581.000000	62.647541
1580.000000	62.612057
1579.000000	62.584343
1578.000000	62.549526
1577.000000	62.507836
1576.000000	62.468631
1575.000000	62.437928
1574.000000	62.400172
1573.000000	62.361691
1572.000000	62.330595
1571.000000	62.293194
1570.000000	62.269560
1569.000000	62.237196
1568.000000	62.204168
1567.000000	62.161245
1566.000000	62.129677
1565.000000	62.110665
1564.000000	62.081168
1563.000000	62.053870
1562.000000	62.058448
1561.000000	62.037183
1560.000000	62.003174
1559.000000	61.990309
1558.000000	61.975743
1557.000000	61.961234
1556.000000	61.938542
1555.000000	61.914747
1554.000000	61.882343
1553.000000	61.881948
1552.000000	61.885022
1551.000000	61.844149
1550.000000	61.815894
1549.000000	61.781100
1548.000000	61.751628
1547.000000	61.703439
1546.000000	61.652651
1545.000000	61.607026
1544.000000	61.538851
1543.000000	61.488860
1542.000000	61.425859
1541.000000	61.367396
1540.000000	61.307128
1539.000000	61.240005
1538.000000	61.149121
1537.000000	61.063765
1536.000000	60.983996
1535.000000	60.919588
1534.000000	60.842330
1533.000000	60.775758
1532.000000	60.684329
1531.000000	60.605180
1530.000000	60.542177
1529.000000	60.459652
1528.000000	60.393514
1527.000000	60.350093
1526.000000	60.274820
1525.000000	60.205579
1524.000000	60.137216
1523.000000	60.091644
1522.000000	60.032420
1521.000000	59.981371
1520.000000	59.960140
1519.000000	59.868768
1518.000000	59.819984
1517.000000	59.779722
1516.000000	59.742795
1515.000000	59.709616
1514.000000	59.699372
1513.000000	59.718295
1512.000000	59.725995
1511.000000	59.703894
1510.000000	59.648370
1509.000000	59.629071
1508.000000	59.570866
1507.000000	59.545218
1506.000000	59.522939
1505.000000	59.505858
1504.000000	59.509959
1503.000000	59.496658
1502.000000	59.462741
1501.000000	59.470351
1500.000000	59.478406
1499.000000	59.473201
1498.000000	59.487908
1497.000000	59.493011
1496.000000	59.508676
1495.000000	59.519150
1494.000000	59.539904
1493.000000	59.581847
1492.000000	59.609830
1491.000000	59.652375
1490.000000	59.719747
1489.000000	59.765609
1488.000000	59.824736
1487.000000	59.882152
1486.000000	59.931069
1485.000000	60.019559
1484.000000	60.103228
1483.000000	60.161782
1482.000000	60.227511
1481.000000	60.308258
1480.000000	60.392389
1479.000000	60.473241
1478.000000	60.552008
1477.000000	60.620969
1476.000000	60.697779
1475.000000	60.762618
1474.000000	60.849574
1473.000000	60.921995
1472.000000	61.001123
1471.000000	61.055044
1470.000000	61.166889
