PE UV       SUBTECH     SPECTRUM    ASCII       PEDS        4.00        
   -1
RTAgneauUK 22.Sample.asc
18/03/02
15:29:43.00
18/03/02
15:29:43.00
Administrator

200.000000
1
Lambda 750
750N8071901
PerkinElmer UV WinLab 6.0.4.0738 / 1.61.00 Lambda 900

0
0
3350/servo 860.8/2
0
0
UV/VIS
1
1
1
CommonBeamDepol,150mm sphere / downward view
0
0
0
0
Program
Program
3350/servo 860.8/2
3350/0.2 860.8/0.2
3350/0.2 860.8/0.2
0
1
 
 
 
0
 
860.8
319.2
860.8
Front
100
on
 
 
0
0
0
 
0
 
 
 
0
 
 
0
0
0
0
0
 
 
 
 
0
0


0
0
#HDR
-1
-1
#GR
nm
%R
1.0
0.0
2350.000000
-1.000000
2151
8
70.337238
17.984245
#DATA
2350.000000	41.547596
2349.000000	41.406291
2348.000000	40.917118
2347.000000	41.970660
2346.000000	41.991903
2345.000000	41.304558
2344.000000	41.583585
2343.000000	41.465632
2342.000000	41.507786
2341.000000	41.781865
2340.000000	42.090549
2339.000000	42.052447
2338.000000	42.263429
2337.000000	41.976913
2336.000000	42.168598
2335.000000	42.432088
2334.000000	42.395601
2333.000000	42.486247
2332.000000	42.474296
2331.000000	42.116443
2330.000000	41.609806
2329.000000	41.797391
2328.000000	41.785812
2327.000000	41.997489
2326.000000	42.104689
2325.000000	42.067380
2324.000000	41.977150
2323.000000	41.936002
2322.000000	41.755984
2321.000000	41.566207
2320.000000	41.699087
2319.000000	41.598559
2318.000000	41.708972
2317.000000	41.654772
2316.000000	41.642623
2315.000000	41.468339
2314.000000	41.530092
2313.000000	41.369980
2312.000000	41.043227
2311.000000	40.970954
2310.000000	40.883478
2309.000000	40.838541
2308.000000	40.953812
2307.000000	41.143864
2306.000000	40.706789
2305.000000	40.567701
2304.000000	40.527282
2303.000000	40.640950
2302.000000	40.719859
2301.000000	40.400642
2300.000000	40.357071
2299.000000	40.202124
2298.000000	40.182187
2297.000000	39.986555
2296.000000	39.925911
2295.000000	39.791442
2294.000000	39.652752
2293.000000	39.637653
2292.000000	39.417999
2291.000000	39.286598
2290.000000	39.372569
2289.000000	39.440367
2288.000000	39.277886
2287.000000	39.171690
2286.000000	39.068280
2285.000000	38.991153
2284.000000	39.076756
2283.000000	39.234666
2282.000000	38.974878
2281.000000	38.996062
2280.000000	39.086808
2279.000000	39.070990
2278.000000	39.062890
2277.000000	38.983487
2276.000000	38.999680
2275.000000	39.016116
2274.000000	39.118157
2273.000000	39.295948
2272.000000	39.304162
2271.000000	39.256002
2270.000000	39.310235
2269.000000	39.436661
2268.000000	39.614106
2267.000000	39.569854
2266.000000	39.632707
2265.000000	39.724477
2264.000000	39.786304
2263.000000	39.997050
2262.000000	40.089095
2261.000000	40.147942
2260.000000	40.254278
2259.000000	40.482884
2258.000000	40.767574
2257.000000	40.827960
2256.000000	40.964469
2255.000000	41.347196
2254.000000	41.541993
2253.000000	41.613548
2252.000000	41.811090
2251.000000	41.995648
2250.000000	42.187003
2249.000000	42.419275
2248.000000	42.574933
2247.000000	42.787585
2246.000000	43.069595
2245.000000	43.278758
2244.000000	43.405947
2243.000000	43.668976
2242.000000	43.893523
2241.000000	43.873216
2240.000000	44.017728
2239.000000	44.248096
2238.000000	44.418575
2237.000000	44.627792
2236.000000	44.747680
2235.000000	44.857905
2234.000000	44.878751
2233.000000	44.925868
2232.000000	45.020898
2231.000000	45.076093
2230.000000	45.107843
2229.000000	45.133331
2228.000000	45.206534
2227.000000	45.185092
2226.000000	45.184843
2225.000000	45.173206
2224.000000	45.165494
2223.000000	45.157359
2222.000000	45.280614
2221.000000	45.292639
2220.000000	45.245107
2219.000000	45.239482
2218.000000	45.120593
2217.000000	45.035476
2216.000000	44.975988
2215.000000	45.042932
2214.000000	45.038341
2213.000000	45.033311
2212.000000	44.932605
2211.000000	44.811590
2210.000000	44.820862
2209.000000	44.587996
2208.000000	44.521609
2207.000000	44.470830
2206.000000	44.545216
2205.000000	44.450266
2204.000000	44.391808
2203.000000	44.177849
2202.000000	44.025316
2201.000000	44.110202
2200.000000	44.101823
2199.000000	44.006787
2198.000000	43.886873
2197.000000	43.888054
2196.000000	43.711436
2195.000000	43.654776
2194.000000	43.639722
2193.000000	43.487218
2192.000000	43.421185
2191.000000	43.366431
2190.000000	43.266196
2189.000000	43.274559
2188.000000	43.160967
2187.000000	43.123365
2186.000000	43.127164
2185.000000	43.147487
2184.000000	43.056356
2183.000000	42.967622
2182.000000	42.909903
2181.000000	42.883148
2180.000000	42.939061
2179.000000	42.963286
2178.000000	42.800941
2177.000000	42.887450
2176.000000	42.963790
2175.000000	42.993574
2174.000000	42.979341
2173.000000	42.921354
2172.000000	43.049837
2171.000000	43.094547
2170.000000	42.995040
2169.000000	43.239346
2168.000000	43.318140
2167.000000	43.466095
2166.000000	43.430218
2165.000000	43.449839
2164.000000	43.717820
2163.000000	43.773974
2162.000000	43.803336
2161.000000	43.947565
2160.000000	44.075365
2159.000000	44.312889
2158.000000	44.367115
2157.000000	44.532600
2156.000000	44.756406
2155.000000	44.895440
2154.000000	44.951247
2153.000000	45.210715
2152.000000	45.267020
2151.000000	45.472250
2150.000000	45.600272
2149.000000	45.706628
2148.000000	46.002558
2147.000000	46.138733
2146.000000	46.363690
2145.000000	46.389417
2144.000000	46.624871
2143.000000	46.594925
2142.000000	46.907158
2141.000000	47.137247
2140.000000	47.166824
2139.000000	47.360626
2138.000000	47.582528
2137.000000	47.531025
2136.000000	47.754592
2135.000000	47.904606
2134.000000	47.932353
2133.000000	47.861881
2132.000000	48.183030
2131.000000	48.316673
2130.000000	48.365699
2129.000000	48.453907
2128.000000	48.438811
2127.000000	48.550625
2126.000000	48.663914
2125.000000	48.620230
2124.000000	48.857964
2123.000000	48.875840
2122.000000	48.805077
2121.000000	48.830597
2120.000000	48.887284
2119.000000	48.985332
2118.000000	49.001637
2117.000000	49.036558
2116.000000	49.023435
2115.000000	49.177473
2114.000000	49.082244
2113.000000	49.198290
2112.000000	49.457076
2111.000000	49.210497
2110.000000	49.290509
2109.000000	49.359631
2108.000000	49.391959
2107.000000	49.298703
2106.000000	49.339172
2105.000000	49.350102
2104.000000	49.328853
2103.000000	49.399183
2102.000000	49.403796
2101.000000	49.415349
2100.000000	49.505403
2099.000000	49.455552
2098.000000	49.373443
2097.000000	49.434598
2096.000000	49.429342
2095.000000	49.430794
2094.000000	49.487955
2093.000000	49.456691
2092.000000	49.453417
2091.000000	49.465439
2090.000000	49.401750
2089.000000	49.373852
2088.000000	49.384819
2087.000000	49.393828
2086.000000	49.391830
2085.000000	49.260482
2084.000000	49.165366
2083.000000	49.195355
2082.000000	49.152948
2081.000000	49.032179
2080.000000	49.013590
2079.000000	48.998128
2078.000000	48.808585
2077.000000	48.728423
2076.000000	48.664454
2075.000000	48.634075
2074.000000	48.478156
2073.000000	48.423032
2072.000000	48.271287
2071.000000	48.167856
2070.000000	48.113064
2069.000000	48.027787
2068.000000	47.824440
2067.000000	47.679528
2066.000000	47.500997
2065.000000	47.327975
2064.000000	47.206159
2063.000000	47.080641
2062.000000	46.896082
2061.000000	46.709287
2060.000000	46.544099
2059.000000	46.456586
2058.000000	46.359907
2057.000000	46.195210
2056.000000	46.053489
2055.000000	45.898430
2054.000000	45.706218
2053.000000	45.585284
2052.000000	45.455767
2051.000000	45.309603
2050.000000	45.196755
2049.000000	45.146247
2048.000000	45.032446
2047.000000	44.969982
2046.000000	44.896489
2045.000000	44.808655
2044.000000	44.768911
2043.000000	44.768222
2042.000000	44.764263
2041.000000	44.738185
2040.000000	44.749875
2039.000000	44.805942
2038.000000	44.808392
2037.000000	44.849999
2036.000000	44.908958
2035.000000	45.011465
2034.000000	45.152212
2033.000000	45.236507
2032.000000	45.383698
2031.000000	45.496621
2030.000000	45.587491
2029.000000	45.708092
2028.000000	45.809435
2027.000000	45.981615
2026.000000	46.134441
2025.000000	46.257231
2024.000000	46.383243
2023.000000	46.496360
2022.000000	46.583941
2021.000000	46.657058
2020.000000	46.765484
2019.000000	46.796203
2018.000000	46.864654
2017.000000	46.967418
2016.000000	46.976561
2015.000000	46.979784
2014.000000	47.031949
2013.000000	47.038238
2012.000000	47.005730
2011.000000	47.034640
2010.000000	47.034465
2009.000000	46.984626
2008.000000	46.933896
2007.000000	46.919460
2006.000000	46.875993
2005.000000	46.809387
2004.000000	46.758612
2003.000000	46.690077
2002.000000	46.582207
2001.000000	46.518095
2000.000000	46.474990
1999.000000	46.380019
1998.000000	46.292702
1997.000000	46.210793
1996.000000	46.130405
1995.000000	46.034858
1994.000000	45.905721
1993.000000	45.816928
1992.000000	45.733406
1991.000000	45.616347
1990.000000	45.574187
1989.000000	45.485285
1988.000000	45.407143
1987.000000	45.305276
1986.000000	45.178433
1985.000000	45.115640
1984.000000	45.027242
1983.000000	44.934576
1982.000000	44.855103
1981.000000	44.770375
1980.000000	44.674425
1979.000000	44.585807
1978.000000	44.461262
1977.000000	44.379791
1976.000000	44.252769
1975.000000	44.166297
1974.000000	44.053200
1973.000000	43.937048
1972.000000	43.885004
1971.000000	43.765698
1970.000000	43.679485
1969.000000	43.578676
1968.000000	43.518185
1967.000000	43.393616
1966.000000	43.345837
1965.000000	43.242553
1964.000000	43.065396
1963.000000	43.027154
1962.000000	42.940654
1961.000000	42.811746
1960.000000	42.735199
1959.000000	42.627621
1958.000000	42.572951
1957.000000	42.524346
1956.000000	42.432368
1955.000000	42.356232
1954.000000	42.278289
1953.000000	42.198640
1952.000000	42.145711
1951.000000	42.072333
1950.000000	42.041000
1949.000000	41.964277
1948.000000	41.875495
1947.000000	41.867709
1946.000000	41.843460
1945.000000	41.874775
1944.000000	41.821683
1943.000000	41.833986
1942.000000	41.853882
1941.000000	41.893942
1940.000000	41.894655
1939.000000	41.989439
1938.000000	42.025460
1937.000000	42.098334
1936.000000	42.171700
1935.000000	42.293217
1934.000000	42.381468
1933.000000	42.505737
1932.000000	42.654145
1931.000000	42.682752
1930.000000	42.964680
1929.000000	43.081948
1928.000000	43.365935
1927.000000	43.572490
1926.000000	43.742368
1925.000000	43.936076
1924.000000	44.214525
1923.000000	44.399430
1922.000000	44.667477
1921.000000	44.938885
1920.000000	45.179163
1919.000000	45.608704
1918.000000	45.899394
1917.000000	46.103187
1916.000000	46.392753
1915.000000	46.737846
1914.000000	47.135660
1913.000000	47.489676
1912.000000	47.798841
1911.000000	48.078030
1910.000000	48.527005
1909.000000	48.862548
1908.000000	49.212042
1907.000000	49.659912
1906.000000	50.034150
1905.000000	50.506166
1904.000000	50.855403
1903.000000	51.204201
1902.000000	51.656382
1901.000000	52.154975
1900.000000	52.532033
1899.000000	52.896945
1898.000000	53.377036
1897.000000	53.807834
1896.000000	54.195503
1895.000000	54.551586
1894.000000	54.978342
1893.000000	55.356906
1892.000000	55.791121
1891.000000	56.150297
1890.000000	56.513163
1889.000000	56.810639
1888.000000	57.153773
1887.000000	57.506507
1886.000000	57.786089
1885.000000	58.107005
1884.000000	58.392397
1883.000000	58.713515
1882.000000	58.938669
1881.000000	59.172460
1880.000000	59.355007
1879.000000	59.610696
1878.000000	59.879745
1877.000000	60.126233
1876.000000	60.247219
1875.000000	60.444479
1874.000000	60.621457
1873.000000	60.737312
1872.000000	60.911072
1871.000000	61.060154
1870.000000	61.138802
1869.000000	61.249385
1868.000000	61.367237
1867.000000	61.401551
1866.000000	61.454367
1865.000000	61.551397
1864.000000	61.624924
1863.000000	61.652619
1862.000000	61.715198
1861.000000	61.758902
1860.000000	61.844612
1859.000000	61.843984
1858.000000	61.859745
1857.000000	61.889062
1856.000000	61.884558
1855.000000	61.925236
1854.000000	61.939312
1853.000000	61.970372
1852.000000	61.956548
1851.000000	61.979321
1850.000000	61.977704
1849.000000	61.954578
1848.000000	61.970885
1847.000000	61.985722
1846.000000	61.973430
1845.000000	61.956287
1844.000000	61.920809
1843.000000	61.837168
1842.000000	61.869678
1841.000000	61.907221
1840.000000	61.854970
1839.000000	61.801429
1838.000000	61.812585
1837.000000	61.785932
1836.000000	61.748113
1835.000000	61.734917
1834.000000	61.688539
1833.000000	61.653216
1832.000000	61.628962
1831.000000	61.597877
1830.000000	61.577739
1829.000000	61.550299
1828.000000	61.482641
1827.000000	61.452206
1826.000000	61.460597
1825.000000	61.444068
1824.000000	61.443391
1823.000000	61.416860
1822.000000	61.381553
1821.000000	61.353894
1820.000000	61.308456
1819.000000	61.267792
1818.000000	61.247949
1817.000000	61.245572
1816.000000	61.209687
1815.000000	61.207598
1814.000000	61.188145
1813.000000	61.136189
1812.000000	61.101306
1811.000000	61.085722
1810.000000	61.066234
1809.000000	61.034690
1808.000000	61.028797
1807.000000	60.991910
1806.000000	60.962585
1805.000000	60.947355
1804.000000	60.903121
1803.000000	60.892994
1802.000000	60.879340
1801.000000	60.847609
1800.000000	60.818440
1799.000000	60.792074
1798.000000	60.791767
1797.000000	60.781240
1796.000000	60.750377
1795.000000	60.734918
1794.000000	60.733679
1793.000000	60.703832
1792.000000	60.673331
1791.000000	60.655212
1790.000000	60.624540
1789.000000	60.590424
1788.000000	60.596789
1787.000000	60.564090
1786.000000	60.535277
1785.000000	60.550922
1784.000000	60.521084
1783.000000	60.473839
1782.000000	60.454505
1781.000000	60.430872
1780.000000	60.398964
1779.000000	60.381645
1778.000000	60.330943
1777.000000	60.286498
1776.000000	60.220879
1775.000000	60.174658
1774.000000	60.146674
1773.000000	60.094155
1772.000000	60.043799
1771.000000	60.011522
1770.000000	59.974380
1769.000000	59.912159
1768.000000	59.849931
1767.000000	59.821553
1766.000000	59.763453
1765.000000	59.725232
1764.000000	59.704176
1763.000000	59.628241
1762.000000	59.603086
1761.000000	59.556489
1760.000000	59.483822
1759.000000	59.423096
1758.000000	59.381844
1757.000000	59.322116
1756.000000	59.298848
1755.000000	59.252527
1754.000000	59.191281
1753.000000	59.172291
1752.000000	59.107836
1751.000000	59.055845
1750.000000	58.989478
1749.000000	58.976427
1748.000000	58.907995
1747.000000	58.849684
1746.000000	58.815241
1745.000000	58.734385
1744.000000	58.708305
1743.000000	58.660836
1742.000000	58.639132
1741.000000	58.587880
1740.000000	58.523715
1739.000000	58.472525
1738.000000	58.442089
1737.000000	58.393230
1736.000000	58.358580
1735.000000	58.347104
1734.000000	58.365600
1733.000000	58.340405
1732.000000	58.336594
1731.000000	58.394663
1730.000000	58.385273
1729.000000	58.395591
1728.000000	58.448309
1727.000000	58.477258
1726.000000	58.520235
1725.000000	58.557557
1724.000000	58.631382
1723.000000	58.718496
1722.000000	58.774006
1721.000000	58.853938
1720.000000	58.977261
1719.000000	59.046832
1718.000000	59.090356
1717.000000	59.174955
1716.000000	59.253352
1715.000000	59.277329
1714.000000	59.408499
1713.000000	59.463935
1712.000000	59.482274
1711.000000	59.561067
1710.000000	59.632351
1709.000000	59.644656
1708.000000	59.689050
1707.000000	59.763588
1706.000000	59.769486
1705.000000	59.794269
1704.000000	59.800271
1703.000000	59.827613
1702.000000	59.836740
1701.000000	59.859730
1700.000000	59.826764
1699.000000	59.851920
1698.000000	59.888625
1697.000000	59.890525
1696.000000	59.945008
1695.000000	59.931283
1694.000000	59.980573
1693.000000	60.026215
1692.000000	60.047274
1691.000000	60.115488
1690.000000	60.163421
1689.000000	60.242149
1688.000000	60.311194
1687.000000	60.408631
1686.000000	60.497661
1685.000000	60.588635
1684.000000	60.678162
1683.000000	60.821153
1682.000000	60.936594
1681.000000	61.080026
1680.000000	61.214733
1679.000000	61.340243
1678.000000	61.463349
1677.000000	61.613597
1676.000000	61.733830
1675.000000	61.893920
1674.000000	62.033653
1673.000000	62.153446
1672.000000	62.265891
1671.000000	62.400800
1670.000000	62.538534
1669.000000	62.688902
1668.000000	62.764713
1667.000000	62.890862
1666.000000	62.968679
1665.000000	63.052966
1664.000000	63.130022
1663.000000	63.202439
1662.000000	63.264450
1661.000000	63.305799
1660.000000	63.355996
1659.000000	63.426235
1658.000000	63.474180
1657.000000	63.493768
1656.000000	63.519429
1655.000000	63.556605
1654.000000	63.581093
1653.000000	63.601670
1652.000000	63.637534
1651.000000	63.620338
1650.000000	63.625413
1649.000000	63.630938
1648.000000	63.610564
1647.000000	63.620776
1646.000000	63.597574
1645.000000	63.597464
1644.000000	63.580019
1643.000000	63.567223
1642.000000	63.564052
1641.000000	63.545048
1640.000000	63.549702
1639.000000	63.530757
1638.000000	63.491345
1637.000000	63.481659
1636.000000	63.456512
1635.000000	63.424681
1634.000000	63.394432
1633.000000	63.368091
1632.000000	63.364416
1631.000000	63.353020
1630.000000	63.321955
1629.000000	63.282829
1628.000000	63.238387
1627.000000	63.201783
1626.000000	63.187788
1625.000000	63.151843
1624.000000	63.117228
1623.000000	63.097332
1622.000000	63.065964
1621.000000	63.017850
1620.000000	62.994897
1619.000000	62.946240
1618.000000	62.898018
1617.000000	62.881661
1616.000000	62.852462
1615.000000	62.808804
1614.000000	62.771936
1613.000000	62.741136
1612.000000	62.695369
1611.000000	62.647865
1610.000000	62.608464
1609.000000	62.572217
1608.000000	62.534161
1607.000000	62.483251
1606.000000	62.418126
1605.000000	62.382705
1604.000000	62.350837
1603.000000	62.301568
1602.000000	62.257450
1601.000000	62.210339
1600.000000	62.169431
1599.000000	62.129971
1598.000000	62.081186
1597.000000	62.036993
1596.000000	61.997684
1595.000000	61.959176
1594.000000	61.919965
1593.000000	61.872730
1592.000000	61.838260
1591.000000	61.813872
1590.000000	61.765874
1589.000000	61.720882
1588.000000	61.702638
1587.000000	61.667082
1586.000000	61.620102
1585.000000	61.580339
1584.000000	61.548777
1583.000000	61.519849
1582.000000	61.484170
1581.000000	61.455565
1580.000000	61.419925
1579.000000	61.389186
1578.000000	61.370017
1577.000000	61.327291
1576.000000	61.291848
1575.000000	61.269057
1574.000000	61.234796
1573.000000	61.210854
1572.000000	61.195439
1571.000000	61.142567
1570.000000	61.109918
1569.000000	61.085358
1568.000000	61.067730
1567.000000	61.034333
1566.000000	60.992822
1565.000000	60.975192
1564.000000	60.948353
1563.000000	60.938974
1562.000000	60.935524
1561.000000	60.902017
1560.000000	60.891976
1559.000000	60.881431
1558.000000	60.854649
1557.000000	60.845803
1556.000000	60.829094
1555.000000	60.815697
1554.000000	60.809429
1553.000000	60.794371
1552.000000	60.769485
1551.000000	60.744103
1550.000000	60.713306
1549.000000	60.679656
1548.000000	60.664441
1547.000000	60.629008
1546.000000	60.579651
1545.000000	60.540434
1544.000000	60.484228
1543.000000	60.442007
1542.000000	60.387573
1541.000000	60.318894
1540.000000	60.270634
1539.000000	60.215627
1538.000000	60.130094
1537.000000	60.056781
1536.000000	59.999170
1535.000000	59.924230
1534.000000	59.851741
1533.000000	59.798518
1532.000000	59.723564
1531.000000	59.647358
1530.000000	59.586245
1529.000000	59.519312
1528.000000	59.459947
1527.000000	59.396086
1526.000000	59.337220
1525.000000	59.292604
1524.000000	59.228517
1523.000000	59.184926
1522.000000	59.135855
1521.000000	59.088286
1520.000000	59.062378
1519.000000	58.985215
1518.000000	58.946125
1517.000000	58.912623
1516.000000	58.884229
1515.000000	58.854825
1514.000000	58.845180
1513.000000	58.841611
1512.000000	58.841975
1511.000000	58.810290
1510.000000	58.810349
1509.000000	58.785066
1508.000000	58.741073
1507.000000	58.688186
1506.000000	58.667595
1505.000000	58.637810
1504.000000	58.643972
1503.000000	58.643779
1502.000000	58.616217
1501.000000	58.619398
1500.000000	58.634500
1499.000000	58.638407
1498.000000	58.625306
1497.000000	58.642629
1496.000000	58.670427
1495.000000	58.673455
1494.000000	58.685438
1493.000000	58.702336
1492.000000	58.756048
1491.000000	58.798603
1490.000000	58.853475
1489.000000	58.891402
1488.000000	58.937583
1487.000000	58.981589
1486.000000	59.048732
1485.000000	59.119986
1484.000000	59.185963
1483.000000	59.249519
1482.000000	59.311536
1481.000000	59.363282
1480.000000	59.451951
1479.000000	59.518722
1478.000000	59.608583
1477.000000	59.672724
1476.000000	59.745554
1475.000000	59.798517
1474.000000	59.867233
1473.000000	59.943106
1472.000000	59.992512
1471.000000	60.055555
1470.000000	60.148316
