PE UV       SUBTECH     SPECTRUM    ASCII       PEDS        4.00        
   -1
RTAgneauUK 42.Sample.asc
18/03/02
15:50:19.00
18/03/02
15:50:19.00
Administrator

200.000000
1
Lambda 750
750N8071901
PerkinElmer UV WinLab 6.0.4.0738 / 1.61.00 Lambda 900

0
0
3350/servo 860.8/2
0
0
UV/VIS
1
1
1
CommonBeamDepol,150mm sphere / downward view
0
0
0
0
Program
Program
3350/servo 860.8/2
3350/0.2 860.8/0.2
3350/0.2 860.8/0.2
0
1
 
 
 
0
 
860.8
319.2
860.8
Front
100
on
 
 
0
0
0
 
0
 
 
 
0
 
 
0
0
0
0
0
 
 
 
 
0
0


0
0
#HDR
-1
-1
#GR
nm
%R
1.0
0.0
2350.000000
-1.000000
2151
8
69.297493
16.333417
#DATA
2350.000000	41.816625
2349.000000	41.463583
2348.000000	41.534891
2347.000000	42.494112
2346.000000	42.008431
2345.000000	41.728242
2344.000000	41.638339
2343.000000	41.384069
2342.000000	41.646200
2341.000000	41.917723
2340.000000	41.615980
2339.000000	42.045476
2338.000000	42.118463
2337.000000	41.945574
2336.000000	42.368908
2335.000000	42.479070
2334.000000	42.413684
2333.000000	42.430447
2332.000000	42.181951
2331.000000	42.381761
2330.000000	41.966026
2329.000000	42.003987
2328.000000	42.089885
2327.000000	42.086384
2326.000000	42.125708
2325.000000	41.971879
2324.000000	41.785558
2323.000000	41.971788
2322.000000	41.897027
2321.000000	41.635999
2320.000000	41.792192
2319.000000	41.710886
2318.000000	41.800191
2317.000000	41.688867
2316.000000	41.545204
2315.000000	41.660318
2314.000000	41.517967
2313.000000	41.348465
2312.000000	41.262923
2311.000000	41.211020
2310.000000	41.218979
2309.000000	41.197490
2308.000000	41.046382
2307.000000	40.893076
2306.000000	40.742198
2305.000000	40.763968
2304.000000	40.608657
2303.000000	40.667479
2302.000000	40.594007
2301.000000	40.489371
2300.000000	40.342196
2299.000000	40.082210
2298.000000	39.960491
2297.000000	39.923274
2296.000000	39.912883
2295.000000	39.881003
2294.000000	39.735978
2293.000000	39.693941
2292.000000	39.558691
2291.000000	39.494534
2290.000000	39.646433
2289.000000	39.420563
2288.000000	39.400419
2287.000000	39.354311
2286.000000	39.254947
2285.000000	39.122824
2284.000000	39.152625
2283.000000	39.114441
2282.000000	39.028490
2281.000000	39.088680
2280.000000	39.062838
2279.000000	39.052710
2278.000000	39.131480
2277.000000	39.157411
2276.000000	39.076432
2275.000000	39.131045
2274.000000	39.218141
2273.000000	39.321392
2272.000000	39.425619
2271.000000	39.318125
2270.000000	39.227089
2269.000000	39.391376
2268.000000	39.537393
2267.000000	39.596956
2266.000000	39.732874
2265.000000	39.943597
2264.000000	39.893001
2263.000000	39.935735
2262.000000	40.174067
2261.000000	40.375685
2260.000000	40.516756
2259.000000	40.677443
2258.000000	40.747589
2257.000000	40.839564
2256.000000	41.045623
2255.000000	41.213993
2254.000000	41.337434
2253.000000	41.606982
2252.000000	41.899478
2251.000000	42.139442
2250.000000	42.204182
2249.000000	42.363694
2248.000000	42.719369
2247.000000	43.020563
2246.000000	43.141309
2245.000000	43.262889
2244.000000	43.542772
2243.000000	43.702015
2242.000000	43.807110
2241.000000	43.924844
2240.000000	44.129895
2239.000000	44.338661
2238.000000	44.420394
2237.000000	44.521524
2236.000000	44.694089
2235.000000	44.712342
2234.000000	44.794316
2233.000000	44.962747
2232.000000	44.957638
2231.000000	44.984622
2230.000000	45.052705
2229.000000	45.108706
2228.000000	45.160270
2227.000000	45.113420
2226.000000	45.142055
2225.000000	45.189992
2224.000000	45.264499
2223.000000	45.274890
2222.000000	45.281120
2221.000000	45.291626
2220.000000	45.241365
2219.000000	45.174872
2218.000000	45.228390
2217.000000	45.058612
2216.000000	44.988610
2215.000000	45.001121
2214.000000	44.963406
2213.000000	44.946685
2212.000000	44.897914
2211.000000	44.860788
2210.000000	44.585245
2209.000000	44.560941
2208.000000	44.573500
2207.000000	44.506270
2206.000000	44.572317
2205.000000	44.406859
2204.000000	44.370886
2203.000000	44.399666
2202.000000	44.324754
2201.000000	44.103642
2200.000000	44.086293
2199.000000	44.001541
2198.000000	44.007752
2197.000000	43.932131
2196.000000	43.859424
2195.000000	43.812315
2194.000000	43.588675
2193.000000	43.461895
2192.000000	43.514382
2191.000000	43.425206
2190.000000	43.422457
2189.000000	43.409455
2188.000000	43.183770
2187.000000	43.253782
2186.000000	43.122827
2185.000000	43.125891
2184.000000	43.168190
2183.000000	43.078779
2182.000000	42.910306
2181.000000	42.924475
2180.000000	42.885116
2179.000000	42.901596
2178.000000	42.873157
2177.000000	42.861460
2176.000000	42.854030
2175.000000	42.961035
2174.000000	43.064597
2173.000000	43.030119
2172.000000	42.996990
2171.000000	43.279731
2170.000000	43.065569
2169.000000	43.250423
2168.000000	43.252567
2167.000000	43.383861
2166.000000	43.468908
2165.000000	43.557750
2164.000000	43.662747
2163.000000	43.572719
2162.000000	43.884951
2161.000000	43.957741
2160.000000	44.186522
2159.000000	44.322347
2158.000000	44.470911
2157.000000	44.300777
2156.000000	44.723048
2155.000000	44.948663
2154.000000	44.986232
2153.000000	45.266050
2152.000000	45.224426
2151.000000	45.260406
2150.000000	45.543490
2149.000000	45.805017
2148.000000	45.876846
2147.000000	46.177081
2146.000000	46.356141
2145.000000	46.364374
2144.000000	46.485238
2143.000000	46.555043
2142.000000	46.791245
2141.000000	46.906501
2140.000000	47.140808
2139.000000	47.221061
2138.000000	47.653491
2137.000000	47.528012
2136.000000	47.624898
2135.000000	47.744448
2134.000000	47.815636
2133.000000	47.804010
2132.000000	47.943052
2131.000000	48.117125
2130.000000	48.246496
2129.000000	48.467587
2128.000000	48.349071
2127.000000	48.424364
2126.000000	48.645986
2125.000000	48.306680
2124.000000	48.578230
2123.000000	48.821248
2122.000000	48.637557
2121.000000	48.716509
2120.000000	48.638527
2119.000000	48.849231
2118.000000	48.874886
2117.000000	48.941568
2116.000000	48.940378
2115.000000	48.988639
2114.000000	48.966161
2113.000000	48.941417
2112.000000	49.124636
2111.000000	49.091853
2110.000000	49.059822
2109.000000	49.093345
2108.000000	49.250315
2107.000000	49.126489
2106.000000	49.249240
2105.000000	49.344258
2104.000000	49.185777
2103.000000	49.284334
2102.000000	49.278051
2101.000000	49.255459
2100.000000	49.303894
2099.000000	49.243559
2098.000000	49.257371
2097.000000	49.283131
2096.000000	49.227714
2095.000000	49.214683
2094.000000	49.348968
2093.000000	49.322553
2092.000000	49.363296
2091.000000	49.309739
2090.000000	49.172972
2089.000000	49.282494
2088.000000	49.229260
2087.000000	49.248762
2086.000000	49.232093
2085.000000	49.150262
2084.000000	49.026009
2083.000000	49.070818
2082.000000	48.986414
2081.000000	48.947477
2080.000000	48.841009
2079.000000	48.905677
2078.000000	48.813225
2077.000000	48.734171
2076.000000	48.638331
2075.000000	48.504361
2074.000000	48.358303
2073.000000	48.356352
2072.000000	48.265335
2071.000000	48.166343
2070.000000	48.050558
2069.000000	47.906737
2068.000000	47.720823
2067.000000	47.514536
2066.000000	47.427427
2065.000000	47.323735
2064.000000	47.219086
2063.000000	47.005229
2062.000000	46.775019
2061.000000	46.707370
2060.000000	46.585553
2059.000000	46.411976
2058.000000	46.283704
2057.000000	46.108531
2056.000000	45.992805
2055.000000	45.864407
2054.000000	45.723386
2053.000000	45.532660
2052.000000	45.426267
2051.000000	45.339800
2050.000000	45.227848
2049.000000	45.108673
2048.000000	44.988706
2047.000000	44.976247
2046.000000	44.878605
2045.000000	44.790777
2044.000000	44.787398
2043.000000	44.766202
2042.000000	44.723242
2041.000000	44.742125
2040.000000	44.754018
2039.000000	44.769455
2038.000000	44.840029
2037.000000	44.884958
2036.000000	44.885627
2035.000000	45.015304
2034.000000	45.129879
2033.000000	45.209821
2032.000000	45.381474
2031.000000	45.501878
2030.000000	45.581628
2029.000000	45.705464
2028.000000	45.825603
2027.000000	45.960994
2026.000000	46.093981
2025.000000	46.203519
2024.000000	46.319122
2023.000000	46.418757
2022.000000	46.527689
2021.000000	46.621758
2020.000000	46.675656
2019.000000	46.732470
2018.000000	46.830666
2017.000000	46.879600
2016.000000	46.878225
2015.000000	46.907687
2014.000000	46.930525
2013.000000	46.983115
2012.000000	46.976604
2011.000000	46.947541
2010.000000	46.948852
2009.000000	46.926124
2008.000000	46.869623
2007.000000	46.826441
2006.000000	46.755858
2005.000000	46.689925
2004.000000	46.633867
2003.000000	46.592163
2002.000000	46.545348
2001.000000	46.438091
2000.000000	46.395169
1999.000000	46.346396
1998.000000	46.256859
1997.000000	46.185576
1996.000000	46.118454
1995.000000	46.009847
1994.000000	45.889419
1993.000000	45.811154
1992.000000	45.731177
1991.000000	45.606217
1990.000000	45.572463
1989.000000	45.459540
1988.000000	45.332161
1987.000000	45.291997
1986.000000	45.208841
1985.000000	45.106110
1984.000000	44.965116
1983.000000	44.862738
1982.000000	44.805957
1981.000000	44.727714
1980.000000	44.666620
1979.000000	44.555194
1978.000000	44.473631
1977.000000	44.393981
1976.000000	44.224504
1975.000000	44.175215
1974.000000	44.041548
1973.000000	43.966026
1972.000000	43.895039
1971.000000	43.764381
1970.000000	43.661753
1969.000000	43.583944
1968.000000	43.527508
1967.000000	43.417013
1966.000000	43.309977
1965.000000	43.236373
1964.000000	43.123942
1963.000000	43.028066
1962.000000	42.984233
1961.000000	42.873153
1960.000000	42.792863
1959.000000	42.726631
1958.000000	42.584395
1957.000000	42.547555
1956.000000	42.497527
1955.000000	42.395221
1954.000000	42.304623
1953.000000	42.236923
1952.000000	42.145509
1951.000000	42.087010
1950.000000	42.047781
1949.000000	42.013780
1948.000000	41.908398
1947.000000	41.919556
1946.000000	41.882239
1945.000000	41.887834
1944.000000	41.832713
1943.000000	41.893278
1942.000000	41.902494
1941.000000	41.898091
1940.000000	41.956001
1939.000000	42.019787
1938.000000	42.056813
1937.000000	42.130716
1936.000000	42.170284
1935.000000	42.279566
1934.000000	42.396035
1933.000000	42.524043
1932.000000	42.677004
1931.000000	42.775076
1930.000000	42.936257
1929.000000	43.133654
1928.000000	43.331554
1927.000000	43.505038
1926.000000	43.667563
1925.000000	43.897860
1924.000000	44.141962
1923.000000	44.399733
1922.000000	44.623214
1921.000000	44.909362
1920.000000	45.192201
1919.000000	45.431472
1918.000000	45.713994
1917.000000	46.061950
1916.000000	46.279431
1915.000000	46.704784
1914.000000	46.988423
1913.000000	47.347646
1912.000000	47.653510
1911.000000	47.944737
1910.000000	48.311640
1909.000000	48.690109
1908.000000	49.032807
1907.000000	49.454393
1906.000000	49.823176
1905.000000	50.213618
1904.000000	50.586911
1903.000000	50.930374
1902.000000	51.426362
1901.000000	51.784050
1900.000000	52.166490
1899.000000	52.540102
1898.000000	52.975914
1897.000000	53.384499
1896.000000	53.737502
1895.000000	54.131536
1894.000000	54.470471
1893.000000	54.851747
1892.000000	55.242323
1891.000000	55.571017
1890.000000	55.892351
1889.000000	56.188540
1888.000000	56.549153
1887.000000	56.818025
1886.000000	57.177495
1885.000000	57.455664
1884.000000	57.770836
1883.000000	58.025031
1882.000000	58.223669
1881.000000	58.455361
1880.000000	58.693196
1879.000000	58.922445
1878.000000	59.096366
1877.000000	59.354944
1876.000000	59.508169
1875.000000	59.625856
1874.000000	59.818762
1873.000000	59.969300
1872.000000	60.108166
1871.000000	60.244029
1870.000000	60.301079
1869.000000	60.465236
1868.000000	60.549445
1867.000000	60.588446
1866.000000	60.673896
1865.000000	60.749898
1864.000000	60.790681
1863.000000	60.834142
1862.000000	60.887921
1861.000000	60.936050
1860.000000	60.990457
1859.000000	61.059473
1858.000000	61.044686
1857.000000	61.068649
1856.000000	61.078759
1855.000000	61.117563
1854.000000	61.163911
1853.000000	61.153393
1852.000000	61.132854
1851.000000	61.151673
1850.000000	61.161131
1849.000000	61.143176
1848.000000	61.154575
1847.000000	61.189524
1846.000000	61.162541
1845.000000	61.144039
1844.000000	61.118872
1843.000000	61.047885
1842.000000	61.065836
1841.000000	61.067164
1840.000000	61.039222
1839.000000	61.015550
1838.000000	61.034117
1837.000000	60.969595
1836.000000	60.909786
1835.000000	60.912431
1834.000000	60.886814
1833.000000	60.835379
1832.000000	60.808501
1831.000000	60.779444
1830.000000	60.756131
1829.000000	60.726301
1828.000000	60.700014
1827.000000	60.693393
1826.000000	60.668979
1825.000000	60.653021
1824.000000	60.660689
1823.000000	60.643974
1822.000000	60.605695
1821.000000	60.569665
1820.000000	60.532634
1819.000000	60.506254
1818.000000	60.508904
1817.000000	60.506939
1816.000000	60.445755
1815.000000	60.409288
1814.000000	60.392319
1813.000000	60.358917
1812.000000	60.319175
1811.000000	60.305473
1810.000000	60.293910
1809.000000	60.270272
1808.000000	60.255126
1807.000000	60.212393
1806.000000	60.182314
1805.000000	60.163468
1804.000000	60.128105
1803.000000	60.114648
1802.000000	60.117148
1801.000000	60.099558
1800.000000	60.058034
1799.000000	60.033233
1798.000000	60.010849
1797.000000	60.002961
1796.000000	59.999371
1795.000000	59.980652
1794.000000	59.962554
1793.000000	59.947140
1792.000000	59.927034
1791.000000	59.905526
1790.000000	59.880934
1789.000000	59.875619
1788.000000	59.894577
1787.000000	59.847135
1786.000000	59.793093
1785.000000	59.770556
1784.000000	59.747928
1783.000000	59.742024
1782.000000	59.717585
1781.000000	59.692536
1780.000000	59.650831
1779.000000	59.622412
1778.000000	59.576255
1777.000000	59.517669
1776.000000	59.523025
1775.000000	59.492885
1774.000000	59.408640
1773.000000	59.370953
1772.000000	59.332848
1771.000000	59.293551
1770.000000	59.259124
1769.000000	59.199590
1768.000000	59.140656
1767.000000	59.107804
1766.000000	59.047303
1765.000000	59.006824
1764.000000	58.991701
1763.000000	58.935883
1762.000000	58.925091
1761.000000	58.863736
1760.000000	58.813188
1759.000000	58.756454
1758.000000	58.692479
1757.000000	58.649487
1756.000000	58.636572
1755.000000	58.579221
1754.000000	58.501833
1753.000000	58.475603
1752.000000	58.427547
1751.000000	58.362311
1750.000000	58.324909
1749.000000	58.317536
1748.000000	58.258204
1747.000000	58.204491
1746.000000	58.149997
1745.000000	58.096252
1744.000000	58.057599
1743.000000	58.017561
1742.000000	57.972258
1741.000000	57.942199
1740.000000	57.887915
1739.000000	57.838899
1738.000000	57.804053
1737.000000	57.764380
1736.000000	57.733900
1735.000000	57.756993
1734.000000	57.755851
1733.000000	57.715748
1732.000000	57.716444
1731.000000	57.744917
1730.000000	57.751152
1729.000000	57.782831
1728.000000	57.828286
1727.000000	57.845951
1726.000000	57.897133
1725.000000	57.948157
1724.000000	57.981407
1723.000000	58.059260
1722.000000	58.103137
1721.000000	58.206285
1720.000000	58.293042
1719.000000	58.364274
1718.000000	58.414450
1717.000000	58.495581
1716.000000	58.564783
1715.000000	58.582472
1714.000000	58.677691
1713.000000	58.770835
1712.000000	58.826422
1711.000000	58.871685
1710.000000	58.924976
1709.000000	58.934070
1708.000000	58.991595
1707.000000	59.057781
1706.000000	59.060648
1705.000000	59.109276
1704.000000	59.130519
1703.000000	59.111787
1702.000000	59.130336
1701.000000	59.137390
1700.000000	59.163903
1699.000000	59.164941
1698.000000	59.183233
1697.000000	59.221919
1696.000000	59.247059
1695.000000	59.249079
1694.000000	59.314739
1693.000000	59.319434
1692.000000	59.332685
1691.000000	59.401977
1690.000000	59.486742
1689.000000	59.524401
1688.000000	59.578466
1687.000000	59.667094
1686.000000	59.741083
1685.000000	59.846658
1684.000000	59.945767
1683.000000	60.063702
1682.000000	60.178281
1681.000000	60.322599
1680.000000	60.405519
1679.000000	60.563989
1678.000000	60.663870
1677.000000	60.810600
1676.000000	60.921224
1675.000000	61.072738
1674.000000	61.211846
1673.000000	61.354919
1672.000000	61.457730
1671.000000	61.570715
1670.000000	61.691876
1669.000000	61.836365
1668.000000	61.920489
1667.000000	62.034636
1666.000000	62.109700
1665.000000	62.181799
1664.000000	62.259091
1663.000000	62.326097
1662.000000	62.375175
1661.000000	62.442086
1660.000000	62.491224
1659.000000	62.562560
1658.000000	62.608163
1657.000000	62.618006
1656.000000	62.673765
1655.000000	62.684119
1654.000000	62.712905
1653.000000	62.727790
1652.000000	62.751927
1651.000000	62.746924
1650.000000	62.751929
1649.000000	62.778897
1648.000000	62.755031
1647.000000	62.765886
1646.000000	62.750693
1645.000000	62.731642
1644.000000	62.718618
1643.000000	62.711945
1642.000000	62.714219
1641.000000	62.692537
1640.000000	62.679100
1639.000000	62.663407
1638.000000	62.643701
1637.000000	62.624506
1636.000000	62.590824
1635.000000	62.571449
1634.000000	62.553174
1633.000000	62.510838
1632.000000	62.495454
1631.000000	62.491274
1630.000000	62.461461
1629.000000	62.420254
1628.000000	62.393011
1627.000000	62.368412
1626.000000	62.345847
1625.000000	62.318545
1624.000000	62.300605
1623.000000	62.284547
1622.000000	62.248692
1621.000000	62.190364
1620.000000	62.168030
1619.000000	62.130243
1618.000000	62.076255
1617.000000	62.064040
1616.000000	62.036732
1615.000000	61.988805
1614.000000	61.948074
1613.000000	61.914863
1612.000000	61.870843
1611.000000	61.833050
1610.000000	61.817738
1609.000000	61.794206
1608.000000	61.742964
1607.000000	61.690112
1606.000000	61.636128
1605.000000	61.586040
1604.000000	61.548006
1603.000000	61.504599
1602.000000	61.472114
1601.000000	61.436221
1600.000000	61.388708
1599.000000	61.346331
1598.000000	61.306861
1597.000000	61.277018
1596.000000	61.231214
1595.000000	61.194879
1594.000000	61.158368
1593.000000	61.120357
1592.000000	61.084490
1591.000000	61.046990
1590.000000	61.001560
1589.000000	60.961690
1588.000000	60.943189
1587.000000	60.925776
1586.000000	60.882403
1585.000000	60.841157
1584.000000	60.803557
1583.000000	60.778682
1582.000000	60.740809
1581.000000	60.694872
1580.000000	60.670400
1579.000000	60.653276
1578.000000	60.636546
1577.000000	60.607844
1576.000000	60.577272
1575.000000	60.541564
1574.000000	60.513045
1573.000000	60.485594
1572.000000	60.454468
1571.000000	60.406335
1570.000000	60.383003
1569.000000	60.369220
1568.000000	60.337518
1567.000000	60.304088
1566.000000	60.277718
1565.000000	60.267256
1564.000000	60.238572
1563.000000	60.228547
1562.000000	60.221709
1561.000000	60.202930
1560.000000	60.183313
1559.000000	60.172661
1558.000000	60.152281
1557.000000	60.147684
1556.000000	60.123855
1555.000000	60.106655
1554.000000	60.080046
1553.000000	60.075327
1552.000000	60.064844
1551.000000	60.030820
1550.000000	60.018101
1549.000000	59.983964
1548.000000	59.953147
1547.000000	59.931584
1546.000000	59.897054
1545.000000	59.845402
1544.000000	59.794846
1543.000000	59.761249
1542.000000	59.721166
1541.000000	59.657012
1540.000000	59.596681
1539.000000	59.531326
1538.000000	59.463733
1537.000000	59.393623
1536.000000	59.338942
1535.000000	59.282520
1534.000000	59.216618
1533.000000	59.166597
1532.000000	59.092400
1531.000000	59.000375
1530.000000	58.948789
1529.000000	58.896029
1528.000000	58.838210
1527.000000	58.777024
1526.000000	58.732944
1525.000000	58.664447
1524.000000	58.596700
1523.000000	58.563202
1522.000000	58.517928
1521.000000	58.467551
1520.000000	58.453035
1519.000000	58.371679
1518.000000	58.331022
1517.000000	58.310493
1516.000000	58.277867
1515.000000	58.240283
1514.000000	58.252329
1513.000000	58.250742
1512.000000	58.279628
1511.000000	58.250193
1510.000000	58.226155
1509.000000	58.209903
1508.000000	58.161616
1507.000000	58.124290
1506.000000	58.095240
1505.000000	58.061743
1504.000000	58.075627
1503.000000	58.048222
1502.000000	58.058483
1501.000000	58.037582
1500.000000	58.046276
1499.000000	58.054942
1498.000000	58.058104
1497.000000	58.066224
1496.000000	58.080271
1495.000000	58.079657
1494.000000	58.100574
1493.000000	58.149806
1492.000000	58.186556
1491.000000	58.223785
1490.000000	58.271505
1489.000000	58.295301
1488.000000	58.339163
1487.000000	58.396906
1486.000000	58.435642
1485.000000	58.536672
1484.000000	58.584678
1483.000000	58.635371
1482.000000	58.712290
1481.000000	58.767169
1480.000000	58.825667
1479.000000	58.898604
1478.000000	58.968061
1477.000000	59.051796
1476.000000	59.101089
1475.000000	59.157032
1474.000000	59.242770
1473.000000	59.276111
1472.000000	59.351542
1471.000000	59.399517
1470.000000	59.516074
