PE UV       SUBTECH     SPECTRUM    ASCII       PEDS        4.00        
   -1
RTAgneauUK 52.Sample.asc
18/03/02
16:02:30.00
18/03/02
16:02:30.00
Administrator

200.000000
1
Lambda 750
750N8071901
PerkinElmer UV WinLab 6.0.4.0738 / 1.61.00 Lambda 900

0
0
3350/servo 860.8/2
0
0
UV/VIS
1
1
1
CommonBeamDepol,150mm sphere / downward view
0
0
0
0
Program
Program
3350/servo 860.8/2
3350/0.2 860.8/0.2
3350/0.2 860.8/0.2
0
1
 
 
 
0
 
860.8
319.2
860.8
Front
100
on
 
 
0
0
0
 
0
 
 
 
0
 
 
0
0
0
0
0
 
 
 
 
0
0


0
0
#HDR
-1
-1
#GR
nm
%R
1.0
0.0
2350.000000
-1.000000
2151
8
72.535832
16.425501
#DATA
2350.000000	43.193397
2349.000000	42.849903
2348.000000	42.706895
2347.000000	43.581259
2346.000000	43.143900
2345.000000	43.088505
2344.000000	42.885140
2343.000000	42.887549
2342.000000	43.156867
2341.000000	42.815978
2340.000000	43.169216
2339.000000	43.611157
2338.000000	43.498617
2337.000000	43.143804
2336.000000	43.390588
2335.000000	43.775407
2334.000000	43.548164
2333.000000	43.423754
2332.000000	43.817141
2331.000000	43.647370
2330.000000	43.219995
2329.000000	43.458936
2328.000000	43.213443
2327.000000	43.275959
2326.000000	43.232237
2325.000000	43.127680
2324.000000	43.114586
2323.000000	43.298687
2322.000000	43.147941
2321.000000	43.107665
2320.000000	42.952278
2319.000000	42.907123
2318.000000	42.938012
2317.000000	42.985901
2316.000000	42.970919
2315.000000	42.794208
2314.000000	42.724706
2313.000000	42.622045
2312.000000	42.494735
2311.000000	42.517540
2310.000000	42.418495
2309.000000	42.552205
2308.000000	42.237082
2307.000000	42.203902
2306.000000	41.909789
2305.000000	41.807933
2304.000000	41.798757
2303.000000	41.959325
2302.000000	41.779598
2301.000000	41.655462
2300.000000	41.602387
2299.000000	41.655771
2298.000000	41.414353
2297.000000	41.120052
2296.000000	41.056638
2295.000000	40.975954
2294.000000	40.954781
2293.000000	40.846386
2292.000000	40.844823
2291.000000	40.816745
2290.000000	40.726531
2289.000000	40.574264
2288.000000	40.641012
2287.000000	40.585456
2286.000000	40.379287
2285.000000	40.254179
2284.000000	40.288850
2283.000000	40.269065
2282.000000	40.293789
2281.000000	40.428006
2280.000000	40.333863
2279.000000	40.176151
2278.000000	40.281149
2277.000000	40.419012
2276.000000	40.430034
2275.000000	40.378305
2274.000000	40.263391
2273.000000	40.415484
2272.000000	40.615931
2271.000000	40.661289
2270.000000	40.612700
2269.000000	40.741752
2268.000000	40.927138
2267.000000	40.921695
2266.000000	40.997345
2265.000000	41.090260
2264.000000	41.164768
2263.000000	41.291954
2262.000000	41.503213
2261.000000	41.699403
2260.000000	41.851566
2259.000000	42.024820
2258.000000	42.129460
2257.000000	42.206178
2256.000000	42.414326
2255.000000	42.655950
2254.000000	42.758329
2253.000000	42.868096
2252.000000	43.179389
2251.000000	43.458366
2250.000000	43.614034
2249.000000	43.811443
2248.000000	44.123668
2247.000000	44.384631
2246.000000	44.512157
2245.000000	44.696193
2244.000000	44.871415
2243.000000	45.032346
2242.000000	45.295639
2241.000000	45.433668
2240.000000	45.564820
2239.000000	45.687032
2238.000000	45.782287
2237.000000	45.987628
2236.000000	46.082108
2235.000000	46.102666
2234.000000	46.155579
2233.000000	46.263713
2232.000000	46.439788
2231.000000	46.519309
2230.000000	46.519928
2229.000000	46.607229
2228.000000	46.654438
2227.000000	46.651167
2226.000000	46.584908
2225.000000	46.619404
2224.000000	46.597525
2223.000000	46.625441
2222.000000	46.671357
2221.000000	46.621582
2220.000000	46.526717
2219.000000	46.576374
2218.000000	46.518307
2217.000000	46.435943
2216.000000	46.372675
2215.000000	46.380895
2214.000000	46.378094
2213.000000	46.352121
2212.000000	46.257546
2211.000000	46.208252
2210.000000	46.145958
2209.000000	46.051475
2208.000000	46.012026
2207.000000	45.923433
2206.000000	45.879903
2205.000000	45.748235
2204.000000	45.804999
2203.000000	45.583933
2202.000000	45.538560
2201.000000	45.576546
2200.000000	45.406377
2199.000000	45.388757
2198.000000	45.565647
2197.000000	45.385637
2196.000000	45.190099
2195.000000	45.041521
2194.000000	44.967748
2193.000000	44.820827
2192.000000	44.847311
2191.000000	44.702314
2190.000000	44.712416
2189.000000	44.725021
2188.000000	44.596404
2187.000000	44.549981
2186.000000	44.503396
2185.000000	44.537952
2184.000000	44.431671
2183.000000	44.466880
2182.000000	44.325663
2181.000000	44.226356
2180.000000	44.198742
2179.000000	44.266129
2178.000000	44.290287
2177.000000	44.365525
2176.000000	44.340838
2175.000000	44.258064
2174.000000	44.378145
2173.000000	44.289434
2172.000000	44.336591
2171.000000	44.533630
2170.000000	44.641467
2169.000000	44.578063
2168.000000	44.750475
2167.000000	44.829846
2166.000000	44.950332
2165.000000	45.035499
2164.000000	45.009857
2163.000000	45.159403
2162.000000	45.222181
2161.000000	45.374121
2160.000000	45.619075
2159.000000	45.705273
2158.000000	45.773235
2157.000000	45.822498
2156.000000	46.025343
2155.000000	46.318384
2154.000000	46.495716
2153.000000	46.640669
2152.000000	46.780404
2151.000000	46.995878
2150.000000	47.226926
2149.000000	47.295738
2148.000000	47.379860
2147.000000	47.656447
2146.000000	47.715699
2145.000000	47.888542
2144.000000	48.048763
2143.000000	48.068666
2142.000000	48.366217
2141.000000	48.397047
2140.000000	48.576331
2139.000000	48.843088
2138.000000	49.110598
2137.000000	49.069790
2136.000000	49.201228
2135.000000	49.409851
2134.000000	49.335159
2133.000000	49.390243
2132.000000	49.626014
2131.000000	49.868192
2130.000000	49.887284
2129.000000	50.013630
2128.000000	49.907846
2127.000000	50.083082
2126.000000	50.180539
2125.000000	50.110697
2124.000000	50.155972
2123.000000	50.324426
2122.000000	50.405518
2121.000000	50.366661
2120.000000	50.411510
2119.000000	50.487075
2118.000000	50.512888
2117.000000	50.587101
2116.000000	50.544190
2115.000000	50.637819
2114.000000	50.642877
2113.000000	50.652597
2112.000000	50.829788
2111.000000	50.678708
2110.000000	50.714326
2109.000000	50.723419
2108.000000	50.809309
2107.000000	50.772843
2106.000000	50.815286
2105.000000	50.780996
2104.000000	50.877700
2103.000000	50.956860
2102.000000	51.063184
2101.000000	51.003972
2100.000000	50.903259
2099.000000	50.908354
2098.000000	50.919156
2097.000000	50.970356
2096.000000	50.895078
2095.000000	50.858093
2094.000000	50.961408
2093.000000	50.873914
2092.000000	51.026962
2091.000000	50.902734
2090.000000	50.879536
2089.000000	50.949028
2088.000000	50.798162
2087.000000	50.818177
2086.000000	50.890106
2085.000000	50.779149
2084.000000	50.690745
2083.000000	50.710260
2082.000000	50.721193
2081.000000	50.533522
2080.000000	50.469578
2079.000000	50.452818
2078.000000	50.304007
2077.000000	50.249132
2076.000000	50.136313
2075.000000	50.013819
2074.000000	49.909531
2073.000000	49.901796
2072.000000	49.772498
2071.000000	49.687227
2070.000000	49.548979
2069.000000	49.465228
2068.000000	49.272659
2067.000000	49.076554
2066.000000	48.996917
2065.000000	48.796567
2064.000000	48.671600
2063.000000	48.502766
2062.000000	48.315653
2061.000000	48.144150
2060.000000	47.955064
2059.000000	47.869450
2058.000000	47.729528
2057.000000	47.605886
2056.000000	47.485665
2055.000000	47.321938
2054.000000	47.191962
2053.000000	47.074818
2052.000000	46.943621
2051.000000	46.794092
2050.000000	46.680275
2049.000000	46.603363
2048.000000	46.444243
2047.000000	46.340073
2046.000000	46.250635
2045.000000	46.207250
2044.000000	46.228555
2043.000000	46.196582
2042.000000	46.158385
2041.000000	46.187072
2040.000000	46.204597
2039.000000	46.186516
2038.000000	46.278063
2037.000000	46.336771
2036.000000	46.341653
2035.000000	46.426616
2034.000000	46.563525
2033.000000	46.681708
2032.000000	46.812904
2031.000000	46.919783
2030.000000	47.047865
2029.000000	47.187140
2028.000000	47.320140
2027.000000	47.446016
2026.000000	47.582508
2025.000000	47.728585
2024.000000	47.854502
2023.000000	47.992557
2022.000000	48.064002
2021.000000	48.122772
2020.000000	48.223874
2019.000000	48.289477
2018.000000	48.333625
2017.000000	48.389796
2016.000000	48.399505
2015.000000	48.416986
2014.000000	48.491630
2013.000000	48.523923
2012.000000	48.482538
2011.000000	48.471115
2010.000000	48.448595
2009.000000	48.417540
2008.000000	48.402270
2007.000000	48.352895
2006.000000	48.278138
2005.000000	48.244356
2004.000000	48.175355
2003.000000	48.109266
2002.000000	48.047771
2001.000000	47.965159
2000.000000	47.895042
1999.000000	47.815858
1998.000000	47.715093
1997.000000	47.663868
1996.000000	47.568014
1995.000000	47.445411
1994.000000	47.307674
1993.000000	47.236187
1992.000000	47.167760
1991.000000	47.058740
1990.000000	47.009438
1989.000000	46.923361
1988.000000	46.833323
1987.000000	46.755350
1986.000000	46.639529
1985.000000	46.549261
1984.000000	46.452808
1983.000000	46.350662
1982.000000	46.255733
1981.000000	46.191160
1980.000000	46.066975
1979.000000	45.943017
1978.000000	45.863143
1977.000000	45.786503
1976.000000	45.674836
1975.000000	45.566426
1974.000000	45.459814
1973.000000	45.367171
1972.000000	45.282005
1971.000000	45.159542
1970.000000	45.081297
1969.000000	44.991456
1968.000000	44.902778
1967.000000	44.771016
1966.000000	44.727147
1965.000000	44.621376
1964.000000	44.487313
1963.000000	44.406542
1962.000000	44.338446
1961.000000	44.196847
1960.000000	44.113155
1959.000000	44.085406
1958.000000	43.940669
1957.000000	43.877844
1956.000000	43.786329
1955.000000	43.724796
1954.000000	43.664871
1953.000000	43.582488
1952.000000	43.564467
1951.000000	43.436261
1950.000000	43.344498
1949.000000	43.304610
1948.000000	43.280882
1947.000000	43.272541
1946.000000	43.237587
1945.000000	43.220408
1944.000000	43.193835
1943.000000	43.189811
1942.000000	43.239225
1941.000000	43.226170
1940.000000	43.323123
1939.000000	43.358759
1938.000000	43.406392
1937.000000	43.525065
1936.000000	43.620809
1935.000000	43.624414
1934.000000	43.752668
1933.000000	43.873001
1932.000000	44.042157
1931.000000	44.159833
1930.000000	44.390599
1929.000000	44.533960
1928.000000	44.748184
1927.000000	44.938216
1926.000000	45.137783
1925.000000	45.419326
1924.000000	45.633556
1923.000000	45.830268
1922.000000	46.084801
1921.000000	46.443676
1920.000000	46.695889
1919.000000	46.999145
1918.000000	47.265167
1917.000000	47.596398
1916.000000	47.822672
1915.000000	48.253434
1914.000000	48.596195
1913.000000	49.046148
1912.000000	49.366608
1911.000000	49.626164
1910.000000	50.085367
1909.000000	50.437474
1908.000000	50.763089
1907.000000	51.169751
1906.000000	51.575324
1905.000000	52.051175
1904.000000	52.471418
1903.000000	52.807408
1902.000000	53.273297
1901.000000	53.667611
1900.000000	54.103909
1899.000000	54.577830
1898.000000	55.032448
1897.000000	55.383011
1896.000000	55.782104
1895.000000	56.174874
1894.000000	56.578991
1893.000000	56.906089
1892.000000	57.354212
1891.000000	57.736938
1890.000000	58.135720
1889.000000	58.466395
1888.000000	58.839401
1887.000000	59.129090
1886.000000	59.500657
1885.000000	59.788370
1884.000000	60.067700
1883.000000	60.289129
1882.000000	60.532333
1881.000000	60.854049
1880.000000	61.060879
1879.000000	61.294691
1878.000000	61.511379
1877.000000	61.750701
1876.000000	61.943881
1875.000000	62.122437
1874.000000	62.296787
1873.000000	62.455031
1872.000000	62.616402
1871.000000	62.740077
1870.000000	62.798999
1869.000000	62.919717
1868.000000	63.069918
1867.000000	63.085638
1866.000000	63.183506
1865.000000	63.276474
1864.000000	63.318072
1863.000000	63.404176
1862.000000	63.450510
1861.000000	63.496293
1860.000000	63.516938
1859.000000	63.541195
1858.000000	63.564666
1857.000000	63.608624
1856.000000	63.612383
1855.000000	63.633671
1854.000000	63.692104
1853.000000	63.683883
1852.000000	63.662056
1851.000000	63.680003
1850.000000	63.664615
1849.000000	63.646900
1848.000000	63.667470
1847.000000	63.682746
1846.000000	63.680230
1845.000000	63.674377
1844.000000	63.638394
1843.000000	63.588963
1842.000000	63.589397
1841.000000	63.589254
1840.000000	63.554167
1839.000000	63.538004
1838.000000	63.558959
1837.000000	63.513850
1836.000000	63.456211
1835.000000	63.427421
1834.000000	63.400221
1833.000000	63.375287
1832.000000	63.350321
1831.000000	63.328423
1830.000000	63.272351
1829.000000	63.225818
1828.000000	63.204197
1827.000000	63.194541
1826.000000	63.186227
1825.000000	63.157042
1824.000000	63.147007
1823.000000	63.123773
1822.000000	63.096947
1821.000000	63.070850
1820.000000	63.022333
1819.000000	62.968569
1818.000000	62.959725
1817.000000	62.960568
1816.000000	62.902597
1815.000000	62.888933
1814.000000	62.880645
1813.000000	62.836744
1812.000000	62.798897
1811.000000	62.765791
1810.000000	62.746374
1809.000000	62.742618
1808.000000	62.717472
1807.000000	62.672094
1806.000000	62.661015
1805.000000	62.611227
1804.000000	62.562102
1803.000000	62.557055
1802.000000	62.537078
1801.000000	62.516098
1800.000000	62.497110
1799.000000	62.482613
1798.000000	62.460876
1797.000000	62.438481
1796.000000	62.403564
1795.000000	62.394955
1794.000000	62.396928
1793.000000	62.356973
1792.000000	62.328107
1791.000000	62.310284
1790.000000	62.280212
1789.000000	62.272871
1788.000000	62.269843
1787.000000	62.215279
1786.000000	62.156237
1785.000000	62.163281
1784.000000	62.138807
1783.000000	62.109698
1782.000000	62.069116
1781.000000	62.061499
1780.000000	62.024735
1779.000000	61.989767
1778.000000	61.956550
1777.000000	61.900522
1776.000000	61.862054
1775.000000	61.828320
1774.000000	61.751647
1773.000000	61.703334
1772.000000	61.661876
1771.000000	61.624749
1770.000000	61.572346
1769.000000	61.519977
1768.000000	61.452339
1767.000000	61.405227
1766.000000	61.366527
1765.000000	61.327960
1764.000000	61.317920
1763.000000	61.255575
1762.000000	61.208073
1761.000000	61.160025
1760.000000	61.084883
1759.000000	61.013076
1758.000000	60.988705
1757.000000	60.948660
1756.000000	60.901174
1755.000000	60.833447
1754.000000	60.786471
1753.000000	60.756418
1752.000000	60.686657
1751.000000	60.646744
1750.000000	60.590162
1749.000000	60.574156
1748.000000	60.499911
1747.000000	60.418610
1746.000000	60.390199
1745.000000	60.316581
1744.000000	60.288664
1743.000000	60.205994
1742.000000	60.184453
1741.000000	60.174088
1740.000000	60.087505
1739.000000	60.038997
1738.000000	59.984913
1737.000000	59.973869
1736.000000	59.933103
1735.000000	59.908498
1734.000000	59.921505
1733.000000	59.932211
1732.000000	59.911758
1731.000000	59.932307
1730.000000	59.945632
1729.000000	59.967436
1728.000000	60.059172
1727.000000	60.084073
1726.000000	60.109834
1725.000000	60.160046
1724.000000	60.193269
1723.000000	60.277159
1722.000000	60.359878
1721.000000	60.485795
1720.000000	60.557478
1719.000000	60.623954
1718.000000	60.688357
1717.000000	60.786189
1716.000000	60.848286
1715.000000	60.925118
1714.000000	60.973837
1713.000000	61.069372
1712.000000	61.139447
1711.000000	61.163068
1710.000000	61.205164
1709.000000	61.253737
1708.000000	61.307760
1707.000000	61.370186
1706.000000	61.387993
1705.000000	61.407758
1704.000000	61.439876
1703.000000	61.456474
1702.000000	61.440748
1701.000000	61.464615
1700.000000	61.473680
1699.000000	61.489134
1698.000000	61.501458
1697.000000	61.537916
1696.000000	61.586363
1695.000000	61.551910
1694.000000	61.641256
1693.000000	61.660976
1692.000000	61.670050
1691.000000	61.782915
1690.000000	61.819126
1689.000000	61.883033
1688.000000	61.956865
1687.000000	62.039099
1686.000000	62.137336
1685.000000	62.256868
1684.000000	62.370019
1683.000000	62.507578
1682.000000	62.613985
1681.000000	62.768144
1680.000000	62.901895
1679.000000	63.043807
1678.000000	63.170566
1677.000000	63.314883
1676.000000	63.434555
1675.000000	63.593153
1674.000000	63.752391
1673.000000	63.924073
1672.000000	64.019153
1671.000000	64.146513
1670.000000	64.289733
1669.000000	64.399449
1668.000000	64.507867
1667.000000	64.626822
1666.000000	64.724026
1665.000000	64.787092
1664.000000	64.888398
1663.000000	64.967588
1662.000000	65.014630
1661.000000	65.068991
1660.000000	65.137410
1659.000000	65.190870
1658.000000	65.239857
1657.000000	65.260692
1656.000000	65.314503
1655.000000	65.349496
1654.000000	65.364891
1653.000000	65.371313
1652.000000	65.402870
1651.000000	65.396040
1650.000000	65.396998
1649.000000	65.421248
1648.000000	65.409575
1647.000000	65.406863
1646.000000	65.400769
1645.000000	65.384534
1644.000000	65.368469
1643.000000	65.358524
1642.000000	65.356017
1641.000000	65.346820
1640.000000	65.337917
1639.000000	65.304566
1638.000000	65.283877
1637.000000	65.267186
1636.000000	65.230033
1635.000000	65.217766
1634.000000	65.180383
1633.000000	65.150057
1632.000000	65.125740
1631.000000	65.106809
1630.000000	65.080330
1629.000000	65.049415
1628.000000	65.025187
1627.000000	65.004888
1626.000000	64.966910
1625.000000	64.921462
1624.000000	64.894108
1623.000000	64.862787
1622.000000	64.823281
1621.000000	64.780806
1620.000000	64.761589
1619.000000	64.729683
1618.000000	64.676765
1617.000000	64.651739
1616.000000	64.609241
1615.000000	64.554658
1614.000000	64.516400
1613.000000	64.468539
1612.000000	64.439535
1611.000000	64.409482
1610.000000	64.353308
1609.000000	64.309571
1608.000000	64.273559
1607.000000	64.217805
1606.000000	64.159163
1605.000000	64.107397
1604.000000	64.068627
1603.000000	64.034277
1602.000000	63.992018
1601.000000	63.942836
1600.000000	63.896909
1599.000000	63.856696
1598.000000	63.804350
1597.000000	63.759522
1596.000000	63.712645
1595.000000	63.671804
1594.000000	63.631051
1593.000000	63.589881
1592.000000	63.548779
1591.000000	63.507899
1590.000000	63.470765
1589.000000	63.426632
1588.000000	63.395674
1587.000000	63.367820
1586.000000	63.318744
1585.000000	63.279709
1584.000000	63.247954
1583.000000	63.214873
1582.000000	63.176380
1581.000000	63.137962
1580.000000	63.101243
1579.000000	63.072452
1578.000000	63.061396
1577.000000	63.016330
1576.000000	62.974485
1575.000000	62.958102
1574.000000	62.918342
1573.000000	62.880544
1572.000000	62.856952
1571.000000	62.814430
1570.000000	62.781277
1569.000000	62.748043
1568.000000	62.715823
1567.000000	62.696245
1566.000000	62.683978
1565.000000	62.672073
1564.000000	62.638159
1563.000000	62.613342
1562.000000	62.606695
1561.000000	62.581018
1560.000000	62.583431
1559.000000	62.564191
1558.000000	62.541607
1557.000000	62.540063
1556.000000	62.520048
1555.000000	62.479307
1554.000000	62.464007
1553.000000	62.461476
1552.000000	62.448106
1551.000000	62.412953
1550.000000	62.393459
1549.000000	62.367963
1548.000000	62.346600
1547.000000	62.296386
1546.000000	62.264781
1545.000000	62.220962
1544.000000	62.158789
1543.000000	62.113732
1542.000000	62.066651
1541.000000	62.010954
1540.000000	61.951723
1539.000000	61.880873
1538.000000	61.791492
1537.000000	61.718016
1536.000000	61.657281
1535.000000	61.574253
1534.000000	61.510347
1533.000000	61.448882
1532.000000	61.374206
1531.000000	61.302874
1530.000000	61.251306
1529.000000	61.178700
1528.000000	61.110419
1527.000000	61.048030
1526.000000	60.986728
1525.000000	60.954629
1524.000000	60.863892
1523.000000	60.803573
1522.000000	60.771846
1521.000000	60.717931
1520.000000	60.695970
1519.000000	60.619793
1518.000000	60.567300
1517.000000	60.519652
1516.000000	60.498697
1515.000000	60.460836
1514.000000	60.465472
1513.000000	60.460525
1512.000000	60.472011
1511.000000	60.454740
1510.000000	60.417441
1509.000000	60.405309
1508.000000	60.357821
1507.000000	60.331877
1506.000000	60.308726
1505.000000	60.276816
1504.000000	60.276192
1503.000000	60.265383
1502.000000	60.243143
1501.000000	60.256299
1500.000000	60.246367
1499.000000	60.261212
1498.000000	60.258051
1497.000000	60.275354
1496.000000	60.309457
1495.000000	60.306933
1494.000000	60.328666
1493.000000	60.357696
1492.000000	60.394058
1491.000000	60.439928
1490.000000	60.484874
1489.000000	60.517924
1488.000000	60.570256
1487.000000	60.641784
1486.000000	60.688095
1485.000000	60.767987
1484.000000	60.836331
1483.000000	60.898314
1482.000000	60.984868
1481.000000	61.036853
1480.000000	61.109154
1479.000000	61.204388
1478.000000	61.275619
1477.000000	61.357380
1476.000000	61.419158
1475.000000	61.493764
1474.000000	61.567049
1473.000000	61.634024
1472.000000	61.702203
1471.000000	61.765524
1470.000000	61.864835
