PE UV       SUBTECH     SPECTRUM    ASCII       PEDS        4.00        
   -1
RTAgneauUK 62.Sample.asc
18/03/02
16:35:36.00
18/03/02
16:35:36.00
Administrator

200.000000
1
Lambda 750
750N8071901
PerkinElmer UV WinLab 6.0.4.0738 / 1.61.00 Lambda 900

0
0
3350/servo 860.8/2
0
0
UV/VIS
1
1
1
CommonBeamDepol,150mm sphere / downward view
0
0
0
0
Program
Program
3350/servo 860.8/2
3350/0.2 860.8/0.2
3350/0.2 860.8/0.2
0
1
 
 
 
0
 
860.8
319.2
860.8
Front
100
on
 
 
0
0
0
 
0
 
 
 
0
 
 
0
0
0
0
0
 
 
 
 
0
0


0
0
#HDR
-1
-1
#GR
nm
%R
1.0
0.0
2350.000000
-1.000000
2151
8
70.634716
17.225087
#DATA
2350.000000	43.906510
2349.000000	43.597700
2348.000000	43.978921
2347.000000	44.397400
2346.000000	43.857209
2345.000000	43.625997
2344.000000	43.885854
2343.000000	43.633263
2342.000000	43.565259
2341.000000	43.791794
2340.000000	44.018126
2339.000000	43.918656
2338.000000	44.163020
2337.000000	43.920659
2336.000000	44.296611
2335.000000	44.548188
2334.000000	44.547577
2333.000000	44.394700
2332.000000	44.689222
2331.000000	44.456144
2330.000000	44.246757
2329.000000	44.223046
2328.000000	44.087098
2327.000000	44.144604
2326.000000	43.980028
2325.000000	43.970328
2324.000000	44.055581
2323.000000	44.127215
2322.000000	43.958561
2321.000000	44.052670
2320.000000	43.818639
2319.000000	43.643889
2318.000000	43.881286
2317.000000	43.804995
2316.000000	43.665990
2315.000000	43.380048
2314.000000	43.368846
2313.000000	43.365850
2312.000000	43.160085
2311.000000	43.154988
2310.000000	43.303832
2309.000000	43.247024
2308.000000	43.055884
2307.000000	42.969401
2306.000000	42.713806
2305.000000	42.764758
2304.000000	42.564966
2303.000000	42.577761
2302.000000	42.571473
2301.000000	42.515495
2300.000000	42.435161
2299.000000	42.356740
2298.000000	42.332060
2297.000000	42.087259
2296.000000	41.985378
2295.000000	42.072118
2294.000000	42.044603
2293.000000	41.979023
2292.000000	41.805735
2291.000000	41.615785
2290.000000	41.591256
2289.000000	41.584991
2288.000000	41.568196
2287.000000	41.512504
2286.000000	41.321602
2285.000000	41.200591
2284.000000	41.274144
2283.000000	41.511254
2282.000000	41.312530
2281.000000	41.297769
2280.000000	41.263540
2279.000000	41.299087
2278.000000	41.377381
2277.000000	41.401447
2276.000000	41.335125
2275.000000	41.363319
2274.000000	41.297643
2273.000000	41.468685
2272.000000	41.492498
2271.000000	41.539896
2270.000000	41.548025
2269.000000	41.632500
2268.000000	41.716434
2267.000000	41.700864
2266.000000	41.987088
2265.000000	42.118110
2264.000000	42.045922
2263.000000	42.098150
2262.000000	42.232905
2261.000000	42.316149
2260.000000	42.493875
2259.000000	42.715160
2258.000000	42.899477
2257.000000	42.991756
2256.000000	43.212121
2255.000000	43.490293
2254.000000	43.670758
2253.000000	43.847066
2252.000000	44.144682
2251.000000	44.372502
2250.000000	44.500812
2249.000000	44.606866
2248.000000	44.808219
2247.000000	45.029826
2246.000000	45.231819
2245.000000	45.368322
2244.000000	45.525025
2243.000000	45.751213
2242.000000	45.818868
2241.000000	45.903673
2240.000000	46.159404
2239.000000	46.311791
2238.000000	46.505139
2237.000000	46.693077
2236.000000	46.714184
2235.000000	46.828861
2234.000000	46.904788
2233.000000	46.971485
2232.000000	47.060862
2231.000000	47.172845
2230.000000	47.146040
2229.000000	47.155349
2228.000000	47.207174
2227.000000	47.227569
2226.000000	47.182927
2225.000000	47.125603
2224.000000	47.151850
2223.000000	47.193999
2222.000000	47.262603
2221.000000	47.323680
2220.000000	47.325638
2219.000000	47.228643
2218.000000	47.276320
2217.000000	47.186893
2216.000000	47.047390
2215.000000	47.019478
2214.000000	47.003837
2213.000000	46.949917
2212.000000	46.992535
2211.000000	46.907947
2210.000000	46.766929
2209.000000	46.697457
2208.000000	46.629373
2207.000000	46.560935
2206.000000	46.692203
2205.000000	46.541978
2204.000000	46.446909
2203.000000	46.330024
2202.000000	46.370647
2201.000000	46.295537
2200.000000	46.193487
2199.000000	46.136232
2198.000000	46.124195
2197.000000	46.127757
2196.000000	46.026977
2195.000000	45.874961
2194.000000	45.855519
2193.000000	45.644357
2192.000000	45.657912
2191.000000	45.625254
2190.000000	45.536723
2189.000000	45.439457
2188.000000	45.402860
2187.000000	45.302324
2186.000000	45.297825
2185.000000	45.211183
2184.000000	45.188366
2183.000000	45.251037
2182.000000	45.166870
2181.000000	45.136846
2180.000000	45.080508
2179.000000	45.072934
2178.000000	45.039039
2177.000000	44.917146
2176.000000	45.158189
2175.000000	45.030237
2174.000000	45.161089
2173.000000	45.304305
2172.000000	45.273346
2171.000000	45.292393
2170.000000	45.242024
2169.000000	45.390417
2168.000000	45.523552
2167.000000	45.392598
2166.000000	45.593260
2165.000000	45.777997
2164.000000	45.839466
2163.000000	45.938450
2162.000000	46.158483
2161.000000	46.190375
2160.000000	46.375021
2159.000000	46.426821
2158.000000	46.604906
2157.000000	46.555837
2156.000000	46.796009
2155.000000	47.039867
2154.000000	47.258450
2153.000000	47.421495
2152.000000	47.551210
2151.000000	47.727126
2150.000000	47.866030
2149.000000	47.906378
2148.000000	48.038389
2147.000000	48.408610
2146.000000	48.509731
2145.000000	48.479805
2144.000000	48.658097
2143.000000	48.789162
2142.000000	48.900784
2141.000000	49.167406
2140.000000	49.264007
2139.000000	49.336037
2138.000000	49.629382
2137.000000	49.592958
2136.000000	49.829388
2135.000000	49.903110
2134.000000	49.990458
2133.000000	50.023410
2132.000000	50.144761
2131.000000	50.450238
2130.000000	50.559353
2129.000000	50.499471
2128.000000	50.445882
2127.000000	50.625710
2126.000000	50.565184
2125.000000	50.494193
2124.000000	50.668734
2123.000000	50.769517
2122.000000	50.816923
2121.000000	50.820800
2120.000000	50.878142
2119.000000	51.000877
2118.000000	50.973919
2117.000000	51.096167
2116.000000	51.078324
2115.000000	51.046994
2114.000000	50.993637
2113.000000	51.101445
2112.000000	51.250253
2111.000000	51.181461
2110.000000	51.065797
2109.000000	51.213561
2108.000000	51.323021
2107.000000	51.204132
2106.000000	51.211510
2105.000000	51.208651
2104.000000	51.265617
2103.000000	51.323189
2102.000000	51.422066
2101.000000	51.431251
2100.000000	51.391254
2099.000000	51.400887
2098.000000	51.305659
2097.000000	51.369862
2096.000000	51.315271
2095.000000	51.352708
2094.000000	51.331437
2093.000000	51.394632
2092.000000	51.354851
2091.000000	51.350269
2090.000000	51.302120
2089.000000	51.355300
2088.000000	51.372109
2087.000000	51.282710
2086.000000	51.350446
2085.000000	51.197034
2084.000000	51.034306
2083.000000	51.110390
2082.000000	51.107451
2081.000000	51.030138
2080.000000	50.933255
2079.000000	50.929102
2078.000000	50.842927
2077.000000	50.821515
2076.000000	50.678540
2075.000000	50.577053
2074.000000	50.390755
2073.000000	50.378946
2072.000000	50.219330
2071.000000	50.056804
2070.000000	49.979047
2069.000000	49.944881
2068.000000	49.747622
2067.000000	49.574555
2066.000000	49.480621
2065.000000	49.311134
2064.000000	49.184419
2063.000000	49.089909
2062.000000	48.908562
2061.000000	48.743095
2060.000000	48.536132
2059.000000	48.486411
2058.000000	48.411916
2057.000000	48.194072
2056.000000	48.066451
2055.000000	47.958882
2054.000000	47.840006
2053.000000	47.664996
2052.000000	47.534539
2051.000000	47.363488
2050.000000	47.246325
2049.000000	47.212733
2048.000000	47.138020
2047.000000	47.022593
2046.000000	46.956505
2045.000000	46.846143
2044.000000	46.787096
2043.000000	46.799427
2042.000000	46.811191
2041.000000	46.820278
2040.000000	46.882645
2039.000000	46.862198
2038.000000	46.868357
2037.000000	46.950778
2036.000000	46.985735
2035.000000	47.076157
2034.000000	47.196322
2033.000000	47.275072
2032.000000	47.390289
2031.000000	47.524049
2030.000000	47.673033
2029.000000	47.756564
2028.000000	47.852474
2027.000000	48.001674
2026.000000	48.179700
2025.000000	48.310006
2024.000000	48.376578
2023.000000	48.466367
2022.000000	48.545586
2021.000000	48.623750
2020.000000	48.700225
2019.000000	48.778400
2018.000000	48.830397
2017.000000	48.882605
2016.000000	48.938736
2015.000000	48.945938
2014.000000	48.968415
2013.000000	48.944374
2012.000000	48.923669
2011.000000	48.935744
2010.000000	48.914508
2009.000000	48.887182
2008.000000	48.860586
2007.000000	48.807663
2006.000000	48.728415
2005.000000	48.672092
2004.000000	48.632213
2003.000000	48.587291
2002.000000	48.513677
2001.000000	48.446399
2000.000000	48.357251
1999.000000	48.277053
1998.000000	48.193307
1997.000000	48.120005
1996.000000	48.088572
1995.000000	47.986140
1994.000000	47.847152
1993.000000	47.790175
1992.000000	47.698185
1991.000000	47.612844
1990.000000	47.533365
1989.000000	47.441303
1988.000000	47.360022
1987.000000	47.253779
1986.000000	47.155043
1985.000000	47.111619
1984.000000	47.010325
1983.000000	46.915029
1982.000000	46.818640
1981.000000	46.722042
1980.000000	46.623630
1979.000000	46.518481
1978.000000	46.460778
1977.000000	46.365648
1976.000000	46.245710
1975.000000	46.150151
1974.000000	46.076285
1973.000000	45.971947
1972.000000	45.869715
1971.000000	45.740302
1970.000000	45.643440
1969.000000	45.575024
1968.000000	45.514313
1967.000000	45.417530
1966.000000	45.322682
1965.000000	45.223661
1964.000000	45.154311
1963.000000	45.044804
1962.000000	44.961736
1961.000000	44.840200
1960.000000	44.765194
1959.000000	44.645009
1958.000000	44.562193
1957.000000	44.500321
1956.000000	44.438533
1955.000000	44.334848
1954.000000	44.276729
1953.000000	44.259220
1952.000000	44.165200
1951.000000	44.066194
1950.000000	44.038455
1949.000000	43.974270
1948.000000	43.978817
1947.000000	43.917186
1946.000000	43.904326
1945.000000	43.935237
1944.000000	43.847327
1943.000000	43.800338
1942.000000	43.935593
1941.000000	43.938028
1940.000000	43.988917
1939.000000	44.021972
1938.000000	44.127300
1937.000000	44.172199
1936.000000	44.261418
1935.000000	44.268525
1934.000000	44.379242
1933.000000	44.553346
1932.000000	44.700611
1931.000000	44.797909
1930.000000	44.999727
1929.000000	45.146739
1928.000000	45.351483
1927.000000	45.517373
1926.000000	45.675165
1925.000000	45.884490
1924.000000	46.194862
1923.000000	46.389506
1922.000000	46.609590
1921.000000	46.895427
1920.000000	47.133614
1919.000000	47.490478
1918.000000	47.721841
1917.000000	48.004621
1916.000000	48.324382
1915.000000	48.618024
1914.000000	48.966208
1913.000000	49.301378
1912.000000	49.682672
1911.000000	49.927640
1910.000000	50.276645
1909.000000	50.666482
1908.000000	50.990141
1907.000000	51.334510
1906.000000	51.775572
1905.000000	52.134861
1904.000000	52.543751
1903.000000	52.899762
1902.000000	53.289691
1901.000000	53.711826
1900.000000	54.095306
1899.000000	54.543016
1898.000000	54.951454
1897.000000	55.303427
1896.000000	55.640168
1895.000000	56.053659
1894.000000	56.327030
1893.000000	56.695664
1892.000000	57.112405
1891.000000	57.414992
1890.000000	57.804607
1889.000000	58.133078
1888.000000	58.403699
1887.000000	58.725899
1886.000000	59.035661
1885.000000	59.259851
1884.000000	59.584938
1883.000000	59.846525
1882.000000	60.042356
1881.000000	60.308414
1880.000000	60.516209
1879.000000	60.688695
1878.000000	60.864930
1877.000000	61.145418
1876.000000	61.295065
1875.000000	61.460204
1874.000000	61.660958
1873.000000	61.768570
1872.000000	61.899576
1871.000000	61.991627
1870.000000	62.073262
1869.000000	62.230026
1868.000000	62.330945
1867.000000	62.341318
1866.000000	62.416975
1865.000000	62.498219
1864.000000	62.556600
1863.000000	62.595400
1862.000000	62.654868
1861.000000	62.671722
1860.000000	62.715447
1859.000000	62.749001
1858.000000	62.759615
1857.000000	62.781540
1856.000000	62.803451
1855.000000	62.826705
1854.000000	62.867166
1853.000000	62.880754
1852.000000	62.905378
1851.000000	62.894808
1850.000000	62.843797
1849.000000	62.839339
1848.000000	62.862276
1847.000000	62.857637
1846.000000	62.867521
1845.000000	62.875978
1844.000000	62.850405
1843.000000	62.775842
1842.000000	62.745954
1841.000000	62.762234
1840.000000	62.755799
1839.000000	62.730903
1838.000000	62.709224
1837.000000	62.688514
1836.000000	62.656706
1835.000000	62.632846
1834.000000	62.612556
1833.000000	62.588408
1832.000000	62.567499
1831.000000	62.507056
1830.000000	62.498293
1829.000000	62.456658
1828.000000	62.411454
1827.000000	62.397687
1826.000000	62.407968
1825.000000	62.369740
1824.000000	62.357420
1823.000000	62.369118
1822.000000	62.319773
1821.000000	62.275074
1820.000000	62.239321
1819.000000	62.223638
1818.000000	62.212273
1817.000000	62.208965
1816.000000	62.174936
1815.000000	62.155376
1814.000000	62.148266
1813.000000	62.116316
1812.000000	62.088494
1811.000000	62.048063
1810.000000	62.011446
1809.000000	62.008911
1808.000000	62.014162
1807.000000	61.978041
1806.000000	61.938432
1805.000000	61.904178
1804.000000	61.873334
1803.000000	61.870261
1802.000000	61.872543
1801.000000	61.856470
1800.000000	61.819336
1799.000000	61.781255
1798.000000	61.784796
1797.000000	61.765851
1796.000000	61.740566
1795.000000	61.723639
1794.000000	61.708159
1793.000000	61.704134
1792.000000	61.690539
1791.000000	61.668623
1790.000000	61.643501
1789.000000	61.603097
1788.000000	61.602833
1787.000000	61.591341
1786.000000	61.552877
1785.000000	61.532516
1784.000000	61.509794
1783.000000	61.497773
1782.000000	61.469113
1781.000000	61.433812
1780.000000	61.393127
1779.000000	61.373232
1778.000000	61.349331
1777.000000	61.311908
1776.000000	61.260155
1775.000000	61.216946
1774.000000	61.154992
1773.000000	61.125563
1772.000000	61.096583
1771.000000	61.033557
1770.000000	60.977381
1769.000000	60.925984
1768.000000	60.884027
1767.000000	60.847655
1766.000000	60.808980
1765.000000	60.777897
1764.000000	60.746561
1763.000000	60.686150
1762.000000	60.656302
1761.000000	60.607690
1760.000000	60.543892
1759.000000	60.492785
1758.000000	60.484767
1757.000000	60.411753
1756.000000	60.393003
1755.000000	60.343226
1754.000000	60.280565
1753.000000	60.236793
1752.000000	60.182120
1751.000000	60.159374
1750.000000	60.123321
1749.000000	60.086885
1748.000000	60.031688
1747.000000	59.964653
1746.000000	59.931183
1745.000000	59.897956
1744.000000	59.846001
1743.000000	59.787150
1742.000000	59.753191
1741.000000	59.712294
1740.000000	59.673814
1739.000000	59.597720
1738.000000	59.590006
1737.000000	59.561427
1736.000000	59.515399
1735.000000	59.511408
1734.000000	59.509463
1733.000000	59.495732
1732.000000	59.494573
1731.000000	59.539681
1730.000000	59.548876
1729.000000	59.525202
1728.000000	59.601635
1727.000000	59.623244
1726.000000	59.666543
1725.000000	59.715012
1724.000000	59.742281
1723.000000	59.810665
1722.000000	59.877891
1721.000000	59.984060
1720.000000	60.087470
1719.000000	60.172667
1718.000000	60.179248
1717.000000	60.253640
1716.000000	60.321136
1715.000000	60.387376
1714.000000	60.486563
1713.000000	60.569549
1712.000000	60.571711
1711.000000	60.640861
1710.000000	60.704922
1709.000000	60.727816
1708.000000	60.772278
1707.000000	60.826001
1706.000000	60.819564
1705.000000	60.855364
1704.000000	60.915308
1703.000000	60.907640
1702.000000	60.900807
1701.000000	60.936852
1700.000000	60.951804
1699.000000	60.955121
1698.000000	60.979156
1697.000000	61.018621
1696.000000	61.026504
1695.000000	61.025586
1694.000000	61.059678
1693.000000	61.091253
1692.000000	61.129598
1691.000000	61.195843
1690.000000	61.253976
1689.000000	61.296974
1688.000000	61.379117
1687.000000	61.444147
1686.000000	61.524105
1685.000000	61.617369
1684.000000	61.728857
1683.000000	61.852208
1682.000000	61.960585
1681.000000	62.111997
1680.000000	62.194669
1679.000000	62.330711
1678.000000	62.444781
1677.000000	62.576361
1676.000000	62.692293
1675.000000	62.839178
1674.000000	62.951064
1673.000000	63.091988
1672.000000	63.190011
1671.000000	63.289772
1670.000000	63.456963
1669.000000	63.553397
1668.000000	63.644294
1667.000000	63.741008
1666.000000	63.817423
1665.000000	63.904576
1664.000000	63.959209
1663.000000	64.039464
1662.000000	64.086044
1661.000000	64.139827
1660.000000	64.190679
1659.000000	64.237534
1658.000000	64.284665
1657.000000	64.305905
1656.000000	64.355975
1655.000000	64.361314
1654.000000	64.383417
1653.000000	64.386400
1652.000000	64.425359
1651.000000	64.414931
1650.000000	64.419876
1649.000000	64.435965
1648.000000	64.424962
1647.000000	64.427429
1646.000000	64.410613
1645.000000	64.400364
1644.000000	64.383778
1643.000000	64.373364
1642.000000	64.371637
1641.000000	64.370003
1640.000000	64.360832
1639.000000	64.351706
1638.000000	64.317007
1637.000000	64.292314
1636.000000	64.256754
1635.000000	64.228069
1634.000000	64.210971
1633.000000	64.177836
1632.000000	64.158820
1631.000000	64.149313
1630.000000	64.128751
1629.000000	64.097787
1628.000000	64.065932
1627.000000	64.049236
1626.000000	64.024867
1625.000000	63.986559
1624.000000	63.949653
1623.000000	63.927538
1622.000000	63.901064
1621.000000	63.864482
1620.000000	63.840101
1619.000000	63.800226
1618.000000	63.763639
1617.000000	63.737676
1616.000000	63.690480
1615.000000	63.645618
1614.000000	63.607042
1613.000000	63.561533
1612.000000	63.525770
1611.000000	63.501780
1610.000000	63.478607
1609.000000	63.445959
1608.000000	63.402543
1607.000000	63.353060
1606.000000	63.304849
1605.000000	63.266573
1604.000000	63.231864
1603.000000	63.189599
1602.000000	63.151071
1601.000000	63.114523
1600.000000	63.064826
1599.000000	63.020076
1598.000000	62.982522
1597.000000	62.955891
1596.000000	62.915281
1595.000000	62.871551
1594.000000	62.838763
1593.000000	62.809855
1592.000000	62.766040
1591.000000	62.738080
1590.000000	62.714859
1589.000000	62.669061
1588.000000	62.643923
1587.000000	62.610811
1586.000000	62.560382
1585.000000	62.530196
1584.000000	62.494835
1583.000000	62.461248
1582.000000	62.429069
1581.000000	62.402888
1580.000000	62.382804
1579.000000	62.354871
1578.000000	62.324887
1577.000000	62.289997
1576.000000	62.260922
1575.000000	62.229393
1574.000000	62.202668
1573.000000	62.178679
1572.000000	62.148492
1571.000000	62.116681
1570.000000	62.092237
1569.000000	62.062288
1568.000000	62.036756
1567.000000	62.016331
1566.000000	61.992266
1565.000000	61.977604
1564.000000	61.948223
1563.000000	61.918912
1562.000000	61.913842
1561.000000	61.899756
1560.000000	61.885502
1559.000000	61.878611
1558.000000	61.872859
1557.000000	61.856324
1556.000000	61.845489
1555.000000	61.837494
1554.000000	61.808028
1553.000000	61.795383
1552.000000	61.793588
1551.000000	61.760519
1550.000000	61.745027
1549.000000	61.715601
1548.000000	61.693012
1547.000000	61.647961
1546.000000	61.624201
1545.000000	61.587284
1544.000000	61.530651
1543.000000	61.486937
1542.000000	61.448134
1541.000000	61.368003
1540.000000	61.329401
1539.000000	61.269365
1538.000000	61.195988
1537.000000	61.136134
1536.000000	61.077721
1535.000000	61.001978
1534.000000	60.943140
1533.000000	60.908986
1532.000000	60.823317
1531.000000	60.728565
1530.000000	60.697973
1529.000000	60.632151
1528.000000	60.580612
1527.000000	60.528703
1526.000000	60.464365
1525.000000	60.419116
1524.000000	60.353153
1523.000000	60.321462
1522.000000	60.285240
1521.000000	60.246026
1520.000000	60.203088
1519.000000	60.128458
1518.000000	60.107592
1517.000000	60.077800
1516.000000	60.050177
1515.000000	60.037541
1514.000000	60.055994
1513.000000	60.056454
1512.000000	60.052529
1511.000000	60.014316
1510.000000	59.979143
1509.000000	59.965883
1508.000000	59.918520
1507.000000	59.894754
1506.000000	59.860804
1505.000000	59.843095
1504.000000	59.841224
1503.000000	59.829525
1502.000000	59.833146
1501.000000	59.816646
1500.000000	59.815199
1499.000000	59.823462
1498.000000	59.836574
1497.000000	59.841709
1496.000000	59.859651
1495.000000	59.864798
1494.000000	59.888778
1493.000000	59.901541
1492.000000	59.947475
1491.000000	59.990563
1490.000000	60.018022
1489.000000	60.073278
1488.000000	60.125718
1487.000000	60.174747
1486.000000	60.216004
1485.000000	60.279934
1484.000000	60.363727
1483.000000	60.403615
1482.000000	60.455163
1481.000000	60.527171
1480.000000	60.599868
1479.000000	60.650563
1478.000000	60.718995
1477.000000	60.771166
1476.000000	60.841994
1475.000000	60.909859
1474.000000	60.966471
1473.000000	61.027746
1472.000000	61.086532
1471.000000	61.178298
1470.000000	61.248488
