PE UV       SUBTECH     SPECTRUM    ASCII       PEDS        4.00        
   -1
RTChevreUK 32.Sample.asc
18/03/02
10:37:15.00
18/03/02
10:37:15.00
Administrator

200.000000
1
Lambda 750
750N8071901
PerkinElmer UV WinLab 6.0.4.0738 / 1.61.00 Lambda 900

0
0
3350/servo 860.8/2
0
0
UV/VIS
1
1
1
CommonBeamDepol,150mm sphere / downward view
0
0
0
0
Program
Program
3350/servo 860.8/2
3350/0.2 860.8/0.2
3350/0.2 860.8/0.2
0
1
 
 
 
0
 
860.8
319.2
860.8
Front
100
on
 
 
0
0
0
 
0
 
 
 
0
 
 
0
0
0
0
0
 
 
 
 
0
0


0
0
#HDR
-1
-1
#GR
nm
%R
1.0
0.0
2350.000000
-1.000000
2151
8
59.239355
10.172370
#DATA
2350.000000	12.249103
2349.000000	12.300493
2348.000000	12.145674
2347.000000	13.022147
2346.000000	12.577358
2345.000000	12.577528
2344.000000	12.274085
2343.000000	12.318369
2342.000000	12.087556
2341.000000	12.458522
2340.000000	12.307202
2339.000000	12.420957
2338.000000	12.782647
2337.000000	12.921100
2336.000000	12.880319
2335.000000	13.366762
2334.000000	13.491591
2333.000000	13.368319
2332.000000	13.325482
2331.000000	13.202854
2330.000000	13.214957
2329.000000	13.450539
2328.000000	12.918346
2327.000000	13.292859
2326.000000	13.007803
2325.000000	13.025389
2324.000000	12.946867
2323.000000	12.763916
2322.000000	12.838007
2321.000000	12.592497
2320.000000	12.603457
2319.000000	12.726358
2318.000000	12.714147
2317.000000	12.783724
2316.000000	12.378464
2315.000000	12.276821
2314.000000	12.274754
2313.000000	12.376864
2312.000000	12.111299
2311.000000	12.296554
2310.000000	12.447699
2309.000000	12.235456
2308.000000	12.042452
2307.000000	12.204354
2306.000000	11.955980
2305.000000	11.916042
2304.000000	11.956904
2303.000000	11.980046
2302.000000	12.187144
2301.000000	11.945433
2300.000000	11.972342
2299.000000	11.717212
2298.000000	11.615871
2297.000000	11.558259
2296.000000	11.683008
2295.000000	11.762330
2294.000000	11.692190
2293.000000	11.575205
2292.000000	11.526339
2291.000000	11.689197
2290.000000	11.632519
2289.000000	11.469748
2288.000000	11.521628
2287.000000	11.473507
2286.000000	11.433015
2285.000000	11.652032
2284.000000	11.625511
2283.000000	11.239019
2282.000000	11.162226
2281.000000	11.370171
2280.000000	11.464780
2279.000000	11.620841
2278.000000	11.517587
2277.000000	11.624898
2276.000000	11.601584
2275.000000	11.511018
2274.000000	11.601907
2273.000000	11.667103
2272.000000	11.614014
2271.000000	11.658885
2270.000000	11.726340
2269.000000	11.833631
2268.000000	11.867873
2267.000000	11.948192
2266.000000	12.117525
2265.000000	12.217343
2264.000000	12.230081
2263.000000	12.269755
2262.000000	12.345726
2261.000000	12.578703
2260.000000	12.679277
2259.000000	12.810356
2258.000000	12.939972
2257.000000	12.947644
2256.000000	13.126749
2255.000000	13.363481
2254.000000	13.469221
2253.000000	13.384073
2252.000000	13.463386
2251.000000	13.786062
2250.000000	13.975308
2249.000000	14.111590
2248.000000	14.201878
2247.000000	14.205928
2246.000000	14.407786
2245.000000	14.786785
2244.000000	14.939419
2243.000000	15.124043
2242.000000	15.289507
2241.000000	15.325608
2240.000000	15.376992
2239.000000	15.345392
2238.000000	15.368435
2237.000000	15.529362
2236.000000	15.771134
2235.000000	15.892844
2234.000000	15.868025
2233.000000	15.869075
2232.000000	15.986929
2231.000000	16.049738
2230.000000	16.101997
2229.000000	16.091976
2228.000000	16.176900
2227.000000	16.152420
2226.000000	16.007682
2225.000000	15.955588
2224.000000	16.091721
2223.000000	16.135770
2222.000000	15.936430
2221.000000	15.955446
2220.000000	15.996801
2219.000000	16.000032
2218.000000	15.836624
2217.000000	15.792578
2216.000000	15.836663
2215.000000	15.787772
2214.000000	15.653079
2213.000000	15.732865
2212.000000	15.729978
2211.000000	15.697406
2210.000000	15.588433
2209.000000	15.521606
2208.000000	15.451201
2207.000000	15.266677
2206.000000	15.284560
2205.000000	15.416828
2204.000000	15.337146
2203.000000	15.174735
2202.000000	15.126742
2201.000000	15.047797
2200.000000	15.099328
2199.000000	15.073119
2198.000000	15.039627
2197.000000	14.932992
2196.000000	14.762360
2195.000000	14.701819
2194.000000	14.701215
2193.000000	14.469993
2192.000000	14.513663
2191.000000	14.443125
2190.000000	14.423594
2189.000000	14.286551
2188.000000	14.245595
2187.000000	14.265907
2186.000000	14.395479
2185.000000	14.309712
2184.000000	14.242168
2183.000000	14.340290
2182.000000	14.289338
2181.000000	14.049770
2180.000000	14.093875
2179.000000	14.149488
2178.000000	13.955843
2177.000000	14.028803
2176.000000	14.046489
2175.000000	14.115791
2174.000000	14.083115
2173.000000	14.018395
2172.000000	14.277010
2171.000000	14.374275
2170.000000	14.275892
2169.000000	14.348370
2168.000000	14.394079
2167.000000	14.307608
2166.000000	14.503195
2165.000000	14.652232
2164.000000	14.584010
2163.000000	14.540760
2162.000000	14.530516
2161.000000	14.712870
2160.000000	14.991445
2159.000000	15.044332
2158.000000	15.182803
2157.000000	15.354938
2156.000000	15.354857
2155.000000	15.446699
2154.000000	15.584806
2153.000000	15.772992
2152.000000	15.972109
2151.000000	16.067579
2150.000000	16.028938
2149.000000	16.086431
2148.000000	16.225682
2147.000000	16.375794
2146.000000	16.516832
2145.000000	16.655025
2144.000000	16.858198
2143.000000	16.895416
2142.000000	16.972005
2141.000000	17.159885
2140.000000	17.315114
2139.000000	17.359031
2138.000000	17.528815
2137.000000	17.531817
2136.000000	17.801652
2135.000000	17.687636
2134.000000	17.894643
2133.000000	17.912823
2132.000000	18.126530
2131.000000	18.327795
2130.000000	18.491896
2129.000000	18.374722
2128.000000	18.361159
2127.000000	18.351114
2126.000000	18.433765
2125.000000	18.624500
2124.000000	18.659431
2123.000000	18.673749
2122.000000	18.762871
2121.000000	18.742059
2120.000000	18.835992
2119.000000	19.016127
2118.000000	19.052552
2117.000000	18.978687
2116.000000	19.061101
2115.000000	19.050140
2114.000000	19.059434
2113.000000	19.153002
2112.000000	19.254496
2111.000000	19.243361
2110.000000	19.211966
2109.000000	19.299799
2108.000000	19.416560
2107.000000	19.365087
2106.000000	19.415409
2105.000000	19.280656
2104.000000	19.368833
2103.000000	19.424206
2102.000000	19.350574
2101.000000	19.438181
2100.000000	19.400539
2099.000000	19.439615
2098.000000	19.399866
2097.000000	19.428771
2096.000000	19.308259
2095.000000	19.459285
2094.000000	19.503619
2093.000000	19.483277
2092.000000	19.503978
2091.000000	19.458733
2090.000000	19.415115
2089.000000	19.353187
2088.000000	19.387306
2087.000000	19.349643
2086.000000	19.310992
2085.000000	19.381581
2084.000000	19.252505
2083.000000	19.117414
2082.000000	19.064448
2081.000000	19.074366
2080.000000	18.954764
2079.000000	18.867027
2078.000000	18.731322
2077.000000	18.779033
2076.000000	18.671481
2075.000000	18.505338
2074.000000	18.410741
2073.000000	18.380848
2072.000000	18.243518
2071.000000	18.149647
2070.000000	17.990871
2069.000000	17.907953
2068.000000	17.816109
2067.000000	17.694599
2066.000000	17.560602
2065.000000	17.393649
2064.000000	17.245874
2063.000000	17.153324
2062.000000	17.106833
2061.000000	16.978696
2060.000000	16.825154
2059.000000	16.715589
2058.000000	16.578410
2057.000000	16.412251
2056.000000	16.375063
2055.000000	16.295717
2054.000000	16.135303
2053.000000	16.034283
2052.000000	15.893218
2051.000000	15.808030
2050.000000	15.827740
2049.000000	15.761878
2048.000000	15.692142
2047.000000	15.656742
2046.000000	15.612868
2045.000000	15.574521
2044.000000	15.560336
2043.000000	15.591142
2042.000000	15.618849
2041.000000	15.635681
2040.000000	15.654010
2039.000000	15.666717
2038.000000	15.708786
2037.000000	15.756027
2036.000000	15.819241
2035.000000	15.950997
2034.000000	16.026974
2033.000000	16.054798
2032.000000	16.164709
2031.000000	16.293442
2030.000000	16.382017
2029.000000	16.555692
2028.000000	16.706843
2027.000000	16.756831
2026.000000	16.872963
2025.000000	16.986227
2024.000000	17.036642
2023.000000	17.140094
2022.000000	17.246452
2021.000000	17.285315
2020.000000	17.370622
2019.000000	17.466314
2018.000000	17.560207
2017.000000	17.574853
2016.000000	17.533248
2015.000000	17.573648
2014.000000	17.644752
2013.000000	17.680386
2012.000000	17.662172
2011.000000	17.640231
2010.000000	17.589094
2009.000000	17.519843
2008.000000	17.496650
2007.000000	17.457643
2006.000000	17.397761
2005.000000	17.364292
2004.000000	17.312617
2003.000000	17.271153
2002.000000	17.210243
2001.000000	17.141322
2000.000000	17.096861
1999.000000	17.045879
1998.000000	16.960938
1997.000000	16.899971
1996.000000	16.838070
1995.000000	16.782299
1994.000000	16.720687
1993.000000	16.597217
1992.000000	16.518609
1991.000000	16.474801
1990.000000	16.430878
1989.000000	16.322200
1988.000000	16.255027
1987.000000	16.201539
1986.000000	16.106624
1985.000000	16.027037
1984.000000	15.942408
1983.000000	15.879976
1982.000000	15.815326
1981.000000	15.747314
1980.000000	15.711290
1979.000000	15.688233
1978.000000	15.605538
1977.000000	15.499456
1976.000000	15.408743
1975.000000	15.363913
1974.000000	15.336313
1973.000000	15.291096
1972.000000	15.237889
1971.000000	15.140864
1970.000000	15.052753
1969.000000	15.004095
1968.000000	14.973922
1967.000000	14.902625
1966.000000	14.874807
1965.000000	14.825231
1964.000000	14.748383
1963.000000	14.739507
1962.000000	14.668490
1961.000000	14.576972
1960.000000	14.527965
1959.000000	14.477300
1958.000000	14.451010
1957.000000	14.372807
1956.000000	14.396117
1955.000000	14.360148
1954.000000	14.306260
1953.000000	14.281846
1952.000000	14.188749
1951.000000	14.237998
1950.000000	14.211339
1949.000000	14.187448
1948.000000	14.155600
1947.000000	14.185264
1946.000000	14.118358
1945.000000	14.109062
1944.000000	14.238993
1943.000000	14.246436
1942.000000	14.217557
1941.000000	14.261620
1940.000000	14.267989
1939.000000	14.341790
1938.000000	14.358093
1937.000000	14.419437
1936.000000	14.521385
1935.000000	14.645777
1934.000000	14.693675
1933.000000	14.852061
1932.000000	15.038652
1931.000000	15.046990
1930.000000	15.096263
1929.000000	15.305859
1928.000000	15.452028
1927.000000	15.648284
1926.000000	15.800280
1925.000000	15.956726
1924.000000	16.158172
1923.000000	16.359388
1922.000000	16.616697
1921.000000	16.929118
1920.000000	17.165286
1919.000000	17.338085
1918.000000	17.543565
1917.000000	17.884952
1916.000000	18.101997
1915.000000	18.491655
1914.000000	18.919934
1913.000000	19.280584
1912.000000	19.527752
1911.000000	19.810454
1910.000000	20.153761
1909.000000	20.525466
1908.000000	21.009237
1907.000000	21.407944
1906.000000	21.840438
1905.000000	22.349451
1904.000000	22.765653
1903.000000	23.267183
1902.000000	23.806098
1901.000000	24.268413
1900.000000	24.827306
1899.000000	25.264828
1898.000000	25.796862
1897.000000	26.265976
1896.000000	26.822837
1895.000000	27.318733
1894.000000	27.800853
1893.000000	28.367453
1892.000000	28.916985
1891.000000	29.454253
1890.000000	29.926992
1889.000000	30.458704
1888.000000	30.947019
1887.000000	31.394868
1886.000000	31.851245
1885.000000	32.316411
1884.000000	32.780737
1883.000000	33.222630
1882.000000	33.557128
1881.000000	33.964401
1880.000000	34.368185
1879.000000	34.700838
1878.000000	34.999296
1877.000000	35.384788
1876.000000	35.716991
1875.000000	35.995218
1874.000000	36.273640
1873.000000	36.477195
1872.000000	36.736574
1871.000000	36.947178
1870.000000	37.140859
1869.000000	37.321180
1868.000000	37.490381
1867.000000	37.634849
1866.000000	37.752169
1865.000000	37.877984
1864.000000	37.939028
1863.000000	38.031597
1862.000000	38.141063
1861.000000	38.196098
1860.000000	38.290517
1859.000000	38.331593
1858.000000	38.369090
1857.000000	38.429883
1856.000000	38.443243
1855.000000	38.494470
1854.000000	38.519680
1853.000000	38.551094
1852.000000	38.577469
1851.000000	38.555418
1850.000000	38.513429
1849.000000	38.539454
1848.000000	38.541499
1847.000000	38.505333
1846.000000	38.463532
1845.000000	38.426067
1844.000000	38.413975
1843.000000	38.381419
1842.000000	38.316923
1841.000000	38.259824
1840.000000	38.204728
1839.000000	38.159206
1838.000000	38.119900
1837.000000	38.043213
1836.000000	37.996693
1835.000000	37.972739
1834.000000	37.907507
1833.000000	37.814835
1832.000000	37.767468
1831.000000	37.718417
1830.000000	37.660537
1829.000000	37.587351
1828.000000	37.497872
1827.000000	37.481656
1826.000000	37.429133
1825.000000	37.375421
1824.000000	37.323379
1823.000000	37.250627
1822.000000	37.206752
1821.000000	37.181670
1820.000000	37.129757
1819.000000	37.063392
1818.000000	37.030899
1817.000000	36.982428
1816.000000	36.904576
1815.000000	36.857810
1814.000000	36.820962
1813.000000	36.786486
1812.000000	36.732899
1811.000000	36.686456
1810.000000	36.644746
1809.000000	36.605634
1808.000000	36.559011
1807.000000	36.491832
1806.000000	36.460790
1805.000000	36.434840
1804.000000	36.377823
1803.000000	36.332899
1802.000000	36.295630
1801.000000	36.260027
1800.000000	36.229836
1799.000000	36.174191
1798.000000	36.128588
1797.000000	36.126146
1796.000000	36.094350
1795.000000	36.049619
1794.000000	36.014144
1793.000000	35.982284
1792.000000	35.962858
1791.000000	35.928149
1790.000000	35.881453
1789.000000	35.834050
1788.000000	35.794545
1787.000000	35.774459
1786.000000	35.732279
1785.000000	35.683131
1784.000000	35.633055
1783.000000	35.590417
1782.000000	35.520819
1781.000000	35.462028
1780.000000	35.423254
1779.000000	35.377433
1778.000000	35.261845
1777.000000	35.178675
1776.000000	35.108848
1775.000000	34.996438
1774.000000	34.901555
1773.000000	34.833012
1772.000000	34.736904
1771.000000	34.627366
1770.000000	34.541254
1769.000000	34.429519
1768.000000	34.321710
1767.000000	34.233680
1766.000000	34.163286
1765.000000	34.043197
1764.000000	33.970959
1763.000000	33.860740
1762.000000	33.781239
1761.000000	33.681380
1760.000000	33.606753
1759.000000	33.508209
1758.000000	33.432114
1757.000000	33.345207
1756.000000	33.251722
1755.000000	33.171260
1754.000000	33.053523
1753.000000	32.994089
1752.000000	32.928731
1751.000000	32.801350
1750.000000	32.710191
1749.000000	32.663305
1748.000000	32.522926
1747.000000	32.424381
1746.000000	32.322842
1745.000000	32.226325
1744.000000	32.141738
1743.000000	32.044263
1742.000000	31.952518
1741.000000	31.843408
1740.000000	31.764829
1739.000000	31.701067
1738.000000	31.594564
1737.000000	31.557979
1736.000000	31.519084
1735.000000	31.478967
1734.000000	31.433866
1733.000000	31.415348
1732.000000	31.410593
1731.000000	31.420694
1730.000000	31.428583
1729.000000	31.476182
1728.000000	31.550319
1727.000000	31.585649
1726.000000	31.678563
1725.000000	31.765566
1724.000000	31.861682
1723.000000	32.001059
1722.000000	32.124558
1721.000000	32.253369
1720.000000	32.371842
1719.000000	32.539187
1718.000000	32.622776
1717.000000	32.789277
1716.000000	32.937340
1715.000000	33.058185
1714.000000	33.158542
1713.000000	33.295145
1712.000000	33.387670
1711.000000	33.488095
1710.000000	33.570869
1709.000000	33.664480
1708.000000	33.722833
1707.000000	33.807325
1706.000000	33.886272
1705.000000	33.923683
1704.000000	33.957894
1703.000000	34.023182
1702.000000	34.029348
1701.000000	34.087354
1700.000000	34.119425
1699.000000	34.158372
1698.000000	34.224007
1697.000000	34.277364
1696.000000	34.366922
1695.000000	34.420481
1694.000000	34.487817
1693.000000	34.614866
1692.000000	34.718099
1691.000000	34.848855
1690.000000	34.979957
1689.000000	35.148257
1688.000000	35.318971
1687.000000	35.501140
1686.000000	35.698705
1685.000000	35.959026
1684.000000	36.179595
1683.000000	36.425156
1682.000000	36.671747
1681.000000	36.967419
1680.000000	37.244419
1679.000000	37.504248
1678.000000	37.804313
1677.000000	38.070275
1676.000000	38.354125
1675.000000	38.643252
1674.000000	38.938915
1673.000000	39.197372
1672.000000	39.452634
1671.000000	39.743438
1670.000000	39.997971
1669.000000	40.249624
1668.000000	40.449390
1667.000000	40.683243
1666.000000	40.847227
1665.000000	41.014087
1664.000000	41.165057
1663.000000	41.331723
1662.000000	41.468229
1661.000000	41.593415
1660.000000	41.703884
1659.000000	41.798891
1658.000000	41.910711
1657.000000	41.975391
1656.000000	42.039243
1655.000000	42.098637
1654.000000	42.146974
1653.000000	42.187113
1652.000000	42.215763
1651.000000	42.208526
1650.000000	42.208375
1649.000000	42.215144
1648.000000	42.204500
1647.000000	42.188414
1646.000000	42.178905
1645.000000	42.179313
1644.000000	42.163514
1643.000000	42.136414
1642.000000	42.099496
1641.000000	42.072888
1640.000000	42.023849
1639.000000	41.977777
1638.000000	41.931156
1637.000000	41.899962
1636.000000	41.833121
1635.000000	41.804476
1634.000000	41.742640
1633.000000	41.664107
1632.000000	41.608271
1631.000000	41.547067
1630.000000	41.495599
1629.000000	41.435216
1628.000000	41.375252
1627.000000	41.305042
1626.000000	41.233053
1625.000000	41.160600
1624.000000	41.088805
1623.000000	41.035704
1622.000000	40.975803
1621.000000	40.896914
1620.000000	40.827114
1619.000000	40.737452
1618.000000	40.676470
1617.000000	40.609645
1616.000000	40.527356
1615.000000	40.429632
1614.000000	40.345723
1613.000000	40.273176
1612.000000	40.198255
1611.000000	40.114324
1610.000000	40.022381
1609.000000	39.933271
1608.000000	39.850769
1607.000000	39.745114
1606.000000	39.639222
1605.000000	39.559678
1604.000000	39.474610
1603.000000	39.376316
1602.000000	39.275974
1601.000000	39.192645
1600.000000	39.111589
1599.000000	39.020934
1598.000000	38.931634
1597.000000	38.840274
1596.000000	38.757527
1595.000000	38.677640
1594.000000	38.599365
1593.000000	38.516580
1592.000000	38.435859
1591.000000	38.361439
1590.000000	38.283184
1589.000000	38.202019
1588.000000	38.130633
1587.000000	38.064877
1586.000000	37.993301
1585.000000	37.922045
1584.000000	37.862209
1583.000000	37.808953
1582.000000	37.739063
1581.000000	37.664811
1580.000000	37.585986
1579.000000	37.524051
1578.000000	37.480531
1577.000000	37.417547
1576.000000	37.351672
1575.000000	37.279111
1574.000000	37.218227
1573.000000	37.166155
1572.000000	37.100315
1571.000000	37.050050
1570.000000	37.002367
1569.000000	36.949093
1568.000000	36.897998
1567.000000	36.840377
1566.000000	36.775068
1565.000000	36.729835
1564.000000	36.696244
1563.000000	36.655260
1562.000000	36.613943
1561.000000	36.580032
1560.000000	36.541182
1559.000000	36.511509
1558.000000	36.478012
1557.000000	36.463876
1556.000000	36.428428
1555.000000	36.373566
1554.000000	36.332919
1553.000000	36.290399
1552.000000	36.256576
1551.000000	36.206834
1550.000000	36.145495
1549.000000	36.066235
1548.000000	36.009082
1547.000000	35.948627
1546.000000	35.864033
1545.000000	35.788173
1544.000000	35.689017
1543.000000	35.589245
1542.000000	35.486061
1541.000000	35.377414
1540.000000	35.269077
1539.000000	35.139138
1538.000000	35.037207
1537.000000	34.923016
1536.000000	34.789048
1535.000000	34.657768
1534.000000	34.534852
1533.000000	34.431143
1532.000000	34.291020
1531.000000	34.170674
1530.000000	34.061258
1529.000000	33.944564
1528.000000	33.845024
1527.000000	33.754998
1526.000000	33.651980
1525.000000	33.560986
1524.000000	33.457034
1523.000000	33.371597
1522.000000	33.305570
1521.000000	33.236112
1520.000000	33.154854
1519.000000	33.092097
1518.000000	33.024965
1517.000000	32.969907
1516.000000	32.912394
1515.000000	32.855121
1514.000000	32.811515
1513.000000	32.778156
1512.000000	32.729556
1511.000000	32.694141
1510.000000	32.655383
1509.000000	32.620065
1508.000000	32.588506
1507.000000	32.582141
1506.000000	32.552014
1505.000000	32.536590
1504.000000	32.548758
1503.000000	32.525105
1502.000000	32.539449
1501.000000	32.564114
1500.000000	32.594726
1499.000000	32.626104
1498.000000	32.638496
1497.000000	32.652683
1496.000000	32.663035
1495.000000	32.695777
1494.000000	32.723617
1493.000000	32.760432
1492.000000	32.817826
1491.000000	32.905407
1490.000000	32.971595
1489.000000	33.028668
1488.000000	33.107378
1487.000000	33.195442
1486.000000	33.295777
1485.000000	33.399502
1484.000000	33.502811
1483.000000	33.612172
1482.000000	33.752443
1481.000000	33.860085
1480.000000	33.949422
1479.000000	34.081849
1478.000000	34.196701
1477.000000	34.296026
1476.000000	34.411556
1475.000000	34.537216
1474.000000	34.638680
1473.000000	34.749868
1472.000000	34.842894
1471.000000	34.964260
1470.000000	35.069620
