PE UV       SUBTECH     SPECTRUM    ASCII       PEDS        4.00        
   -1
RTChevreUK 22.Sample.asc
18/03/02
10:21:38.00
18/03/02
10:21:38.00
Administrator

200.000000
1
Lambda 750
750N8071901
PerkinElmer UV WinLab 6.0.4.0738 / 1.61.00 Lambda 900

0
0
3350/servo 860.8/2
0
0
UV/VIS
1
1
1
CommonBeamDepol,150mm sphere / downward view
0
0
0
0
Program
Program
3350/servo 860.8/2
3350/0.2 860.8/0.2
3350/0.2 860.8/0.2
0
1
 
 
 
0
 
860.8
319.2
860.8
Front
100
on
 
 
0
0
0
 
0
 
 
 
0
 
 
0
0
0
0
0
 
 
 
 
0
0


0
0
#HDR
-1
-1
#GR
nm
%R
1.0
0.0
2350.000000
-1.000000
2151
8
62.541054
10.722623
#DATA
2350.000000	16.032921
2349.000000	16.115390
2348.000000	16.203038
2347.000000	17.014950
2346.000000	16.801397
2345.000000	16.106486
2344.000000	16.583079
2343.000000	16.109149
2342.000000	16.318993
2341.000000	16.431383
2340.000000	15.976715
2339.000000	16.280111
2338.000000	16.663893
2337.000000	16.906181
2336.000000	17.056969
2335.000000	16.872331
2334.000000	16.918601
2333.000000	17.150801
2332.000000	17.381832
2331.000000	16.947307
2330.000000	16.939193
2329.000000	17.040807
2328.000000	16.974477
2327.000000	17.113051
2326.000000	17.161512
2325.000000	17.008447
2324.000000	16.854958
2323.000000	16.777683
2322.000000	16.646037
2321.000000	16.556078
2320.000000	16.624699
2319.000000	16.473337
2318.000000	16.666885
2317.000000	16.470028
2316.000000	16.467733
2315.000000	16.224323
2314.000000	16.038037
2313.000000	16.067162
2312.000000	16.118385
2311.000000	16.156742
2310.000000	16.012914
2309.000000	16.079207
2308.000000	16.031864
2307.000000	15.879572
2306.000000	15.782148
2305.000000	15.718542
2304.000000	15.570230
2303.000000	15.775769
2302.000000	15.776204
2301.000000	15.693051
2300.000000	15.539476
2299.000000	15.467640
2298.000000	15.193329
2297.000000	15.103727
2296.000000	15.463064
2295.000000	15.381851
2294.000000	15.464875
2293.000000	15.323963
2292.000000	15.283128
2291.000000	15.186796
2290.000000	15.000748
2289.000000	15.050305
2288.000000	15.225470
2287.000000	15.128581
2286.000000	15.087975
2285.000000	15.054987
2284.000000	15.084591
2283.000000	15.231730
2282.000000	14.991670
2281.000000	15.078055
2280.000000	15.072741
2279.000000	15.144153
2278.000000	15.158381
2277.000000	15.184233
2276.000000	15.129578
2275.000000	15.141677
2274.000000	15.253067
2273.000000	15.332916
2272.000000	15.490816
2271.000000	15.446719
2270.000000	15.362058
2269.000000	15.435487
2268.000000	15.533731
2267.000000	15.618409
2266.000000	15.842357
2265.000000	15.817889
2264.000000	15.892744
2263.000000	16.152630
2262.000000	16.182551
2261.000000	16.197009
2260.000000	16.330917
2259.000000	16.635629
2258.000000	16.937372
2257.000000	16.976525
2256.000000	17.018268
2255.000000	17.197916
2254.000000	17.352168
2253.000000	17.432908
2252.000000	17.582453
2251.000000	17.863075
2250.000000	18.096312
2249.000000	18.204366
2248.000000	18.225182
2247.000000	18.340697
2246.000000	18.553577
2245.000000	18.805053
2244.000000	19.074254
2243.000000	19.227519
2242.000000	19.398455
2241.000000	19.501315
2240.000000	19.497357
2239.000000	19.526440
2238.000000	19.633310
2237.000000	19.847824
2236.000000	19.937392
2235.000000	20.002287
2234.000000	20.123314
2233.000000	20.199386
2232.000000	20.178763
2231.000000	20.201821
2230.000000	20.323658
2229.000000	20.395664
2228.000000	20.403480
2227.000000	20.335258
2226.000000	20.236443
2225.000000	20.300437
2224.000000	20.351944
2223.000000	20.386828
2222.000000	20.360983
2221.000000	20.334693
2220.000000	20.377521
2219.000000	20.206364
2218.000000	20.094861
2217.000000	20.228525
2216.000000	20.144267
2215.000000	20.129321
2214.000000	20.265315
2213.000000	20.147118
2212.000000	19.912693
2211.000000	19.801196
2210.000000	19.696531
2209.000000	19.713412
2208.000000	19.649509
2207.000000	19.592700
2206.000000	19.506498
2205.000000	19.472356
2204.000000	19.455369
2203.000000	19.324204
2202.000000	19.347607
2201.000000	19.322266
2200.000000	19.227250
2199.000000	19.102583
2198.000000	19.047937
2197.000000	19.020759
2196.000000	18.993131
2195.000000	18.878903
2194.000000	18.672413
2193.000000	18.718282
2192.000000	18.753290
2191.000000	18.667118
2190.000000	18.618918
2189.000000	18.579620
2188.000000	18.443867
2187.000000	18.388621
2186.000000	18.371253
2185.000000	18.285669
2184.000000	18.360469
2183.000000	18.484146
2182.000000	18.334010
2181.000000	18.149058
2180.000000	18.061941
2179.000000	18.083809
2178.000000	18.225092
2177.000000	18.223773
2176.000000	18.118833
2175.000000	18.053950
2174.000000	18.200672
2173.000000	18.082267
2172.000000	18.190910
2171.000000	18.279363
2170.000000	18.438578
2169.000000	18.494861
2168.000000	18.593322
2167.000000	18.682716
2166.000000	18.657370
2165.000000	18.608102
2164.000000	18.709365
2163.000000	18.864005
2162.000000	18.996083
2161.000000	19.083644
2160.000000	19.170481
2159.000000	19.299988
2158.000000	19.301378
2157.000000	19.545887
2156.000000	19.560884
2155.000000	19.763668
2154.000000	19.996843
2153.000000	20.055847
2152.000000	20.387504
2151.000000	20.331032
2150.000000	20.444484
2149.000000	20.461197
2148.000000	20.405459
2147.000000	20.924715
2146.000000	21.055739
2145.000000	21.270099
2144.000000	21.177590
2143.000000	21.415113
2142.000000	21.615417
2141.000000	21.686174
2140.000000	21.730275
2139.000000	22.152739
2138.000000	22.237305
2137.000000	22.164623
2136.000000	22.282902
2135.000000	22.270078
2134.000000	22.505682
2133.000000	22.291899
2132.000000	22.801703
2131.000000	22.980080
2130.000000	23.198946
2129.000000	23.191515
2128.000000	23.228247
2127.000000	23.109716
2126.000000	23.101183
2125.000000	23.176349
2124.000000	23.208164
2123.000000	23.140652
2122.000000	23.529092
2121.000000	23.612125
2120.000000	23.572310
2119.000000	23.587120
2118.000000	23.743175
2117.000000	23.686018
2116.000000	23.774142
2115.000000	23.887464
2114.000000	23.845137
2113.000000	23.865554
2112.000000	23.914020
2111.000000	23.828419
2110.000000	23.915515
2109.000000	24.131057
2108.000000	24.028768
2107.000000	24.096989
2106.000000	24.146017
2105.000000	24.095099
2104.000000	24.215903
2103.000000	24.195923
2102.000000	24.092992
2101.000000	24.296390
2100.000000	24.316927
2099.000000	24.221367
2098.000000	24.100198
2097.000000	24.136203
2096.000000	24.124696
2095.000000	24.114710
2094.000000	24.052734
2093.000000	24.127202
2092.000000	24.170455
2091.000000	24.212447
2090.000000	24.119340
2089.000000	24.102356
2088.000000	24.067140
2087.000000	24.019989
2086.000000	24.070888
2085.000000	24.103889
2084.000000	24.002583
2083.000000	23.888436
2082.000000	23.777347
2081.000000	23.739094
2080.000000	23.540782
2079.000000	23.498583
2078.000000	23.408572
2077.000000	23.277746
2076.000000	23.215973
2075.000000	23.157376
2074.000000	23.047232
2073.000000	22.950225
2072.000000	22.816312
2071.000000	22.784819
2070.000000	22.656267
2069.000000	22.424250
2068.000000	22.412125
2067.000000	22.253316
2066.000000	22.061339
2065.000000	21.950143
2064.000000	21.846255
2063.000000	21.608056
2062.000000	21.517312
2061.000000	21.456142
2060.000000	21.321717
2059.000000	21.159786
2058.000000	21.071056
2057.000000	20.983145
2056.000000	20.825239
2055.000000	20.689697
2054.000000	20.566300
2053.000000	20.450458
2052.000000	20.310909
2051.000000	20.210650
2050.000000	20.208065
2049.000000	20.162190
2048.000000	20.045798
2047.000000	19.962070
2046.000000	19.902725
2045.000000	19.923288
2044.000000	19.882624
2043.000000	19.847579
2042.000000	19.899782
2041.000000	19.926827
2040.000000	19.937769
2039.000000	19.999939
2038.000000	20.047727
2037.000000	20.109904
2036.000000	20.186301
2035.000000	20.284973
2034.000000	20.362744
2033.000000	20.475698
2032.000000	20.630609
2031.000000	20.762935
2030.000000	20.885428
2029.000000	20.979252
2028.000000	21.092243
2027.000000	21.205580
2026.000000	21.342732
2025.000000	21.440536
2024.000000	21.491931
2023.000000	21.626956
2022.000000	21.704041
2021.000000	21.746590
2020.000000	21.824155
2019.000000	21.920369
2018.000000	22.010630
2017.000000	22.011107
2016.000000	22.028114
2015.000000	22.082431
2014.000000	22.090345
2013.000000	22.068993
2012.000000	22.074243
2011.000000	22.093321
2010.000000	22.046137
2009.000000	21.984616
2008.000000	21.958649
2007.000000	21.933863
2006.000000	21.830348
2005.000000	21.758288
2004.000000	21.698919
2003.000000	21.663564
2002.000000	21.607514
2001.000000	21.536168
2000.000000	21.481269
1999.000000	21.436279
1998.000000	21.334745
1997.000000	21.242469
1996.000000	21.169588
1995.000000	21.086137
1994.000000	20.978746
1993.000000	20.906854
1992.000000	20.830176
1991.000000	20.716902
1990.000000	20.672332
1989.000000	20.567979
1988.000000	20.491816
1987.000000	20.400777
1986.000000	20.313283
1985.000000	20.211345
1984.000000	20.157105
1983.000000	20.066574
1982.000000	20.001258
1981.000000	19.971871
1980.000000	19.896266
1979.000000	19.824631
1978.000000	19.716313
1977.000000	19.634566
1976.000000	19.538287
1975.000000	19.462458
1974.000000	19.450615
1973.000000	19.369249
1972.000000	19.299127
1971.000000	19.210100
1970.000000	19.178452
1969.000000	19.120687
1968.000000	19.005546
1967.000000	18.939333
1966.000000	18.896964
1965.000000	18.836091
1964.000000	18.769184
1963.000000	18.696724
1962.000000	18.591564
1961.000000	18.563899
1960.000000	18.499066
1959.000000	18.409711
1958.000000	18.416400
1957.000000	18.397505
1956.000000	18.325144
1955.000000	18.276920
1954.000000	18.210346
1953.000000	18.126452
1952.000000	18.100663
1951.000000	18.139774
1950.000000	18.117148
1949.000000	18.007017
1948.000000	18.063567
1947.000000	18.060206
1946.000000	17.988801
1945.000000	18.015454
1944.000000	18.040074
1943.000000	18.093518
1942.000000	18.113551
1941.000000	18.137101
1940.000000	18.226403
1939.000000	18.249650
1938.000000	18.333681
1937.000000	18.389462
1936.000000	18.466840
1935.000000	18.585965
1934.000000	18.671900
1933.000000	18.815169
1932.000000	18.951557
1931.000000	19.070718
1930.000000	19.254720
1929.000000	19.353381
1928.000000	19.591876
1927.000000	19.784909
1926.000000	19.900215
1925.000000	20.175775
1924.000000	20.399997
1923.000000	20.672018
1922.000000	20.839856
1921.000000	21.203056
1920.000000	21.491725
1919.000000	21.621756
1918.000000	21.967371
1917.000000	22.323058
1916.000000	22.540832
1915.000000	22.997411
1914.000000	23.376393
1913.000000	23.793191
1912.000000	24.123905
1911.000000	24.447090
1910.000000	24.829402
1909.000000	25.290891
1908.000000	25.742380
1907.000000	26.161393
1906.000000	26.661169
1905.000000	27.151338
1904.000000	27.613273
1903.000000	28.069199
1902.000000	28.601366
1901.000000	29.184749
1900.000000	29.688294
1899.000000	30.240476
1898.000000	30.855189
1897.000000	31.348432
1896.000000	31.896071
1895.000000	32.459266
1894.000000	33.001193
1893.000000	33.538544
1892.000000	34.098783
1891.000000	34.651973
1890.000000	35.145133
1889.000000	35.605582
1888.000000	36.160721
1887.000000	36.633123
1886.000000	37.111847
1885.000000	37.595036
1884.000000	38.055253
1883.000000	38.479058
1882.000000	38.821970
1881.000000	39.234250
1880.000000	39.611895
1879.000000	39.992527
1878.000000	40.306699
1877.000000	40.695783
1876.000000	40.927704
1875.000000	41.266650
1874.000000	41.545782
1873.000000	41.764318
1872.000000	42.050166
1871.000000	42.254291
1870.000000	42.422752
1869.000000	42.615406
1868.000000	42.780802
1867.000000	42.894800
1866.000000	43.035537
1865.000000	43.174112
1864.000000	43.269348
1863.000000	43.358955
1862.000000	43.447595
1861.000000	43.507368
1860.000000	43.559635
1859.000000	43.600801
1858.000000	43.669208
1857.000000	43.682307
1856.000000	43.721802
1855.000000	43.792535
1854.000000	43.805813
1853.000000	43.832392
1852.000000	43.813367
1851.000000	43.846142
1850.000000	43.786244
1849.000000	43.755633
1848.000000	43.781367
1847.000000	43.765149
1846.000000	43.720125
1845.000000	43.701504
1844.000000	43.683540
1843.000000	43.625355
1842.000000	43.562434
1841.000000	43.512911
1840.000000	43.479014
1839.000000	43.448250
1838.000000	43.378820
1837.000000	43.327915
1836.000000	43.300464
1835.000000	43.225133
1834.000000	43.161540
1833.000000	43.085336
1832.000000	43.040422
1831.000000	42.993874
1830.000000	42.934127
1829.000000	42.851816
1828.000000	42.779557
1827.000000	42.749049
1826.000000	42.708849
1825.000000	42.634108
1824.000000	42.589092
1823.000000	42.540682
1822.000000	42.467050
1821.000000	42.428379
1820.000000	42.393005
1819.000000	42.331999
1818.000000	42.278882
1817.000000	42.237003
1816.000000	42.187015
1815.000000	42.122879
1814.000000	42.085417
1813.000000	42.050408
1812.000000	42.002884
1811.000000	41.973681
1810.000000	41.934182
1809.000000	41.881591
1808.000000	41.828133
1807.000000	41.785168
1806.000000	41.747549
1805.000000	41.684371
1804.000000	41.640126
1803.000000	41.621105
1802.000000	41.577251
1801.000000	41.535157
1800.000000	41.501836
1799.000000	41.456983
1798.000000	41.416520
1797.000000	41.401148
1796.000000	41.364108
1795.000000	41.319838
1794.000000	41.298598
1793.000000	41.252790
1792.000000	41.219099
1791.000000	41.193999
1790.000000	41.150870
1789.000000	41.103537
1788.000000	41.061234
1787.000000	41.035096
1786.000000	40.987638
1785.000000	40.954746
1784.000000	40.904279
1783.000000	40.850055
1782.000000	40.810948
1781.000000	40.751939
1780.000000	40.692367
1779.000000	40.628514
1778.000000	40.562174
1777.000000	40.441721
1776.000000	40.352471
1775.000000	40.261551
1774.000000	40.150268
1773.000000	40.075593
1772.000000	39.993442
1771.000000	39.912646
1770.000000	39.825735
1769.000000	39.706430
1768.000000	39.606320
1767.000000	39.524652
1766.000000	39.440685
1765.000000	39.331095
1764.000000	39.245609
1763.000000	39.156285
1762.000000	39.046095
1761.000000	38.940132
1760.000000	38.868159
1759.000000	38.793355
1758.000000	38.705677
1757.000000	38.631204
1756.000000	38.541079
1755.000000	38.443587
1754.000000	38.330124
1753.000000	38.242948
1752.000000	38.154358
1751.000000	38.051972
1750.000000	37.961510
1749.000000	37.890173
1748.000000	37.800314
1747.000000	37.687443
1746.000000	37.579041
1745.000000	37.480681
1744.000000	37.384658
1743.000000	37.300564
1742.000000	37.181866
1741.000000	37.078755
1740.000000	37.008475
1739.000000	36.911043
1738.000000	36.840290
1737.000000	36.793141
1736.000000	36.740661
1735.000000	36.697620
1734.000000	36.690839
1733.000000	36.635869
1732.000000	36.641077
1731.000000	36.651508
1730.000000	36.671685
1729.000000	36.719050
1728.000000	36.778824
1727.000000	36.865430
1726.000000	36.940418
1725.000000	37.033332
1724.000000	37.117482
1723.000000	37.230615
1722.000000	37.386665
1721.000000	37.513200
1720.000000	37.638060
1719.000000	37.809484
1718.000000	37.951347
1717.000000	38.069377
1716.000000	38.222221
1715.000000	38.308187
1714.000000	38.478344
1713.000000	38.598786
1712.000000	38.675258
1711.000000	38.770200
1710.000000	38.883264
1709.000000	38.955695
1708.000000	39.037615
1707.000000	39.121573
1706.000000	39.195072
1705.000000	39.236628
1704.000000	39.274490
1703.000000	39.308799
1702.000000	39.326697
1701.000000	39.377167
1700.000000	39.428638
1699.000000	39.462802
1698.000000	39.523332
1697.000000	39.591463
1696.000000	39.667634
1695.000000	39.697157
1694.000000	39.808218
1693.000000	39.887833
1692.000000	39.968399
1691.000000	40.123431
1690.000000	40.252623
1689.000000	40.422843
1688.000000	40.603683
1687.000000	40.789137
1686.000000	40.993994
1685.000000	41.235599
1684.000000	41.441947
1683.000000	41.681230
1682.000000	41.959623
1681.000000	42.233742
1680.000000	42.495106
1679.000000	42.751377
1678.000000	43.051958
1677.000000	43.336647
1676.000000	43.590981
1675.000000	43.873573
1674.000000	44.165108
1673.000000	44.436037
1672.000000	44.669801
1671.000000	44.915563
1670.000000	45.183927
1669.000000	45.454840
1668.000000	45.646353
1667.000000	45.859022
1666.000000	46.032776
1665.000000	46.189263
1664.000000	46.329165
1663.000000	46.490633
1662.000000	46.612153
1661.000000	46.716792
1660.000000	46.829955
1659.000000	46.940522
1658.000000	47.017036
1657.000000	47.082610
1656.000000	47.153267
1655.000000	47.217399
1654.000000	47.242654
1653.000000	47.284991
1652.000000	47.321573
1651.000000	47.323331
1650.000000	47.322720
1649.000000	47.329628
1648.000000	47.316247
1647.000000	47.315114
1646.000000	47.301865
1645.000000	47.282119
1644.000000	47.274947
1643.000000	47.254917
1642.000000	47.219553
1641.000000	47.171579
1640.000000	47.136542
1639.000000	47.099436
1638.000000	47.044528
1637.000000	47.017195
1636.000000	46.961355
1635.000000	46.917777
1634.000000	46.859005
1633.000000	46.794129
1632.000000	46.738704
1631.000000	46.674735
1630.000000	46.621839
1629.000000	46.568186
1628.000000	46.492784
1627.000000	46.431189
1626.000000	46.372969
1625.000000	46.307056
1624.000000	46.241946
1623.000000	46.186960
1622.000000	46.127086
1621.000000	46.053412
1620.000000	45.982535
1619.000000	45.906041
1618.000000	45.828603
1617.000000	45.764834
1616.000000	45.684945
1615.000000	45.583975
1614.000000	45.499535
1613.000000	45.422966
1612.000000	45.346312
1611.000000	45.270570
1610.000000	45.191081
1609.000000	45.095376
1608.000000	45.018730
1607.000000	44.927563
1606.000000	44.824070
1605.000000	44.731193
1604.000000	44.645501
1603.000000	44.551657
1602.000000	44.460908
1601.000000	44.376762
1600.000000	44.301557
1599.000000	44.227090
1598.000000	44.130654
1597.000000	44.029145
1596.000000	43.944412
1595.000000	43.862129
1594.000000	43.786475
1593.000000	43.706482
1592.000000	43.624292
1591.000000	43.556699
1590.000000	43.491728
1589.000000	43.410077
1588.000000	43.329975
1587.000000	43.265568
1586.000000	43.208990
1585.000000	43.128031
1584.000000	43.059811
1583.000000	43.007124
1582.000000	42.938385
1581.000000	42.868217
1580.000000	42.803948
1579.000000	42.732821
1578.000000	42.673116
1577.000000	42.615084
1576.000000	42.559909
1575.000000	42.494003
1574.000000	42.419750
1573.000000	42.358595
1572.000000	42.308714
1571.000000	42.240833
1570.000000	42.192523
1569.000000	42.141932
1568.000000	42.093134
1567.000000	42.040654
1566.000000	41.990103
1565.000000	41.950063
1564.000000	41.906227
1563.000000	41.862049
1562.000000	41.823690
1561.000000	41.780216
1560.000000	41.752390
1559.000000	41.725875
1558.000000	41.694410
1557.000000	41.659684
1556.000000	41.628074
1555.000000	41.605948
1554.000000	41.544497
1553.000000	41.500504
1552.000000	41.455421
1551.000000	41.424585
1550.000000	41.370078
1549.000000	41.310593
1548.000000	41.257304
1547.000000	41.175600
1546.000000	41.094346
1545.000000	41.012229
1544.000000	40.917149
1543.000000	40.815621
1542.000000	40.724076
1541.000000	40.621391
1540.000000	40.504023
1539.000000	40.376539
1538.000000	40.253975
1537.000000	40.133130
1536.000000	40.005106
1535.000000	39.895000
1534.000000	39.772878
1533.000000	39.660557
1532.000000	39.524324
1531.000000	39.392537
1530.000000	39.296075
1529.000000	39.173887
1528.000000	39.067428
1527.000000	38.976374
1526.000000	38.871293
1525.000000	38.774567
1524.000000	38.668385
1523.000000	38.588005
1522.000000	38.510705
1521.000000	38.436593
1520.000000	38.363613
1519.000000	38.293936
1518.000000	38.241225
1517.000000	38.181057
1516.000000	38.118782
1515.000000	38.066689
1514.000000	38.007878
1513.000000	37.970350
1512.000000	37.933212
1511.000000	37.893098
1510.000000	37.846798
1509.000000	37.816013
1508.000000	37.787874
1507.000000	37.765924
1506.000000	37.754119
1505.000000	37.768064
1504.000000	37.795939
1503.000000	37.795193
1502.000000	37.781618
1501.000000	37.754647
1500.000000	37.745891
1499.000000	37.763982
1498.000000	37.761463
1497.000000	37.798507
1496.000000	37.825092
1495.000000	37.849467
1494.000000	37.888318
1493.000000	37.954641
1492.000000	37.997284
1491.000000	38.065859
1490.000000	38.137534
1489.000000	38.216250
1488.000000	38.319210
1487.000000	38.396984
1486.000000	38.499347
1485.000000	38.606128
1484.000000	38.709138
1483.000000	38.829426
1482.000000	38.922399
1481.000000	39.070833
1480.000000	39.174530
1479.000000	39.290595
1478.000000	39.396257
1477.000000	39.487516
1476.000000	39.619133
1475.000000	39.723885
1474.000000	39.839704
1473.000000	39.940924
1472.000000	40.041205
1471.000000	40.155742
1470.000000	40.250622
