PE UV       SUBTECH     SPECTRUM    ASCII       PEDS        4.00        
   -1
RTChevreUK 42.Sample.asc
18/03/02
10:47:27.00
18/03/02
10:47:27.00
Administrator

200.000000
1
Lambda 750
750N8071901
PerkinElmer UV WinLab 6.0.4.0738 / 1.61.00 Lambda 900

0
0
3350/servo 860.8/2
0
0
UV/VIS
1
1
1
CommonBeamDepol,150mm sphere / downward view
0
0
0
0
Program
Program
3350/servo 860.8/2
3350/0.2 860.8/0.2
3350/0.2 860.8/0.2
0
1
 
 
 
0
 
860.8
319.2
860.8
Front
100
on
 
 
0
0
0
 
0
 
 
 
0
 
 
0
0
0
0
0
 
 
 
 
0
0


0
0
#HDR
-1
-1
#GR
nm
%R
1.0
0.0
2350.000000
-1.000000
2151
8
58.233712
10.694275
#DATA
2350.000000	14.655044
2349.000000	14.850172
2348.000000	14.648757
2347.000000	15.634121
2346.000000	15.024316
2345.000000	14.839846
2344.000000	14.810946
2343.000000	14.562466
2342.000000	14.853939
2341.000000	15.235778
2340.000000	15.233657
2339.000000	15.066323
2338.000000	15.591546
2337.000000	15.158632
2336.000000	15.414790
2335.000000	15.749227
2334.000000	15.743646
2333.000000	15.737137
2332.000000	15.641982
2331.000000	15.751726
2330.000000	15.769996
2329.000000	15.729540
2328.000000	15.511729
2327.000000	15.399459
2326.000000	15.436274
2325.000000	15.440503
2324.000000	15.597572
2323.000000	15.564898
2322.000000	15.354784
2321.000000	15.096860
2320.000000	14.804244
2319.000000	15.055286
2318.000000	15.090557
2317.000000	15.205597
2316.000000	14.980423
2315.000000	14.907814
2314.000000	14.878720
2313.000000	14.638082
2312.000000	14.534125
2311.000000	14.703043
2310.000000	14.666294
2309.000000	14.660284
2308.000000	14.321697
2307.000000	14.467657
2306.000000	14.583003
2305.000000	14.635881
2304.000000	14.513559
2303.000000	14.521032
2302.000000	14.558671
2301.000000	14.458685
2300.000000	14.424588
2299.000000	14.369564
2298.000000	14.165726
2297.000000	14.006578
2296.000000	13.964067
2295.000000	13.939272
2294.000000	13.938924
2293.000000	13.948444
2292.000000	13.826344
2291.000000	13.546558
2290.000000	13.631217
2289.000000	13.659742
2288.000000	13.779157
2287.000000	13.809934
2286.000000	13.744933
2285.000000	13.705344
2284.000000	13.699726
2283.000000	13.714085
2282.000000	13.807101
2281.000000	13.972625
2280.000000	13.862427
2279.000000	13.942035
2278.000000	13.843004
2277.000000	13.792675
2276.000000	13.977304
2275.000000	14.072589
2274.000000	14.227758
2273.000000	14.225098
2272.000000	14.124175
2271.000000	14.208117
2270.000000	14.262641
2269.000000	14.208298
2268.000000	14.394158
2267.000000	14.488481
2266.000000	14.528395
2265.000000	14.638928
2264.000000	14.744907
2263.000000	14.732845
2262.000000	14.633577
2261.000000	14.729541
2260.000000	15.050913
2259.000000	15.236891
2258.000000	15.339928
2257.000000	15.380355
2256.000000	15.516445
2255.000000	15.691123
2254.000000	15.766294
2253.000000	15.893555
2252.000000	16.256365
2251.000000	16.613830
2250.000000	16.635598
2249.000000	16.638041
2248.000000	16.841498
2247.000000	17.045335
2246.000000	17.092857
2245.000000	17.229971
2244.000000	17.401305
2243.000000	17.560839
2242.000000	17.773649
2241.000000	17.819840
2240.000000	17.840806
2239.000000	17.951173
2238.000000	18.046509
2237.000000	18.247640
2236.000000	18.353368
2235.000000	18.447152
2234.000000	18.465478
2233.000000	18.427583
2232.000000	18.441364
2231.000000	18.444926
2230.000000	18.487055
2229.000000	18.540907
2228.000000	18.653989
2227.000000	18.685677
2226.000000	18.637750
2225.000000	18.550772
2224.000000	18.621893
2223.000000	18.613131
2222.000000	18.562851
2221.000000	18.609876
2220.000000	18.616466
2219.000000	18.553754
2218.000000	18.457583
2217.000000	18.463048
2216.000000	18.461856
2215.000000	18.445824
2214.000000	18.462588
2213.000000	18.387142
2212.000000	18.262015
2211.000000	18.248788
2210.000000	18.203367
2209.000000	18.097600
2208.000000	17.972349
2207.000000	18.045242
2206.000000	18.066173
2205.000000	17.879189
2204.000000	17.680877
2203.000000	17.658514
2202.000000	17.629772
2201.000000	17.557025
2200.000000	17.548896
2199.000000	17.499599
2198.000000	17.666950
2197.000000	17.578934
2196.000000	17.370414
2195.000000	17.317402
2194.000000	17.162468
2193.000000	17.083166
2192.000000	17.128346
2191.000000	17.152847
2190.000000	17.186041
2189.000000	17.028194
2188.000000	16.894537
2187.000000	16.718168
2186.000000	16.803747
2185.000000	16.812087
2184.000000	16.820912
2183.000000	16.888717
2182.000000	16.860887
2181.000000	16.644902
2180.000000	16.635395
2179.000000	16.600050
2178.000000	16.552015
2177.000000	16.712235
2176.000000	16.799501
2175.000000	16.855722
2174.000000	16.752434
2173.000000	16.705027
2172.000000	16.715732
2171.000000	16.860300
2170.000000	16.935444
2169.000000	16.888868
2168.000000	16.996129
2167.000000	16.988387
2166.000000	17.113142
2165.000000	17.173230
2164.000000	17.259995
2163.000000	17.315826
2162.000000	17.369183
2161.000000	17.478769
2160.000000	17.679962
2159.000000	17.711735
2158.000000	17.789751
2157.000000	17.866870
2156.000000	18.006111
2155.000000	18.195964
2154.000000	18.129369
2153.000000	18.521762
2152.000000	18.460848
2151.000000	18.695088
2150.000000	18.684708
2149.000000	18.819414
2148.000000	18.930817
2147.000000	19.382382
2146.000000	19.343213
2145.000000	19.308126
2144.000000	19.625123
2143.000000	19.596902
2142.000000	19.607977
2141.000000	19.776740
2140.000000	20.048778
2139.000000	20.138845
2138.000000	20.335132
2137.000000	20.216665
2136.000000	20.296121
2135.000000	20.480272
2134.000000	20.764799
2133.000000	20.489229
2132.000000	20.852356
2131.000000	20.786518
2130.000000	21.060732
2129.000000	21.171761
2128.000000	20.912153
2127.000000	21.096473
2126.000000	21.351857
2125.000000	21.340607
2124.000000	21.462556
2123.000000	21.460443
2122.000000	21.663308
2121.000000	21.688017
2120.000000	21.737040
2119.000000	21.637823
2118.000000	21.597162
2117.000000	21.693366
2116.000000	21.795677
2115.000000	21.906194
2114.000000	21.904614
2113.000000	21.871100
2112.000000	21.753842
2111.000000	21.942765
2110.000000	21.944220
2109.000000	22.031260
2108.000000	22.031769
2107.000000	22.060866
2106.000000	21.924086
2105.000000	21.964106
2104.000000	22.040566
2103.000000	22.191838
2102.000000	22.101223
2101.000000	22.259988
2100.000000	22.339412
2099.000000	22.232454
2098.000000	22.138498
2097.000000	22.094917
2096.000000	22.071072
2095.000000	22.138036
2094.000000	22.284862
2093.000000	22.201675
2092.000000	22.085772
2091.000000	22.116241
2090.000000	22.085324
2089.000000	22.139665
2088.000000	21.961850
2087.000000	21.950507
2086.000000	22.083571
2085.000000	22.071960
2084.000000	21.983732
2083.000000	21.875104
2082.000000	21.747450
2081.000000	21.712716
2080.000000	21.673993
2079.000000	21.639898
2078.000000	21.548620
2077.000000	21.449204
2076.000000	21.366244
2075.000000	21.281104
2074.000000	21.261046
2073.000000	21.074148
2072.000000	20.958520
2071.000000	20.935415
2070.000000	20.809078
2069.000000	20.550253
2068.000000	20.465060
2067.000000	20.425057
2066.000000	20.262458
2065.000000	20.072609
2064.000000	19.948492
2063.000000	19.807957
2062.000000	19.734911
2061.000000	19.639094
2060.000000	19.512220
2059.000000	19.477985
2058.000000	19.298520
2057.000000	19.162323
2056.000000	19.116733
2055.000000	18.991890
2054.000000	18.854345
2053.000000	18.763665
2052.000000	18.664922
2051.000000	18.613088
2050.000000	18.561525
2049.000000	18.377517
2048.000000	18.307246
2047.000000	18.299188
2046.000000	18.220723
2045.000000	18.184732
2044.000000	18.231818
2043.000000	18.210022
2042.000000	18.253075
2041.000000	18.328230
2040.000000	18.346381
2039.000000	18.330935
2038.000000	18.391844
2037.000000	18.486935
2036.000000	18.536188
2035.000000	18.568478
2034.000000	18.655244
2033.000000	18.752777
2032.000000	18.846597
2031.000000	18.966234
2030.000000	19.121086
2029.000000	19.222718
2028.000000	19.324406
2027.000000	19.411777
2026.000000	19.504585
2025.000000	19.655756
2024.000000	19.728801
2023.000000	19.788568
2022.000000	19.866878
2021.000000	19.928858
2020.000000	20.016501
2019.000000	20.088682
2018.000000	20.127786
2017.000000	20.182478
2016.000000	20.197064
2015.000000	20.207613
2014.000000	20.260951
2013.000000	20.245473
2012.000000	20.174683
2011.000000	20.182450
2010.000000	20.158953
2009.000000	20.132519
2008.000000	20.134700
2007.000000	20.069397
2006.000000	19.963873
2005.000000	19.889775
2004.000000	19.850491
2003.000000	19.825163
2002.000000	19.754570
2001.000000	19.695890
2000.000000	19.654905
1999.000000	19.604824
1998.000000	19.525110
1997.000000	19.415297
1996.000000	19.352700
1995.000000	19.260122
1994.000000	19.180283
1993.000000	19.083609
1992.000000	19.005810
1991.000000	18.942700
1990.000000	18.889507
1989.000000	18.830013
1988.000000	18.756831
1987.000000	18.681205
1986.000000	18.584871
1985.000000	18.526669
1984.000000	18.482790
1983.000000	18.391062
1982.000000	18.314063
1981.000000	18.261835
1980.000000	18.207543
1979.000000	18.138732
1978.000000	18.046567
1977.000000	17.966093
1976.000000	17.900473
1975.000000	17.858092
1974.000000	17.781453
1973.000000	17.716920
1972.000000	17.674490
1971.000000	17.595171
1970.000000	17.568106
1969.000000	17.528827
1968.000000	17.444941
1967.000000	17.384553
1966.000000	17.375322
1965.000000	17.321425
1964.000000	17.227062
1963.000000	17.139856
1962.000000	17.122301
1961.000000	17.074583
1960.000000	16.991842
1959.000000	16.915456
1958.000000	16.922773
1957.000000	16.871963
1956.000000	16.817960
1955.000000	16.735015
1954.000000	16.699545
1953.000000	16.694130
1952.000000	16.732913
1951.000000	16.725648
1950.000000	16.671382
1949.000000	16.607046
1948.000000	16.604953
1947.000000	16.616980
1946.000000	16.568104
1945.000000	16.582292
1944.000000	16.594766
1943.000000	16.661258
1942.000000	16.692688
1941.000000	16.607829
1940.000000	16.754099
1939.000000	16.798590
1938.000000	16.830653
1937.000000	16.949362
1936.000000	16.994459
1935.000000	17.070399
1934.000000	17.159569
1933.000000	17.237196
1932.000000	17.367401
1931.000000	17.484251
1930.000000	17.649215
1929.000000	17.781461
1928.000000	17.950514
1927.000000	18.129065
1926.000000	18.228592
1925.000000	18.609753
1924.000000	18.730187
1923.000000	18.884994
1922.000000	19.231077
1921.000000	19.483695
1920.000000	19.685252
1919.000000	19.934280
1918.000000	20.196836
1917.000000	20.469941
1916.000000	20.719691
1915.000000	21.108612
1914.000000	21.437935
1913.000000	21.815355
1912.000000	22.214996
1911.000000	22.494694
1910.000000	22.836830
1909.000000	23.212839
1908.000000	23.583273
1907.000000	23.963044
1906.000000	24.422875
1905.000000	24.853409
1904.000000	25.303040
1903.000000	25.798342
1902.000000	26.318750
1901.000000	26.803657
1900.000000	27.306113
1899.000000	27.758379
1898.000000	28.282715
1897.000000	28.773044
1896.000000	29.317923
1895.000000	29.805518
1894.000000	30.246581
1893.000000	30.809507
1892.000000	31.326548
1891.000000	31.811178
1890.000000	32.306684
1889.000000	32.787660
1888.000000	33.239617
1887.000000	33.689037
1886.000000	34.098549
1885.000000	34.582370
1884.000000	35.010010
1883.000000	35.383680
1882.000000	35.747884
1881.000000	36.106195
1880.000000	36.489108
1879.000000	36.820551
1878.000000	37.155669
1877.000000	37.457411
1876.000000	37.748582
1875.000000	38.036958
1874.000000	38.238367
1873.000000	38.464599
1872.000000	38.695087
1871.000000	38.836178
1870.000000	39.021899
1869.000000	39.185842
1868.000000	39.354462
1867.000000	39.503533
1866.000000	39.595193
1865.000000	39.727390
1864.000000	39.848675
1863.000000	39.929921
1862.000000	39.977114
1861.000000	40.039331
1860.000000	40.116745
1859.000000	40.136034
1858.000000	40.180998
1857.000000	40.240637
1856.000000	40.261589
1855.000000	40.327048
1854.000000	40.349160
1853.000000	40.362404
1852.000000	40.392548
1851.000000	40.377301
1850.000000	40.330912
1849.000000	40.297387
1848.000000	40.316009
1847.000000	40.320187
1846.000000	40.277020
1845.000000	40.246685
1844.000000	40.234405
1843.000000	40.187717
1842.000000	40.116974
1841.000000	40.075140
1840.000000	40.049335
1839.000000	40.040351
1838.000000	39.969066
1837.000000	39.881612
1836.000000	39.833132
1835.000000	39.796706
1834.000000	39.741068
1833.000000	39.672485
1832.000000	39.606988
1831.000000	39.551081
1830.000000	39.518687
1829.000000	39.475226
1828.000000	39.413022
1827.000000	39.351604
1826.000000	39.296606
1825.000000	39.258707
1824.000000	39.214633
1823.000000	39.144356
1822.000000	39.082932
1821.000000	39.071292
1820.000000	39.024976
1819.000000	38.954026
1818.000000	38.915719
1817.000000	38.891053
1816.000000	38.824716
1815.000000	38.759817
1814.000000	38.727399
1813.000000	38.693991
1812.000000	38.645238
1811.000000	38.632694
1810.000000	38.610393
1809.000000	38.553898
1808.000000	38.502087
1807.000000	38.467360
1806.000000	38.430479
1805.000000	38.381779
1804.000000	38.350742
1803.000000	38.309913
1802.000000	38.268285
1801.000000	38.241752
1800.000000	38.213177
1799.000000	38.179765
1798.000000	38.141159
1797.000000	38.115901
1796.000000	38.088836
1795.000000	38.063318
1794.000000	38.042106
1793.000000	38.009558
1792.000000	37.978790
1791.000000	37.952078
1790.000000	37.906926
1789.000000	37.875239
1788.000000	37.854554
1787.000000	37.821672
1786.000000	37.798291
1785.000000	37.749997
1784.000000	37.684526
1783.000000	37.652582
1782.000000	37.592383
1781.000000	37.526126
1780.000000	37.471232
1779.000000	37.417135
1778.000000	37.343533
1777.000000	37.261852
1776.000000	37.187561
1775.000000	37.098709
1774.000000	37.020521
1773.000000	36.949064
1772.000000	36.877588
1771.000000	36.785023
1770.000000	36.667431
1769.000000	36.551223
1768.000000	36.477927
1767.000000	36.388100
1766.000000	36.324404
1765.000000	36.232052
1764.000000	36.155466
1763.000000	36.060764
1762.000000	35.973339
1761.000000	35.908980
1760.000000	35.836561
1759.000000	35.737422
1758.000000	35.661578
1757.000000	35.577043
1756.000000	35.476235
1755.000000	35.394968
1754.000000	35.313141
1753.000000	35.252339
1752.000000	35.201484
1751.000000	35.091047
1750.000000	34.998067
1749.000000	34.947206
1748.000000	34.837173
1747.000000	34.732900
1746.000000	34.615447
1745.000000	34.521421
1744.000000	34.427430
1743.000000	34.357385
1742.000000	34.268172
1741.000000	34.178874
1740.000000	34.086996
1739.000000	34.009973
1738.000000	33.961592
1737.000000	33.903565
1736.000000	33.850516
1735.000000	33.813772
1734.000000	33.775372
1733.000000	33.735050
1732.000000	33.721817
1731.000000	33.740248
1730.000000	33.760079
1729.000000	33.767356
1728.000000	33.831417
1727.000000	33.908477
1726.000000	33.972889
1725.000000	34.096065
1724.000000	34.193186
1723.000000	34.288305
1722.000000	34.403030
1721.000000	34.542334
1720.000000	34.652940
1719.000000	34.805060
1718.000000	34.907623
1717.000000	35.053902
1716.000000	35.208797
1715.000000	35.282129
1714.000000	35.398539
1713.000000	35.553449
1712.000000	35.630434
1711.000000	35.732421
1710.000000	35.828203
1709.000000	35.901624
1708.000000	35.960331
1707.000000	36.043162
1706.000000	36.104892
1705.000000	36.141883
1704.000000	36.199841
1703.000000	36.239734
1702.000000	36.256955
1701.000000	36.311281
1700.000000	36.356592
1699.000000	36.381737
1698.000000	36.443187
1697.000000	36.474906
1696.000000	36.594059
1695.000000	36.609311
1694.000000	36.700213
1693.000000	36.825953
1692.000000	36.899149
1691.000000	37.022744
1690.000000	37.145297
1689.000000	37.305272
1688.000000	37.460523
1687.000000	37.629728
1686.000000	37.814407
1685.000000	38.027622
1684.000000	38.244923
1683.000000	38.471923
1682.000000	38.733169
1681.000000	38.962538
1680.000000	39.187029
1679.000000	39.445228
1678.000000	39.712649
1677.000000	39.941877
1676.000000	40.221331
1675.000000	40.463552
1674.000000	40.735593
1673.000000	41.008681
1672.000000	41.219783
1671.000000	41.447802
1670.000000	41.673573
1669.000000	41.946334
1668.000000	42.116153
1667.000000	42.305832
1666.000000	42.472539
1665.000000	42.620449
1664.000000	42.736896
1663.000000	42.891667
1662.000000	43.008953
1661.000000	43.139563
1660.000000	43.215071
1659.000000	43.324955
1658.000000	43.390586
1657.000000	43.454229
1656.000000	43.525055
1655.000000	43.575723
1654.000000	43.627967
1653.000000	43.669677
1652.000000	43.692816
1651.000000	43.671448
1650.000000	43.673584
1649.000000	43.676715
1648.000000	43.673978
1647.000000	43.660020
1646.000000	43.664780
1645.000000	43.642733
1644.000000	43.630558
1643.000000	43.603695
1642.000000	43.571014
1641.000000	43.548860
1640.000000	43.522257
1639.000000	43.473440
1638.000000	43.416644
1637.000000	43.391568
1636.000000	43.337847
1635.000000	43.290618
1634.000000	43.243010
1633.000000	43.175734
1632.000000	43.133220
1631.000000	43.080269
1630.000000	43.030086
1629.000000	42.984201
1628.000000	42.925251
1627.000000	42.860401
1626.000000	42.812226
1625.000000	42.740648
1624.000000	42.672157
1623.000000	42.619061
1622.000000	42.556595
1621.000000	42.488503
1620.000000	42.437891
1619.000000	42.362121
1618.000000	42.287715
1617.000000	42.219165
1616.000000	42.156767
1615.000000	42.075239
1614.000000	41.998222
1613.000000	41.929866
1612.000000	41.856326
1611.000000	41.781036
1610.000000	41.704770
1609.000000	41.627452
1608.000000	41.548523
1607.000000	41.473678
1606.000000	41.393957
1605.000000	41.302502
1604.000000	41.219660
1603.000000	41.127951
1602.000000	41.046615
1601.000000	40.976598
1600.000000	40.914261
1599.000000	40.825864
1598.000000	40.734171
1597.000000	40.660225
1596.000000	40.584520
1595.000000	40.506268
1594.000000	40.436107
1593.000000	40.364014
1592.000000	40.284216
1591.000000	40.215484
1590.000000	40.150249
1589.000000	40.084782
1588.000000	40.023091
1587.000000	39.964948
1586.000000	39.907914
1585.000000	39.840968
1584.000000	39.770777
1583.000000	39.708412
1582.000000	39.649237
1581.000000	39.586549
1580.000000	39.520354
1579.000000	39.461027
1578.000000	39.411093
1577.000000	39.358111
1576.000000	39.310082
1575.000000	39.262489
1574.000000	39.192309
1573.000000	39.137428
1572.000000	39.085388
1571.000000	39.020257
1570.000000	38.976886
1569.000000	38.930686
1568.000000	38.878338
1567.000000	38.827389
1566.000000	38.782963
1565.000000	38.737849
1564.000000	38.691354
1563.000000	38.673851
1562.000000	38.641301
1561.000000	38.601172
1560.000000	38.546062
1559.000000	38.517369
1558.000000	38.494177
1557.000000	38.467197
1556.000000	38.427925
1555.000000	38.400557
1554.000000	38.360246
1553.000000	38.322956
1552.000000	38.287225
1551.000000	38.238959
1550.000000	38.191606
1549.000000	38.152430
1548.000000	38.089222
1547.000000	38.015183
1546.000000	37.949857
1545.000000	37.876559
1544.000000	37.772895
1543.000000	37.689846
1542.000000	37.606535
1541.000000	37.503090
1540.000000	37.391969
1539.000000	37.275389
1538.000000	37.170653
1537.000000	37.056618
1536.000000	36.949017
1535.000000	36.825632
1534.000000	36.704574
1533.000000	36.609239
1532.000000	36.491403
1531.000000	36.374567
1530.000000	36.276534
1529.000000	36.160004
1528.000000	36.066177
1527.000000	35.979602
1526.000000	35.874195
1525.000000	35.804411
1524.000000	35.711413
1523.000000	35.631068
1522.000000	35.565046
1521.000000	35.488242
1520.000000	35.435833
1519.000000	35.360695
1518.000000	35.314323
1517.000000	35.252806
1516.000000	35.204899
1515.000000	35.155263
1514.000000	35.099767
1513.000000	35.064639
1512.000000	35.044544
1511.000000	35.008426
1510.000000	34.965223
1509.000000	34.937099
1508.000000	34.901633
1507.000000	34.896124
1506.000000	34.872663
1505.000000	34.846873
1504.000000	34.861130
1503.000000	34.880362
1502.000000	34.906507
1501.000000	34.935516
1500.000000	34.941987
1499.000000	34.946920
1498.000000	34.949992
1497.000000	34.923477
1496.000000	34.938199
1495.000000	34.970733
1494.000000	35.001768
1493.000000	35.063622
1492.000000	35.128387
1491.000000	35.190069
1490.000000	35.261499
1489.000000	35.327539
1488.000000	35.410236
1487.000000	35.514130
1486.000000	35.579260
1485.000000	35.679320
1484.000000	35.769383
1483.000000	35.867734
1482.000000	35.965765
1481.000000	36.067761
1480.000000	36.169045
1479.000000	36.293256
1478.000000	36.394055
1477.000000	36.490649
1476.000000	36.599907
1475.000000	36.701957
1474.000000	36.801527
1473.000000	36.891383
1472.000000	36.981027
1471.000000	37.075838
1470.000000	37.190217
