PE UV       SUBTECH     SPECTRUM    ASCII       PEDS        4.00        
   -1
RTChevreUK 12.Sample.asc
18/03/02
10:11:04.00
18/03/02
10:11:04.00
Administrator

200.000000
1
Lambda 750
750N8071901
PerkinElmer UV WinLab 6.0.4.0738 / 1.61.00 Lambda 900

0
0
3350/servo 860.8/2
0
0
UV/VIS
1
1
1
CommonBeamDepol,150mm sphere / downward view
0
0
0
0
Program
Program
3350/servo 860.8/2
3350/0.2 860.8/0.2
3350/0.2 860.8/0.2
0
1
 
 
 
0
 
860.8
319.2
860.8
Front
100
on
 
 
0
0
0
 
0
 
 
 
0
 
 
0
0
0
0
0
 
 
 
 
0
0


0
0
#HDR
-1
-1
#GR
nm
%R
1.0
0.0
2350.000000
-1.000000
2151
8
63.238268
10.177345
#DATA
2350.000000	13.610928
2349.000000	13.192563
2348.000000	13.386880
2347.000000	14.241864
2346.000000	13.884281
2345.000000	13.609885
2344.000000	13.601617
2343.000000	13.105887
2342.000000	13.277850
2341.000000	13.833569
2340.000000	13.408732
2339.000000	13.460513
2338.000000	14.293091
2337.000000	14.252148
2336.000000	14.133153
2335.000000	14.566404
2334.000000	14.137107
2333.000000	14.478428
2332.000000	14.492620
2331.000000	14.644030
2330.000000	14.386682
2329.000000	14.092023
2328.000000	14.287186
2327.000000	14.126635
2326.000000	14.234537
2325.000000	14.339031
2324.000000	14.294470
2323.000000	14.105107
2322.000000	13.933687
2321.000000	13.682638
2320.000000	13.843323
2319.000000	13.823101
2318.000000	13.750961
2317.000000	13.741673
2316.000000	13.659200
2315.000000	13.609621
2314.000000	13.574715
2313.000000	13.500847
2312.000000	13.461311
2311.000000	13.376221
2310.000000	13.468735
2309.000000	13.376236
2308.000000	13.300228
2307.000000	13.312280
2306.000000	13.298348
2305.000000	13.017598
2304.000000	12.962016
2303.000000	13.238722
2302.000000	13.021628
2301.000000	12.856841
2300.000000	12.769545
2299.000000	12.970159
2298.000000	12.860447
2297.000000	12.578907
2296.000000	12.545169
2295.000000	12.807743
2294.000000	12.799134
2293.000000	12.621186
2292.000000	12.774216
2291.000000	12.756735
2290.000000	12.537857
2289.000000	12.506077
2288.000000	12.589145
2287.000000	12.624141
2286.000000	12.566213
2285.000000	12.402565
2284.000000	12.335890
2283.000000	12.401509
2282.000000	12.339513
2281.000000	12.466794
2280.000000	12.496292
2279.000000	12.447101
2278.000000	12.588088
2277.000000	12.625822
2276.000000	12.576080
2275.000000	12.568193
2274.000000	12.687974
2273.000000	12.737734
2272.000000	12.856092
2271.000000	12.767374
2270.000000	12.794160
2269.000000	12.762585
2268.000000	12.820852
2267.000000	12.929454
2266.000000	13.110361
2265.000000	13.261585
2264.000000	13.311577
2263.000000	13.270398
2262.000000	13.420906
2261.000000	13.516165
2260.000000	13.695014
2259.000000	13.985963
2258.000000	14.152990
2257.000000	14.328740
2256.000000	14.337972
2255.000000	14.241020
2254.000000	14.391384
2253.000000	14.552025
2252.000000	14.815774
2251.000000	15.105599
2250.000000	15.315427
2249.000000	15.589003
2248.000000	15.747599
2247.000000	15.749570
2246.000000	15.675049
2245.000000	15.889403
2244.000000	16.211831
2243.000000	16.440993
2242.000000	16.428316
2241.000000	16.504540
2240.000000	16.620062
2239.000000	16.651768
2238.000000	16.816488
2237.000000	16.923312
2236.000000	17.043837
2235.000000	17.193935
2234.000000	17.271890
2233.000000	17.338534
2232.000000	17.356310
2231.000000	17.445416
2230.000000	17.381558
2229.000000	17.476022
2228.000000	17.590242
2227.000000	17.476618
2226.000000	17.349948
2225.000000	17.430738
2224.000000	17.530764
2223.000000	17.475133
2222.000000	17.411349
2221.000000	17.300133
2220.000000	17.197599
2219.000000	17.276489
2218.000000	17.217799
2217.000000	17.201965
2216.000000	17.075276
2215.000000	17.025516
2214.000000	17.155722
2213.000000	17.173802
2212.000000	17.115116
2211.000000	17.010461
2210.000000	16.751986
2209.000000	16.759839
2208.000000	16.759275
2207.000000	16.634866
2206.000000	16.553822
2205.000000	16.504255
2204.000000	16.556364
2203.000000	16.376958
2202.000000	16.410018
2201.000000	16.363376
2200.000000	16.331433
2199.000000	16.216868
2198.000000	16.183154
2197.000000	16.256569
2196.000000	16.133562
2195.000000	15.954641
2194.000000	15.895708
2193.000000	15.732334
2192.000000	15.788320
2191.000000	15.708302
2190.000000	15.564033
2189.000000	15.566187
2188.000000	15.494608
2187.000000	15.565553
2186.000000	15.511951
2185.000000	15.516885
2184.000000	15.493046
2183.000000	15.473451
2182.000000	15.250738
2181.000000	15.320723
2180.000000	15.383459
2179.000000	15.275828
2178.000000	15.185057
2177.000000	15.289445
2176.000000	15.326395
2175.000000	15.286606
2174.000000	15.314682
2173.000000	15.374666
2172.000000	15.381757
2171.000000	15.354846
2170.000000	15.460700
2169.000000	15.666971
2168.000000	15.752323
2167.000000	15.789352
2166.000000	15.711862
2165.000000	15.896815
2164.000000	15.927986
2163.000000	15.843642
2162.000000	15.975430
2161.000000	16.152849
2160.000000	16.414955
2159.000000	16.354362
2158.000000	16.565190
2157.000000	16.563999
2156.000000	16.766961
2155.000000	16.866645
2154.000000	16.827275
2153.000000	17.213562
2152.000000	17.253294
2151.000000	17.288626
2150.000000	17.423512
2149.000000	17.625363
2148.000000	17.698011
2147.000000	17.871280
2146.000000	18.007471
2145.000000	18.182312
2144.000000	18.392161
2143.000000	18.288253
2142.000000	18.542230
2141.000000	18.512326
2140.000000	18.579806
2139.000000	18.941348
2138.000000	19.021029
2137.000000	19.212033
2136.000000	19.316665
2135.000000	19.240766
2134.000000	19.439493
2133.000000	19.405214
2132.000000	19.470026
2131.000000	19.717731
2130.000000	19.989914
2129.000000	19.925571
2128.000000	20.041467
2127.000000	20.084315
2126.000000	20.122128
2125.000000	19.874507
2124.000000	20.315100
2123.000000	20.302726
2122.000000	20.385515
2121.000000	20.336643
2120.000000	20.391813
2119.000000	20.457602
2118.000000	20.483429
2117.000000	20.546521
2116.000000	20.727729
2115.000000	20.783575
2114.000000	20.720826
2113.000000	20.626480
2112.000000	20.872792
2111.000000	20.753375
2110.000000	20.863314
2109.000000	20.969401
2108.000000	20.968089
2107.000000	20.993522
2106.000000	20.928545
2105.000000	20.913026
2104.000000	20.896617
2103.000000	21.058709
2102.000000	21.095765
2101.000000	21.155982
2100.000000	21.101333
2099.000000	21.135916
2098.000000	21.101446
2097.000000	21.078762
2096.000000	21.009606
2095.000000	21.080481
2094.000000	21.138979
2093.000000	20.945633
2092.000000	20.985226
2091.000000	20.985970
2090.000000	20.981406
2089.000000	20.905651
2088.000000	20.958986
2087.000000	20.865369
2086.000000	20.920863
2085.000000	20.951676
2084.000000	20.796440
2083.000000	20.760233
2082.000000	20.648137
2081.000000	20.643076
2080.000000	20.604935
2079.000000	20.447657
2078.000000	20.340803
2077.000000	20.295398
2076.000000	20.135884
2075.000000	20.086993
2074.000000	19.974854
2073.000000	19.909025
2072.000000	19.821834
2071.000000	19.697363
2070.000000	19.601188
2069.000000	19.455867
2068.000000	19.355830
2067.000000	19.215519
2066.000000	19.045022
2065.000000	18.927426
2064.000000	18.820018
2063.000000	18.614660
2062.000000	18.439243
2061.000000	18.317780
2060.000000	18.251998
2059.000000	18.160322
2058.000000	18.010276
2057.000000	17.847739
2056.000000	17.770396
2055.000000	17.680650
2054.000000	17.513517
2053.000000	17.371392
2052.000000	17.290437
2051.000000	17.255994
2050.000000	17.149583
2049.000000	17.056807
2048.000000	16.967255
2047.000000	16.926284
2046.000000	16.949392
2045.000000	16.958128
2044.000000	16.893854
2043.000000	16.892197
2042.000000	16.949053
2041.000000	16.907255
2040.000000	16.962767
2039.000000	17.020470
2038.000000	17.092347
2037.000000	17.127550
2036.000000	17.142973
2035.000000	17.310315
2034.000000	17.432912
2033.000000	17.521988
2032.000000	17.617141
2031.000000	17.706176
2030.000000	17.835308
2029.000000	17.972170
2028.000000	18.079860
2027.000000	18.184448
2026.000000	18.335830
2025.000000	18.476596
2024.000000	18.560026
2023.000000	18.664473
2022.000000	18.722865
2021.000000	18.769708
2020.000000	18.865054
2019.000000	18.926922
2018.000000	19.012774
2017.000000	19.021024
2016.000000	19.013303
2015.000000	19.061649
2014.000000	19.109523
2013.000000	19.121772
2012.000000	19.086614
2011.000000	19.092899
2010.000000	19.046263
2009.000000	18.981620
2008.000000	18.989829
2007.000000	18.964077
2006.000000	18.896678
2005.000000	18.817332
2004.000000	18.753460
2003.000000	18.735222
2002.000000	18.668025
2001.000000	18.590789
2000.000000	18.522097
1999.000000	18.494876
1998.000000	18.426817
1997.000000	18.323920
1996.000000	18.259506
1995.000000	18.192605
1994.000000	18.106461
1993.000000	18.030042
1992.000000	17.915187
1991.000000	17.795260
1990.000000	17.745543
1989.000000	17.683314
1988.000000	17.598788
1987.000000	17.534824
1986.000000	17.477161
1985.000000	17.372486
1984.000000	17.286344
1983.000000	17.239256
1982.000000	17.172933
1981.000000	17.115891
1980.000000	17.041042
1979.000000	16.972852
1978.000000	16.855994
1977.000000	16.769862
1976.000000	16.693219
1975.000000	16.655605
1974.000000	16.570553
1973.000000	16.540339
1972.000000	16.508263
1971.000000	16.433315
1970.000000	16.360043
1969.000000	16.318417
1968.000000	16.188786
1967.000000	16.151094
1966.000000	16.139171
1965.000000	16.055009
1964.000000	15.969255
1963.000000	15.926896
1962.000000	15.859585
1961.000000	15.793622
1960.000000	15.733623
1959.000000	15.630854
1958.000000	15.633334
1957.000000	15.602452
1956.000000	15.557831
1955.000000	15.498449
1954.000000	15.490376
1953.000000	15.416245
1952.000000	15.367393
1951.000000	15.346707
1950.000000	15.373671
1949.000000	15.359009
1948.000000	15.316567
1947.000000	15.302679
1946.000000	15.262377
1945.000000	15.306084
1944.000000	15.322973
1943.000000	15.368248
1942.000000	15.348165
1941.000000	15.426819
1940.000000	15.474196
1939.000000	15.543187
1938.000000	15.642900
1937.000000	15.672042
1936.000000	15.734327
1935.000000	15.881080
1934.000000	15.899326
1933.000000	15.985592
1932.000000	16.160704
1931.000000	16.261773
1930.000000	16.402458
1929.000000	16.577903
1928.000000	16.782003
1927.000000	16.892065
1926.000000	17.118666
1925.000000	17.306117
1924.000000	17.496592
1923.000000	17.779194
1922.000000	17.970382
1921.000000	18.304363
1920.000000	18.528369
1919.000000	18.812841
1918.000000	19.059879
1917.000000	19.390508
1916.000000	19.685286
1915.000000	19.980983
1914.000000	20.371272
1913.000000	20.744639
1912.000000	21.070845
1911.000000	21.450722
1910.000000	21.871188
1909.000000	22.267470
1908.000000	22.633606
1907.000000	23.153516
1906.000000	23.569762
1905.000000	24.099931
1904.000000	24.577305
1903.000000	25.072171
1902.000000	25.609897
1901.000000	26.178536
1900.000000	26.677691
1899.000000	27.203029
1898.000000	27.827496
1897.000000	28.362008
1896.000000	28.864179
1895.000000	29.415601
1894.000000	29.988500
1893.000000	30.541175
1892.000000	31.083887
1891.000000	31.666636
1890.000000	32.182740
1889.000000	32.714867
1888.000000	33.283112
1887.000000	33.786748
1886.000000	34.246822
1885.000000	34.729199
1884.000000	35.234427
1883.000000	35.660676
1882.000000	36.035272
1881.000000	36.457910
1880.000000	36.916351
1879.000000	37.271289
1878.000000	37.630420
1877.000000	37.963717
1876.000000	38.286351
1875.000000	38.619748
1874.000000	38.860001
1873.000000	39.148594
1872.000000	39.425113
1871.000000	39.644911
1870.000000	39.847391
1869.000000	40.057279
1868.000000	40.264582
1867.000000	40.373595
1866.000000	40.481120
1865.000000	40.623126
1864.000000	40.738580
1863.000000	40.846625
1862.000000	40.930734
1861.000000	41.020796
1860.000000	41.078072
1859.000000	41.134417
1858.000000	41.201241
1857.000000	41.232593
1856.000000	41.288364
1855.000000	41.354770
1854.000000	41.366067
1853.000000	41.360832
1852.000000	41.357815
1851.000000	41.391507
1850.000000	41.371136
1849.000000	41.388564
1848.000000	41.375245
1847.000000	41.341764
1846.000000	41.259448
1845.000000	41.236886
1844.000000	41.232128
1843.000000	41.159413
1842.000000	41.117497
1841.000000	41.098665
1840.000000	41.036346
1839.000000	40.987862
1838.000000	40.954626
1837.000000	40.868007
1836.000000	40.803118
1835.000000	40.738688
1834.000000	40.666665
1833.000000	40.606680
1832.000000	40.564896
1831.000000	40.504553
1830.000000	40.433220
1829.000000	40.348532
1828.000000	40.280975
1827.000000	40.244773
1826.000000	40.200637
1825.000000	40.119106
1824.000000	40.050798
1823.000000	40.005980
1822.000000	39.945711
1821.000000	39.904657
1820.000000	39.864626
1819.000000	39.789418
1818.000000	39.739624
1817.000000	39.704340
1816.000000	39.648256
1815.000000	39.594372
1814.000000	39.536403
1813.000000	39.485800
1812.000000	39.427069
1811.000000	39.374437
1810.000000	39.340030
1809.000000	39.298548
1808.000000	39.228674
1807.000000	39.190696
1806.000000	39.150888
1805.000000	39.096231
1804.000000	39.062698
1803.000000	39.025811
1802.000000	38.962164
1801.000000	38.905303
1800.000000	38.858328
1799.000000	38.822993
1798.000000	38.795278
1797.000000	38.761161
1796.000000	38.707769
1795.000000	38.680061
1794.000000	38.651550
1793.000000	38.607797
1792.000000	38.567891
1791.000000	38.526820
1790.000000	38.500535
1789.000000	38.456465
1788.000000	38.421800
1787.000000	38.379606
1786.000000	38.325349
1785.000000	38.282700
1784.000000	38.231775
1783.000000	38.164064
1782.000000	38.099771
1781.000000	38.028048
1780.000000	37.983277
1779.000000	37.913005
1778.000000	37.822651
1777.000000	37.729674
1776.000000	37.645404
1775.000000	37.542846
1774.000000	37.441392
1773.000000	37.360928
1772.000000	37.263961
1771.000000	37.153379
1770.000000	37.058781
1769.000000	36.939598
1768.000000	36.839969
1767.000000	36.747001
1766.000000	36.672327
1765.000000	36.561664
1764.000000	36.459679
1763.000000	36.349012
1762.000000	36.248049
1761.000000	36.158904
1760.000000	36.064383
1759.000000	35.970004
1758.000000	35.882210
1757.000000	35.802946
1756.000000	35.696515
1755.000000	35.601348
1754.000000	35.482955
1753.000000	35.386860
1752.000000	35.320013
1751.000000	35.209326
1750.000000	35.130177
1749.000000	35.072341
1748.000000	34.929394
1747.000000	34.818434
1746.000000	34.709810
1745.000000	34.600979
1744.000000	34.500073
1743.000000	34.401932
1742.000000	34.300134
1741.000000	34.201394
1740.000000	34.150509
1739.000000	34.034828
1738.000000	33.918074
1737.000000	33.903565
1736.000000	33.829718
1735.000000	33.799259
1734.000000	33.768979
1733.000000	33.746412
1732.000000	33.706703
1731.000000	33.695309
1730.000000	33.761094
1729.000000	33.821732
1728.000000	33.843592
1727.000000	33.930900
1726.000000	34.029801
1725.000000	34.130355
1724.000000	34.232245
1723.000000	34.380408
1722.000000	34.509722
1721.000000	34.635053
1720.000000	34.781894
1719.000000	34.941814
1718.000000	35.081594
1717.000000	35.220791
1716.000000	35.372247
1715.000000	35.466554
1714.000000	35.633645
1713.000000	35.731333
1712.000000	35.819715
1711.000000	35.966339
1710.000000	36.074430
1709.000000	36.146205
1708.000000	36.235290
1707.000000	36.321856
1706.000000	36.372315
1705.000000	36.419690
1704.000000	36.483292
1703.000000	36.539123
1702.000000	36.542671
1701.000000	36.593760
1700.000000	36.651655
1699.000000	36.683291
1698.000000	36.735718
1697.000000	36.779858
1696.000000	36.885133
1695.000000	36.938254
1694.000000	37.018631
1693.000000	37.148170
1692.000000	37.238385
1691.000000	37.381982
1690.000000	37.538848
1689.000000	37.691077
1688.000000	37.885263
1687.000000	38.087071
1686.000000	38.301374
1685.000000	38.541170
1684.000000	38.797130
1683.000000	39.057351
1682.000000	39.317511
1681.000000	39.629133
1680.000000	39.901713
1679.000000	40.218151
1678.000000	40.527058
1677.000000	40.830155
1676.000000	41.122128
1675.000000	41.454212
1674.000000	41.742382
1673.000000	42.042700
1672.000000	42.301432
1671.000000	42.594796
1670.000000	42.868475
1669.000000	43.140205
1668.000000	43.382674
1667.000000	43.616658
1666.000000	43.798681
1665.000000	43.984280
1664.000000	44.136092
1663.000000	44.305778
1662.000000	44.455992
1661.000000	44.592233
1660.000000	44.717843
1659.000000	44.823845
1658.000000	44.901075
1657.000000	44.974415
1656.000000	45.062060
1655.000000	45.119715
1654.000000	45.171007
1653.000000	45.217330
1652.000000	45.243580
1651.000000	45.238380
1650.000000	45.251501
1649.000000	45.268345
1648.000000	45.260641
1647.000000	45.246472
1646.000000	45.236116
1645.000000	45.211290
1644.000000	45.197987
1643.000000	45.172154
1642.000000	45.120077
1641.000000	45.070955
1640.000000	45.055234
1639.000000	45.020793
1638.000000	44.959290
1637.000000	44.912669
1636.000000	44.835377
1635.000000	44.800684
1634.000000	44.739731
1633.000000	44.664045
1632.000000	44.602519
1631.000000	44.528840
1630.000000	44.480837
1629.000000	44.404940
1628.000000	44.336065
1627.000000	44.273857
1626.000000	44.205406
1625.000000	44.121948
1624.000000	44.055538
1623.000000	43.994020
1622.000000	43.922593
1621.000000	43.839661
1620.000000	43.767348
1619.000000	43.677609
1618.000000	43.577826
1617.000000	43.501246
1616.000000	43.422240
1615.000000	43.334252
1614.000000	43.238839
1613.000000	43.159917
1612.000000	43.071521
1611.000000	42.978511
1610.000000	42.887957
1609.000000	42.790454
1608.000000	42.682556
1607.000000	42.595177
1606.000000	42.501789
1605.000000	42.396618
1604.000000	42.293226
1603.000000	42.191074
1602.000000	42.091405
1601.000000	41.993394
1600.000000	41.901204
1599.000000	41.814501
1598.000000	41.712776
1597.000000	41.608861
1596.000000	41.523048
1595.000000	41.430412
1594.000000	41.338059
1593.000000	41.254791
1592.000000	41.163093
1591.000000	41.086564
1590.000000	41.018965
1589.000000	40.926116
1588.000000	40.849102
1587.000000	40.780423
1586.000000	40.699122
1585.000000	40.621532
1584.000000	40.556950
1583.000000	40.488872
1582.000000	40.410571
1581.000000	40.334409
1580.000000	40.249378
1579.000000	40.186392
1578.000000	40.138385
1577.000000	40.063439
1576.000000	39.987615
1575.000000	39.922230
1574.000000	39.849998
1573.000000	39.784215
1572.000000	39.723770
1571.000000	39.665001
1570.000000	39.618676
1569.000000	39.553012
1568.000000	39.489942
1567.000000	39.441225
1566.000000	39.378735
1565.000000	39.324043
1564.000000	39.288873
1563.000000	39.262201
1562.000000	39.212382
1561.000000	39.172474
1560.000000	39.141770
1559.000000	39.096147
1558.000000	39.066910
1557.000000	39.045770
1556.000000	39.008186
1555.000000	38.968378
1554.000000	38.923663
1553.000000	38.890285
1552.000000	38.834775
1551.000000	38.787290
1550.000000	38.727193
1549.000000	38.658935
1548.000000	38.588208
1547.000000	38.515257
1546.000000	38.442009
1545.000000	38.345846
1544.000000	38.239108
1543.000000	38.127209
1542.000000	38.020519
1541.000000	37.924781
1540.000000	37.798616
1539.000000	37.660031
1538.000000	37.541710
1537.000000	37.406512
1536.000000	37.285442
1535.000000	37.157264
1534.000000	37.017776
1533.000000	36.896936
1532.000000	36.762196
1531.000000	36.616247
1530.000000	36.503936
1529.000000	36.378986
1528.000000	36.276905
1527.000000	36.161980
1526.000000	36.056365
1525.000000	35.962788
1524.000000	35.851222
1523.000000	35.768555
1522.000000	35.687043
1521.000000	35.613399
1520.000000	35.519736
1519.000000	35.454819
1518.000000	35.402375
1517.000000	35.325052
1516.000000	35.268931
1515.000000	35.216158
1514.000000	35.136647
1513.000000	35.105988
1512.000000	35.065622
1511.000000	35.023423
1510.000000	34.981332
1509.000000	34.944699
1508.000000	34.903660
1507.000000	34.892171
1506.000000	34.865266
1505.000000	34.859134
1504.000000	34.853123
1503.000000	34.855125
1502.000000	34.892116
1501.000000	34.917984
1500.000000	34.933171
1499.000000	34.932631
1498.000000	34.932361
1497.000000	34.917903
1496.000000	34.933740
1495.000000	34.984009
1494.000000	35.014637
1493.000000	35.076491
1492.000000	35.142573
1491.000000	35.199290
1490.000000	35.291089
1489.000000	35.376684
1488.000000	35.468506
1487.000000	35.565408
1486.000000	35.670551
1485.000000	35.787236
1484.000000	35.891172
1483.000000	35.998930
1482.000000	36.136800
1481.000000	36.244549
1480.000000	36.353608
1479.000000	36.503162
1478.000000	36.621378
1477.000000	36.743883
1476.000000	36.859815
1475.000000	36.974993
1474.000000	37.098740
1473.000000	37.206822
1472.000000	37.312145
1471.000000	37.406447
1470.000000	37.552648
