PE UV       SUBTECH     SPECTRUM    ASCII       PEDS        4.00        
   -1
RTChevreUK 52.Sample.asc
18/03/02
10:59:32.00
18/03/02
10:59:32.00
Administrator

200.000000
1
Lambda 750
750N8071901
PerkinElmer UV WinLab 6.0.4.0738 / 1.61.00 Lambda 900

0
0
3350/servo 860.8/2
0
0
UV/VIS
1
1
1
CommonBeamDepol,150mm sphere / downward view
0
0
0
0
Program
Program
3350/servo 860.8/2
3350/0.2 860.8/0.2
3350/0.2 860.8/0.2
0
1
 
 
 
0
 
860.8
319.2
860.8
Front
100
on
 
 
0
0
0
 
0
 
 
 
0
 
 
0
0
0
0
0
 
 
 
 
0
0


0
0
#HDR
-1
-1
#GR
nm
%R
1.0
0.0
2350.000000
-1.000000
2151
8
57.081074
10.255971
#DATA
2350.000000	11.478656
2349.000000	11.492341
2348.000000	11.517811
2347.000000	12.059825
2346.000000	11.420250
2345.000000	11.518870
2344.000000	11.414309
2343.000000	11.402407
2342.000000	11.479388
2341.000000	11.744492
2340.000000	11.541657
2339.000000	11.902688
2338.000000	12.135689
2337.000000	12.096061
2336.000000	12.344743
2335.000000	12.381428
2334.000000	12.468552
2333.000000	12.399950
2332.000000	12.350560
2331.000000	12.371931
2330.000000	12.165917
2329.000000	12.352326
2328.000000	12.291584
2327.000000	12.163416
2326.000000	12.217946
2325.000000	12.066981
2324.000000	12.354382
2323.000000	12.058691
2322.000000	12.252297
2321.000000	11.862331
2320.000000	11.938328
2319.000000	11.825263
2318.000000	11.955473
2317.000000	11.795989
2316.000000	11.708261
2315.000000	11.463136
2314.000000	11.273874
2313.000000	11.309226
2312.000000	11.378843
2311.000000	11.556814
2310.000000	11.479965
2309.000000	11.460478
2308.000000	11.286715
2307.000000	11.169724
2306.000000	11.187512
2305.000000	11.227141
2304.000000	11.269947
2303.000000	11.148605
2302.000000	11.261242
2301.000000	11.462816
2300.000000	11.112677
2299.000000	11.085570
2298.000000	11.094570
2297.000000	10.944229
2296.000000	10.730839
2295.000000	10.738624
2294.000000	10.885201
2293.000000	11.012147
2292.000000	10.717431
2291.000000	10.875339
2290.000000	10.931479
2289.000000	10.938749
2288.000000	10.742526
2287.000000	10.729722
2286.000000	10.724754
2285.000000	10.657159
2284.000000	10.823528
2283.000000	10.779663
2282.000000	10.661836
2281.000000	10.554791
2280.000000	10.680617
2279.000000	10.744312
2278.000000	10.904688
2277.000000	10.880896
2276.000000	10.903496
2275.000000	10.873401
2274.000000	10.918704
2273.000000	11.049785
2272.000000	11.073975
2271.000000	11.001045
2270.000000	11.025160
2269.000000	10.988934
2268.000000	10.892049
2267.000000	11.110740
2266.000000	11.273406
2265.000000	11.359337
2264.000000	11.502544
2263.000000	11.546114
2262.000000	11.719793
2261.000000	11.847545
2260.000000	11.955195
2259.000000	12.090413
2258.000000	12.206197
2257.000000	12.139199
2256.000000	12.209058
2255.000000	12.398733
2254.000000	12.538975
2253.000000	12.583176
2252.000000	12.757555
2251.000000	12.986318
2250.000000	13.234116
2249.000000	13.487993
2248.000000	13.560407
2247.000000	13.575072
2246.000000	13.661523
2245.000000	13.902103
2244.000000	14.127725
2243.000000	14.227176
2242.000000	14.323070
2241.000000	14.432040
2240.000000	14.500327
2239.000000	14.603668
2238.000000	14.697753
2237.000000	14.743184
2236.000000	14.858924
2235.000000	15.001159
2234.000000	15.021356
2233.000000	14.991567
2232.000000	14.962824
2231.000000	15.158108
2230.000000	15.288154
2229.000000	15.303820
2228.000000	15.351339
2227.000000	15.359197
2226.000000	15.305419
2225.000000	15.379420
2224.000000	15.288057
2223.000000	15.192249
2222.000000	15.162924
2221.000000	15.172497
2220.000000	15.207135
2219.000000	15.109839
2218.000000	15.020309
2217.000000	15.084647
2216.000000	15.028911
2215.000000	15.089540
2214.000000	15.082020
2213.000000	15.102272
2212.000000	15.007983
2211.000000	14.820485
2210.000000	14.846151
2209.000000	14.763616
2208.000000	14.626618
2207.000000	14.590069
2206.000000	14.541029
2205.000000	14.402112
2204.000000	14.372700
2203.000000	14.393330
2202.000000	14.408200
2201.000000	14.373657
2200.000000	14.184514
2199.000000	14.222777
2198.000000	14.259012
2197.000000	14.161950
2196.000000	13.973443
2195.000000	13.905341
2194.000000	13.897070
2193.000000	13.839328
2192.000000	13.761054
2191.000000	13.633291
2190.000000	13.764015
2189.000000	13.591012
2188.000000	13.496167
2187.000000	13.584780
2186.000000	13.479779
2185.000000	13.509271
2184.000000	13.566228
2183.000000	13.485599
2182.000000	13.423329
2181.000000	13.486102
2180.000000	13.292288
2179.000000	13.291362
2178.000000	13.334233
2177.000000	13.426651
2176.000000	13.322087
2175.000000	13.407074
2174.000000	13.364038
2173.000000	13.177594
2172.000000	13.359090
2171.000000	13.354480
2170.000000	13.523570
2169.000000	13.430689
2168.000000	13.479685
2167.000000	13.652296
2166.000000	13.670587
2165.000000	13.851891
2164.000000	13.584777
2163.000000	13.835972
2162.000000	14.003994
2161.000000	14.069088
2160.000000	14.156404
2159.000000	14.437317
2158.000000	14.323014
2157.000000	14.530377
2156.000000	14.605491
2155.000000	14.726919
2154.000000	14.943814
2153.000000	15.123623
2152.000000	15.146083
2151.000000	15.098447
2150.000000	15.331048
2149.000000	15.353496
2148.000000	15.382125
2147.000000	15.703006
2146.000000	15.632707
2145.000000	15.856710
2144.000000	15.968575
2143.000000	16.072362
2142.000000	16.259996
2141.000000	16.413777
2140.000000	16.549865
2139.000000	16.576520
2138.000000	16.790909
2137.000000	16.870504
2136.000000	16.852782
2135.000000	16.924398
2134.000000	17.289363
2133.000000	17.108230
2132.000000	17.241900
2131.000000	17.359624
2130.000000	17.466878
2129.000000	17.408447
2128.000000	17.413917
2127.000000	17.655135
2126.000000	17.590640
2125.000000	17.661580
2124.000000	17.680271
2123.000000	17.829970
2122.000000	17.997869
2121.000000	18.115378
2120.000000	18.074362
2119.000000	18.066276
2118.000000	18.194650
2117.000000	18.238530
2116.000000	18.183037
2115.000000	18.309256
2114.000000	18.290515
2113.000000	18.302941
2112.000000	18.283821
2111.000000	18.228993
2110.000000	18.389517
2109.000000	18.445668
2108.000000	18.373664
2107.000000	18.508102
2106.000000	18.485854
2105.000000	18.530907
2104.000000	18.535560
2103.000000	18.624688
2102.000000	18.652659
2101.000000	18.679108
2100.000000	18.768380
2099.000000	18.710306
2098.000000	18.623642
2097.000000	18.651628
2096.000000	18.636746
2095.000000	18.569328
2094.000000	18.628312
2093.000000	18.715125
2092.000000	18.662983
2091.000000	18.672870
2090.000000	18.582279
2089.000000	18.539295
2088.000000	18.635511
2087.000000	18.553277
2086.000000	18.506863
2085.000000	18.484990
2084.000000	18.342029
2083.000000	18.272677
2082.000000	18.177283
2081.000000	18.155599
2080.000000	18.077492
2079.000000	18.104598
2078.000000	18.049595
2077.000000	17.892274
2076.000000	17.808281
2075.000000	17.722078
2074.000000	17.604145
2073.000000	17.528168
2072.000000	17.422152
2071.000000	17.324649
2070.000000	17.241975
2069.000000	17.061286
2068.000000	17.008698
2067.000000	16.937778
2066.000000	16.767227
2065.000000	16.624640
2064.000000	16.455669
2063.000000	16.342638
2062.000000	16.272058
2061.000000	16.149681
2060.000000	16.026401
2059.000000	15.937516
2058.000000	15.862124
2057.000000	15.690164
2056.000000	15.584253
2055.000000	15.521973
2054.000000	15.313629
2053.000000	15.195989
2052.000000	15.161871
2051.000000	15.100574
2050.000000	15.053766
2049.000000	14.929799
2048.000000	14.767083
2047.000000	14.723757
2046.000000	14.747053
2045.000000	14.757763
2044.000000	14.766106
2043.000000	14.801559
2042.000000	14.787409
2041.000000	14.856411
2040.000000	14.903229
2039.000000	14.894314
2038.000000	14.962834
2037.000000	15.027987
2036.000000	15.069383
2035.000000	15.144085
2034.000000	15.217279
2033.000000	15.278192
2032.000000	15.395578
2031.000000	15.508308
2030.000000	15.627807
2029.000000	15.725232
2028.000000	15.864906
2027.000000	16.008477
2026.000000	16.145781
2025.000000	16.249948
2024.000000	16.306980
2023.000000	16.406460
2022.000000	16.473922
2021.000000	16.545042
2020.000000	16.594554
2019.000000	16.626601
2018.000000	16.716981
2017.000000	16.762231
2016.000000	16.785978
2015.000000	16.804673
2014.000000	16.800790
2013.000000	16.837889
2012.000000	16.838215
2011.000000	16.827325
2010.000000	16.825646
2009.000000	16.791893
2008.000000	16.748134
2007.000000	16.702348
2006.000000	16.663964
2005.000000	16.584241
2004.000000	16.507993
2003.000000	16.484064
2002.000000	16.436037
2001.000000	16.372984
2000.000000	16.320565
1999.000000	16.264635
1998.000000	16.228708
1997.000000	16.130118
1996.000000	16.055276
1995.000000	15.998953
1994.000000	15.903223
1993.000000	15.844278
1992.000000	15.808908
1991.000000	15.753417
1990.000000	15.666172
1989.000000	15.557532
1988.000000	15.482525
1987.000000	15.439111
1986.000000	15.340864
1985.000000	15.272827
1984.000000	15.202833
1983.000000	15.159450
1982.000000	15.106748
1981.000000	15.064801
1980.000000	15.005119
1979.000000	14.905161
1978.000000	14.832325
1977.000000	14.769480
1976.000000	14.709476
1975.000000	14.682242
1974.000000	14.600721
1973.000000	14.566921
1972.000000	14.512918
1971.000000	14.476931
1970.000000	14.367707
1969.000000	14.334452
1968.000000	14.293700
1967.000000	14.233305
1966.000000	14.191879
1965.000000	14.144727
1964.000000	14.086096
1963.000000	14.006129
1962.000000	13.922547
1961.000000	13.884149
1960.000000	13.834930
1959.000000	13.827442
1958.000000	13.748878
1957.000000	13.677949
1956.000000	13.676260
1955.000000	13.663375
1954.000000	13.597818
1953.000000	13.575268
1952.000000	13.560693
1951.000000	13.588023
1950.000000	13.487087
1949.000000	13.499785
1948.000000	13.495176
1947.000000	13.491444
1946.000000	13.405323
1945.000000	13.486319
1944.000000	13.501026
1943.000000	13.544809
1942.000000	13.513766
1941.000000	13.604321
1940.000000	13.673350
1939.000000	13.692608
1938.000000	13.704038
1937.000000	13.850265
1936.000000	13.909952
1935.000000	14.023871
1934.000000	14.027548
1933.000000	14.104946
1932.000000	14.199594
1931.000000	14.363256
1930.000000	14.437192
1929.000000	14.599629
1928.000000	14.784610
1927.000000	14.977706
1926.000000	15.104235
1925.000000	15.311995
1924.000000	15.492658
1923.000000	15.651558
1922.000000	15.767836
1921.000000	16.152047
1920.000000	16.407736
1919.000000	16.650291
1918.000000	16.929021
1917.000000	17.200967
1916.000000	17.490261
1915.000000	17.784254
1914.000000	18.035485
1913.000000	18.403651
1912.000000	18.733411
1911.000000	19.001818
1910.000000	19.386982
1909.000000	19.795354
1908.000000	20.207940
1907.000000	20.590008
1906.000000	20.929985
1905.000000	21.463013
1904.000000	21.939514
1903.000000	22.344163
1902.000000	22.821811
1901.000000	23.329719
1900.000000	23.821102
1899.000000	24.366071
1898.000000	24.930241
1897.000000	25.355615
1896.000000	25.812815
1895.000000	26.328624
1894.000000	26.877748
1893.000000	27.349678
1892.000000	27.890141
1891.000000	28.421957
1890.000000	28.878942
1889.000000	29.346135
1888.000000	29.836612
1887.000000	30.292483
1886.000000	30.747254
1885.000000	31.228626
1884.000000	31.659563
1883.000000	32.059127
1882.000000	32.401903
1881.000000	32.815756
1880.000000	33.168095
1879.000000	33.518955
1878.000000	33.849528
1877.000000	34.208506
1876.000000	34.484002
1875.000000	34.719396
1874.000000	34.954744
1873.000000	35.208509
1872.000000	35.407138
1871.000000	35.629685
1870.000000	35.839970
1869.000000	36.036801
1868.000000	36.154715
1867.000000	36.235564
1866.000000	36.338898
1865.000000	36.483941
1864.000000	36.595511
1863.000000	36.732189
1862.000000	36.800405
1861.000000	36.870534
1860.000000	36.947840
1859.000000	36.955146
1858.000000	37.020818
1857.000000	37.071563
1856.000000	37.105328
1855.000000	37.165876
1854.000000	37.192271
1853.000000	37.198284
1852.000000	37.200614
1851.000000	37.202704
1850.000000	37.190694
1849.000000	37.192977
1848.000000	37.189246
1847.000000	37.170780
1846.000000	37.128754
1845.000000	37.108398
1844.000000	37.066529
1843.000000	37.022138
1842.000000	36.989605
1841.000000	36.972267
1840.000000	36.919092
1839.000000	36.839984
1838.000000	36.752879
1837.000000	36.693251
1836.000000	36.648844
1835.000000	36.602179
1834.000000	36.522760
1833.000000	36.455490
1832.000000	36.396870
1831.000000	36.326768
1830.000000	36.281391
1829.000000	36.246281
1828.000000	36.193815
1827.000000	36.152900
1826.000000	36.112069
1825.000000	36.036978
1824.000000	35.977508
1823.000000	35.942937
1822.000000	35.877613
1821.000000	35.848469
1820.000000	35.817393
1819.000000	35.764164
1818.000000	35.704376
1817.000000	35.659403
1816.000000	35.609949
1815.000000	35.545295
1814.000000	35.495341
1813.000000	35.449762
1812.000000	35.407366
1811.000000	35.376490
1810.000000	35.351322
1809.000000	35.330192
1808.000000	35.298999
1807.000000	35.243494
1806.000000	35.194772
1805.000000	35.150611
1804.000000	35.101436
1803.000000	35.068637
1802.000000	35.046993
1801.000000	35.011455
1800.000000	34.967940
1799.000000	34.928012
1798.000000	34.895116
1797.000000	34.873469
1796.000000	34.849483
1795.000000	34.823440
1794.000000	34.799822
1793.000000	34.756585
1792.000000	34.750355
1791.000000	34.724569
1790.000000	34.676884
1789.000000	34.651102
1788.000000	34.621587
1787.000000	34.604696
1786.000000	34.547235
1785.000000	34.500890
1784.000000	34.470964
1783.000000	34.398785
1782.000000	34.338300
1781.000000	34.287833
1780.000000	34.229700
1779.000000	34.178862
1778.000000	34.103581
1777.000000	34.018356
1776.000000	33.940847
1775.000000	33.840890
1774.000000	33.759988
1773.000000	33.677297
1772.000000	33.569664
1771.000000	33.470329
1770.000000	33.393398
1769.000000	33.288748
1768.000000	33.187996
1767.000000	33.077628
1766.000000	32.997827
1765.000000	32.916346
1764.000000	32.849218
1763.000000	32.751187
1762.000000	32.659361
1761.000000	32.561441
1760.000000	32.470893
1759.000000	32.389645
1758.000000	32.324486
1757.000000	32.241771
1756.000000	32.137132
1755.000000	32.056971
1754.000000	31.961095
1753.000000	31.887384
1752.000000	31.823205
1751.000000	31.723045
1750.000000	31.616277
1749.000000	31.569968
1748.000000	31.455538
1747.000000	31.320347
1746.000000	31.262227
1745.000000	31.161024
1744.000000	31.041452
1743.000000	31.006479
1742.000000	30.876472
1741.000000	30.793701
1740.000000	30.684404
1739.000000	30.624578
1738.000000	30.545054
1737.000000	30.489479
1736.000000	30.446097
1735.000000	30.400162
1734.000000	30.392903
1733.000000	30.342086
1732.000000	30.321222
1731.000000	30.316811
1730.000000	30.326395
1729.000000	30.372441
1728.000000	30.422554
1727.000000	30.492619
1726.000000	30.550573
1725.000000	30.655303
1724.000000	30.764868
1723.000000	30.867224
1722.000000	31.003679
1721.000000	31.138508
1720.000000	31.245346
1719.000000	31.383882
1718.000000	31.466962
1717.000000	31.619934
1716.000000	31.764782
1715.000000	31.875862
1714.000000	32.020034
1713.000000	32.135196
1712.000000	32.225408
1711.000000	32.329971
1710.000000	32.406693
1709.000000	32.490875
1708.000000	32.563970
1707.000000	32.633708
1706.000000	32.724157
1705.000000	32.770852
1704.000000	32.800247
1703.000000	32.820352
1702.000000	32.891862
1701.000000	32.943543
1700.000000	32.980961
1699.000000	32.990497
1698.000000	33.062298
1697.000000	33.175803
1696.000000	33.213684
1695.000000	33.264313
1694.000000	33.364780
1693.000000	33.459407
1692.000000	33.542689
1691.000000	33.674282
1690.000000	33.826590
1689.000000	33.971168
1688.000000	34.148501
1687.000000	34.327810
1686.000000	34.534222
1685.000000	34.731500
1684.000000	34.962507
1683.000000	35.195878
1682.000000	35.467265
1681.000000	35.729370
1680.000000	35.982615
1679.000000	36.222874
1678.000000	36.530398
1677.000000	36.783352
1676.000000	37.041717
1675.000000	37.323149
1674.000000	37.611950
1673.000000	37.860674
1672.000000	38.113682
1671.000000	38.364366
1670.000000	38.623530
1669.000000	38.889154
1668.000000	39.073178
1667.000000	39.279142
1666.000000	39.451437
1665.000000	39.625922
1664.000000	39.766267
1663.000000	39.910006
1662.000000	40.027173
1661.000000	40.150478
1660.000000	40.265190
1659.000000	40.361749
1658.000000	40.438742
1657.000000	40.494020
1656.000000	40.587898
1655.000000	40.651759
1654.000000	40.684736
1653.000000	40.717426
1652.000000	40.746313
1651.000000	40.755842
1650.000000	40.771951
1649.000000	40.773544
1648.000000	40.771922
1647.000000	40.764956
1646.000000	40.769062
1645.000000	40.725829
1644.000000	40.708334
1643.000000	40.662948
1642.000000	40.649366
1641.000000	40.637060
1640.000000	40.594882
1639.000000	40.536237
1638.000000	40.504851
1637.000000	40.458631
1636.000000	40.404619
1635.000000	40.362229
1634.000000	40.312118
1633.000000	40.254763
1632.000000	40.199792
1631.000000	40.127485
1630.000000	40.068569
1629.000000	40.022587
1628.000000	39.971230
1627.000000	39.913986
1626.000000	39.852442
1625.000000	39.774030
1624.000000	39.721540
1623.000000	39.679599
1622.000000	39.607777
1621.000000	39.525078
1620.000000	39.476774
1619.000000	39.396317
1618.000000	39.305061
1617.000000	39.240382
1616.000000	39.168517
1615.000000	39.089731
1614.000000	39.011156
1613.000000	38.941863
1612.000000	38.871758
1611.000000	38.798755
1610.000000	38.717763
1609.000000	38.630607
1608.000000	38.549201
1607.000000	38.465920
1606.000000	38.372781
1605.000000	38.279492
1604.000000	38.200764
1603.000000	38.109365
1602.000000	38.021192
1601.000000	37.943746
1600.000000	37.870611
1599.000000	37.783617
1598.000000	37.680581
1597.000000	37.614475
1596.000000	37.536762
1595.000000	37.454941
1594.000000	37.396087
1593.000000	37.315464
1592.000000	37.239464
1591.000000	37.163312
1590.000000	37.099964
1589.000000	37.041080
1588.000000	36.966372
1587.000000	36.886823
1586.000000	36.817893
1585.000000	36.759765
1584.000000	36.700586
1583.000000	36.639175
1582.000000	36.582116
1581.000000	36.520320
1580.000000	36.454809
1579.000000	36.387419
1578.000000	36.332692
1577.000000	36.278179
1576.000000	36.220492
1575.000000	36.167990
1574.000000	36.099953
1573.000000	36.048516
1572.000000	35.990064
1571.000000	35.921901
1570.000000	35.868367
1569.000000	35.818854
1568.000000	35.775931
1567.000000	35.721733
1566.000000	35.673294
1565.000000	35.627454
1564.000000	35.591587
1563.000000	35.563680
1562.000000	35.518594
1561.000000	35.472692
1560.000000	35.441061
1559.000000	35.401679
1558.000000	35.368107
1557.000000	35.337837
1556.000000	35.305706
1555.000000	35.263255
1554.000000	35.222297
1553.000000	35.195961
1552.000000	35.138377
1551.000000	35.098724
1550.000000	35.045956
1549.000000	34.996090
1548.000000	34.945963
1547.000000	34.866314
1546.000000	34.775685
1545.000000	34.684153
1544.000000	34.578595
1543.000000	34.493861
1542.000000	34.410778
1541.000000	34.306572
1540.000000	34.201806
1539.000000	34.080231
1538.000000	33.974991
1537.000000	33.863813
1536.000000	33.738340
1535.000000	33.617493
1534.000000	33.513603
1533.000000	33.412248
1532.000000	33.284335
1531.000000	33.158471
1530.000000	33.052381
1529.000000	32.934940
1528.000000	32.848929
1527.000000	32.752223
1526.000000	32.650448
1525.000000	32.556005
1524.000000	32.468034
1523.000000	32.390747
1522.000000	32.311356
1521.000000	32.259071
1520.000000	32.188250
1519.000000	32.131405
1518.000000	32.070576
1517.000000	32.007401
1516.000000	31.954744
1515.000000	31.907038
1514.000000	31.874330
1513.000000	31.840091
1512.000000	31.789231
1511.000000	31.762206
1510.000000	31.723160
1509.000000	31.695115
1508.000000	31.680342
1507.000000	31.657298
1506.000000	31.628011
1505.000000	31.611868
1504.000000	31.621742
1503.000000	31.600557
1502.000000	31.600572
1501.000000	31.617479
1500.000000	31.639587
1499.000000	31.669889
1498.000000	31.712418
1497.000000	31.713596
1496.000000	31.735460
1495.000000	31.768120
1494.000000	31.806865
1493.000000	31.855431
1492.000000	31.907971
1491.000000	31.955592
1490.000000	32.042744
1489.000000	32.107479
1488.000000	32.199470
1487.000000	32.277695
1486.000000	32.365341
1485.000000	32.459972
1484.000000	32.564773
1483.000000	32.659353
1482.000000	32.770918
1481.000000	32.873819
1480.000000	32.975147
1479.000000	33.097763
1478.000000	33.203430
1477.000000	33.306896
1476.000000	33.401602
1475.000000	33.506749
1474.000000	33.623050
1473.000000	33.717957
1472.000000	33.792617
1471.000000	33.890391
1470.000000	33.990936
