PE UV       SUBTECH     SPECTRUM    ASCII       PEDS        4.00        
   -1
RTChevreUK 62.Sample.asc
18/03/02
11:09:35.00
18/03/02
11:09:35.00
Administrator

200.000000
1
Lambda 750
750N8071901
PerkinElmer UV WinLab 6.0.4.0738 / 1.61.00 Lambda 900

0
0
3350/servo 860.8/2
0
0
UV/VIS
1
1
1
CommonBeamDepol,150mm sphere / downward view
0
0
0
0
Program
Program
3350/servo 860.8/2
3350/0.2 860.8/0.2
3350/0.2 860.8/0.2
0
1
 
 
 
0
 
860.8
319.2
860.8
Front
100
on
 
 
0
0
0
 
0
 
 
 
0
 
 
0
0
0
0
0
 
 
 
 
0
0


0
0
#HDR
-1
-1
#GR
nm
%R
1.0
0.0
2350.000000
-1.000000
2151
8
58.124759
13.253219
#DATA
2350.000000	14.452802
2349.000000	14.287528
2348.000000	14.502655
2347.000000	15.035489
2346.000000	14.661950
2345.000000	14.294193
2344.000000	14.362605
2343.000000	14.029921
2342.000000	14.159466
2341.000000	14.537501
2340.000000	14.966240
2339.000000	14.940779
2338.000000	14.874294
2337.000000	14.882040
2336.000000	15.234216
2335.000000	15.235009
2334.000000	15.290215
2333.000000	15.468487
2332.000000	15.501077
2331.000000	15.270830
2330.000000	15.401638
2329.000000	15.172954
2328.000000	15.212738
2327.000000	15.544155
2326.000000	15.192384
2325.000000	15.000399
2324.000000	15.211516
2323.000000	14.949254
2322.000000	15.187626
2321.000000	14.823844
2320.000000	14.699527
2319.000000	15.036326
2318.000000	15.040666
2317.000000	14.682600
2316.000000	14.562127
2315.000000	14.382526
2314.000000	14.435558
2313.000000	14.505360
2312.000000	14.417304
2311.000000	14.493850
2310.000000	14.374352
2309.000000	14.541282
2308.000000	14.252129
2307.000000	14.162861
2306.000000	14.356596
2305.000000	14.029631
2304.000000	13.841261
2303.000000	13.900583
2302.000000	14.016120
2301.000000	13.907064
2300.000000	13.853607
2299.000000	13.819816
2298.000000	13.625677
2297.000000	13.719828
2296.000000	13.614551
2295.000000	13.419039
2294.000000	13.612591
2293.000000	13.783928
2292.000000	13.726850
2291.000000	13.539691
2290.000000	13.406500
2289.000000	13.424057
2288.000000	13.448834
2287.000000	13.516643
2286.000000	13.435062
2285.000000	13.469708
2284.000000	13.388214
2283.000000	13.329924
2282.000000	13.298315
2281.000000	13.262533
2280.000000	13.253219
2279.000000	13.502355
2278.000000	13.461332
2277.000000	13.572918
2276.000000	13.670206
2275.000000	13.615879
2274.000000	13.611683
2273.000000	13.768754
2272.000000	13.789244
2271.000000	13.684633
2270.000000	13.665033
2269.000000	13.854396
2268.000000	13.889467
2267.000000	13.948160
2266.000000	13.918641
2265.000000	14.022221
2264.000000	14.154908
2263.000000	14.317848
2262.000000	14.514674
2261.000000	14.559911
2260.000000	14.682253
2259.000000	14.921960
2258.000000	14.965308
2257.000000	15.175995
2256.000000	15.234537
2255.000000	15.352496
2254.000000	15.545528
2253.000000	15.646021
2252.000000	15.878769
2251.000000	16.055852
2250.000000	16.169214
2249.000000	16.310615
2248.000000	16.512267
2247.000000	16.763001
2246.000000	16.877086
2245.000000	17.009508
2244.000000	17.220861
2243.000000	17.369498
2242.000000	17.486900
2241.000000	17.532860
2240.000000	17.621792
2239.000000	17.733394
2238.000000	17.897547
2237.000000	17.983625
2236.000000	18.015438
2235.000000	18.132077
2234.000000	18.252067
2233.000000	18.269029
2232.000000	18.284392
2231.000000	18.376541
2230.000000	18.390780
2229.000000	18.373293
2228.000000	18.494255
2227.000000	18.483729
2226.000000	18.518091
2225.000000	18.524748
2224.000000	18.454518
2223.000000	18.446914
2222.000000	18.485490
2221.000000	18.480330
2220.000000	18.426035
2219.000000	18.405253
2218.000000	18.253732
2217.000000	18.245651
2216.000000	18.242230
2215.000000	18.153639
2214.000000	18.166446
2213.000000	18.125659
2212.000000	17.993947
2211.000000	17.920347
2210.000000	17.933851
2209.000000	18.023359
2208.000000	17.972147
2207.000000	17.688627
2206.000000	17.663453
2205.000000	17.631426
2204.000000	17.588904
2203.000000	17.403234
2202.000000	17.357807
2201.000000	17.304690
2200.000000	17.363086
2199.000000	17.346991
2198.000000	17.170902
2197.000000	17.156371
2196.000000	17.131838
2195.000000	17.079217
2194.000000	16.977200
2193.000000	16.856830
2192.000000	16.790889
2191.000000	16.709024
2190.000000	16.671822
2189.000000	16.625460
2188.000000	16.613804
2187.000000	16.659093
2186.000000	16.624384
2185.000000	16.432612
2184.000000	16.460592
2183.000000	16.532024
2182.000000	16.495890
2181.000000	16.401700
2180.000000	16.365811
2179.000000	16.215185
2178.000000	16.412356
2177.000000	16.420145
2176.000000	16.302482
2175.000000	16.362885
2174.000000	16.420521
2173.000000	16.486963
2172.000000	16.396464
2171.000000	16.541891
2170.000000	16.591649
2169.000000	16.455613
2168.000000	16.827393
2167.000000	16.846529
2166.000000	16.740710
2165.000000	16.939726
2164.000000	16.882165
2163.000000	16.956889
2162.000000	17.196764
2161.000000	17.190350
2160.000000	17.243749
2159.000000	17.364107
2158.000000	17.516575
2157.000000	17.690524
2156.000000	17.823499
2155.000000	17.850256
2154.000000	18.014242
2153.000000	18.383956
2152.000000	18.337025
2151.000000	18.292265
2150.000000	18.417551
2149.000000	18.667050
2148.000000	18.698836
2147.000000	19.006092
2146.000000	18.908795
2145.000000	19.170243
2144.000000	19.255938
2143.000000	19.486329
2142.000000	19.731328
2141.000000	19.889687
2140.000000	19.911351
2139.000000	19.992841
2138.000000	20.056291
2137.000000	20.218575
2136.000000	20.015615
2135.000000	20.283327
2134.000000	20.477934
2133.000000	20.258756
2132.000000	20.540175
2131.000000	20.843913
2130.000000	21.028018
2129.000000	20.838538
2128.000000	20.922313
2127.000000	21.043424
2126.000000	21.016056
2125.000000	21.160612
2124.000000	21.220133
2123.000000	21.256519
2122.000000	21.431459
2121.000000	21.430891
2120.000000	21.466361
2119.000000	21.362687
2118.000000	21.475942
2117.000000	21.616319
2116.000000	21.580797
2115.000000	21.653922
2114.000000	21.684190
2113.000000	21.792329
2112.000000	21.814163
2111.000000	21.690559
2110.000000	21.688383
2109.000000	21.823330
2108.000000	21.817358
2107.000000	21.855355
2106.000000	21.944870
2105.000000	21.926805
2104.000000	21.937881
2103.000000	21.923418
2102.000000	21.999448
2101.000000	22.072540
2100.000000	21.984983
2099.000000	21.959329
2098.000000	22.041633
2097.000000	22.052661
2096.000000	21.963586
2095.000000	22.049242
2094.000000	22.032150
2093.000000	21.987088
2092.000000	22.051374
2091.000000	21.998614
2090.000000	22.052196
2089.000000	21.956007
2088.000000	21.962758
2087.000000	21.841952
2086.000000	21.895907
2085.000000	21.895248
2084.000000	21.767264
2083.000000	21.725748
2082.000000	21.685754
2081.000000	21.669494
2080.000000	21.534595
2079.000000	21.405795
2078.000000	21.270779
2077.000000	21.283524
2076.000000	21.265623
2075.000000	21.109378
2074.000000	20.958888
2073.000000	20.883530
2072.000000	20.825041
2071.000000	20.767103
2070.000000	20.688370
2069.000000	20.515715
2068.000000	20.403807
2067.000000	20.262794
2066.000000	20.165584
2065.000000	19.983337
2064.000000	19.866753
2063.000000	19.698337
2062.000000	19.526772
2061.000000	19.389209
2060.000000	19.304574
2059.000000	19.180816
2058.000000	19.020066
2057.000000	18.955161
2056.000000	18.917819
2055.000000	18.735828
2054.000000	18.590726
2053.000000	18.495819
2052.000000	18.339665
2051.000000	18.272349
2050.000000	18.273332
2049.000000	18.211708
2048.000000	18.090180
2047.000000	18.050432
2046.000000	18.025243
2045.000000	17.988908
2044.000000	17.967883
2043.000000	17.967974
2042.000000	17.948399
2041.000000	17.949519
2040.000000	18.024502
2039.000000	18.074546
2038.000000	18.113048
2037.000000	18.164385
2036.000000	18.225483
2035.000000	18.319738
2034.000000	18.411748
2033.000000	18.530441
2032.000000	18.650746
2031.000000	18.771266
2030.000000	18.843518
2029.000000	18.927787
2028.000000	19.084156
2027.000000	19.229898
2026.000000	19.384046
2025.000000	19.491700
2024.000000	19.570117
2023.000000	19.634145
2022.000000	19.673188
2021.000000	19.729947
2020.000000	19.834987
2019.000000	19.901573
2018.000000	19.936259
2017.000000	19.975144
2016.000000	19.997407
2015.000000	19.989889
2014.000000	20.023714
2013.000000	20.054153
2012.000000	20.043235
2011.000000	19.986092
2010.000000	19.943793
2009.000000	19.895205
2008.000000	19.852892
2007.000000	19.830066
2006.000000	19.789927
2005.000000	19.721173
2004.000000	19.635445
2003.000000	19.597949
2002.000000	19.551920
2001.000000	19.492778
2000.000000	19.412262
1999.000000	19.336465
1998.000000	19.295839
1997.000000	19.214091
1996.000000	19.147321
1995.000000	19.057997
1994.000000	18.953244
1993.000000	18.876528
1992.000000	18.829399
1991.000000	18.732867
1990.000000	18.630512
1989.000000	18.583414
1988.000000	18.507280
1987.000000	18.446003
1986.000000	18.350750
1985.000000	18.257924
1984.000000	18.172800
1983.000000	18.106788
1982.000000	18.018256
1981.000000	17.955080
1980.000000	17.906710
1979.000000	17.828284
1978.000000	17.749381
1977.000000	17.685325
1976.000000	17.593002
1975.000000	17.546637
1974.000000	17.492148
1973.000000	17.431857
1972.000000	17.371387
1971.000000	17.316731
1970.000000	17.243237
1969.000000	17.183909
1968.000000	17.137851
1967.000000	17.053595
1966.000000	17.053699
1965.000000	16.983660
1964.000000	16.918394
1963.000000	16.851051
1962.000000	16.741772
1961.000000	16.693582
1960.000000	16.655674
1959.000000	16.614109
1958.000000	16.539552
1957.000000	16.476451
1956.000000	16.454734
1955.000000	16.467299
1954.000000	16.450246
1953.000000	16.383126
1952.000000	16.359973
1951.000000	16.307778
1950.000000	16.253989
1949.000000	16.286441
1948.000000	16.247350
1947.000000	16.204137
1946.000000	16.250265
1945.000000	16.268183
1944.000000	16.251896
1943.000000	16.325353
1942.000000	16.375059
1941.000000	16.352410
1940.000000	16.434985
1939.000000	16.455102
1938.000000	16.520747
1937.000000	16.521596
1936.000000	16.676489
1935.000000	16.731187
1934.000000	16.882767
1933.000000	17.032646
1932.000000	17.160952
1931.000000	17.284689
1930.000000	17.397798
1929.000000	17.641755
1928.000000	17.690451
1927.000000	17.885025
1926.000000	18.101937
1925.000000	18.266078
1924.000000	18.515878
1923.000000	18.780797
1922.000000	18.973757
1921.000000	19.256277
1920.000000	19.422237
1919.000000	19.770080
1918.000000	20.010550
1917.000000	20.347945
1916.000000	20.530421
1915.000000	21.004618
1914.000000	21.328404
1913.000000	21.640110
1912.000000	22.033658
1911.000000	22.399465
1910.000000	22.714352
1909.000000	23.094478
1908.000000	23.544180
1907.000000	23.978036
1906.000000	24.386911
1905.000000	24.875907
1904.000000	25.358967
1903.000000	25.855917
1902.000000	26.326755
1901.000000	26.851899
1900.000000	27.388239
1899.000000	27.911533
1898.000000	28.440844
1897.000000	28.893466
1896.000000	29.423398
1895.000000	29.942963
1894.000000	30.437935
1893.000000	30.945244
1892.000000	31.474153
1891.000000	32.052250
1890.000000	32.511974
1889.000000	32.956259
1888.000000	33.470174
1887.000000	33.865504
1886.000000	34.296078
1885.000000	34.768414
1884.000000	35.195706
1883.000000	35.584081
1882.000000	35.956894
1881.000000	36.341921
1880.000000	36.716201
1879.000000	37.011135
1878.000000	37.341054
1877.000000	37.642047
1876.000000	37.932665
1875.000000	38.226666
1874.000000	38.475479
1873.000000	38.709266
1872.000000	38.904476
1871.000000	39.100729
1870.000000	39.301146
1869.000000	39.501596
1868.000000	39.656080
1867.000000	39.703562
1866.000000	39.837251
1865.000000	39.980594
1864.000000	40.025400
1863.000000	40.119500
1862.000000	40.202025
1861.000000	40.278014
1860.000000	40.348796
1859.000000	40.384060
1858.000000	40.415652
1857.000000	40.454197
1856.000000	40.478466
1855.000000	40.509799
1854.000000	40.551063
1853.000000	40.610441
1852.000000	40.610293
1851.000000	40.605404
1850.000000	40.580007
1849.000000	40.572232
1848.000000	40.569524
1847.000000	40.541195
1846.000000	40.502503
1845.000000	40.469553
1844.000000	40.448717
1843.000000	40.432033
1842.000000	40.380818
1841.000000	40.349193
1840.000000	40.310999
1839.000000	40.273912
1838.000000	40.213683
1837.000000	40.129730
1836.000000	40.083657
1835.000000	40.024829
1834.000000	39.966438
1833.000000	39.929236
1832.000000	39.871644
1831.000000	39.797024
1830.000000	39.742938
1829.000000	39.689448
1828.000000	39.627123
1827.000000	39.590782
1826.000000	39.561114
1825.000000	39.498033
1824.000000	39.452915
1823.000000	39.398758
1822.000000	39.337042
1821.000000	39.315278
1820.000000	39.280451
1819.000000	39.221639
1818.000000	39.162870
1817.000000	39.112250
1816.000000	39.070197
1815.000000	39.019887
1814.000000	38.967555
1813.000000	38.939669
1812.000000	38.902840
1811.000000	38.849112
1810.000000	38.808399
1809.000000	38.774148
1808.000000	38.743742
1807.000000	38.705462
1806.000000	38.653165
1805.000000	38.602547
1804.000000	38.559753
1803.000000	38.529097
1802.000000	38.506445
1801.000000	38.465878
1800.000000	38.430595
1799.000000	38.418389
1798.000000	38.386453
1797.000000	38.353105
1796.000000	38.313276
1795.000000	38.290005
1794.000000	38.279896
1793.000000	38.246175
1792.000000	38.200832
1791.000000	38.161961
1790.000000	38.127018
1789.000000	38.097359
1788.000000	38.075809
1787.000000	38.039081
1786.000000	38.014879
1785.000000	37.984780
1784.000000	37.927297
1783.000000	37.868541
1782.000000	37.825274
1781.000000	37.768919
1780.000000	37.710206
1779.000000	37.654414
1778.000000	37.584564
1777.000000	37.494241
1776.000000	37.429829
1775.000000	37.324380
1774.000000	37.238059
1773.000000	37.190823
1772.000000	37.125593
1771.000000	37.008533
1770.000000	36.902038
1769.000000	36.805844
1768.000000	36.742254
1767.000000	36.654155
1766.000000	36.564641
1765.000000	36.465561
1764.000000	36.389945
1763.000000	36.283953
1762.000000	36.204209
1761.000000	36.119635
1760.000000	36.042260
1759.000000	35.966757
1758.000000	35.893272
1757.000000	35.808630
1756.000000	35.716301
1755.000000	35.655632
1754.000000	35.568977
1753.000000	35.490845
1752.000000	35.417231
1751.000000	35.321214
1750.000000	35.236616
1749.000000	35.175961
1748.000000	35.064529
1747.000000	34.950338
1746.000000	34.842932
1745.000000	34.734522
1744.000000	34.646980
1743.000000	34.584891
1742.000000	34.468669
1741.000000	34.391189
1740.000000	34.308174
1739.000000	34.244830
1738.000000	34.185270
1737.000000	34.134573
1736.000000	34.067427
1735.000000	34.044451
1734.000000	34.002480
1733.000000	33.980158
1732.000000	33.964971
1731.000000	33.968490
1730.000000	34.000523
1729.000000	34.010626
1728.000000	34.059202
1727.000000	34.141937
1726.000000	34.238376
1725.000000	34.325746
1724.000000	34.444993
1723.000000	34.548282
1722.000000	34.655359
1721.000000	34.805275
1720.000000	34.933676
1719.000000	35.056249
1718.000000	35.180397
1717.000000	35.331273
1716.000000	35.452095
1715.000000	35.558360
1714.000000	35.690748
1713.000000	35.786434
1712.000000	35.871853
1711.000000	35.962383
1710.000000	36.089952
1709.000000	36.152190
1708.000000	36.213078
1707.000000	36.278434
1706.000000	36.364300
1705.000000	36.395339
1704.000000	36.467669
1703.000000	36.473584
1702.000000	36.500275
1701.000000	36.545074
1700.000000	36.596679
1699.000000	36.627606
1698.000000	36.688366
1697.000000	36.751969
1696.000000	36.818477
1695.000000	36.874473
1694.000000	36.935552
1693.000000	37.065891
1692.000000	37.103806
1691.000000	37.266766
1690.000000	37.377370
1689.000000	37.521197
1688.000000	37.679080
1687.000000	37.832890
1686.000000	38.035276
1685.000000	38.256249
1684.000000	38.487002
1683.000000	38.712910
1682.000000	38.943804
1681.000000	39.201100
1680.000000	39.437361
1679.000000	39.698338
1678.000000	39.954425
1677.000000	40.200235
1676.000000	40.438849
1675.000000	40.731446
1674.000000	41.005247
1673.000000	41.235690
1672.000000	41.448689
1671.000000	41.705743
1670.000000	41.940346
1669.000000	42.181072
1668.000000	42.361489
1667.000000	42.554635
1666.000000	42.730346
1665.000000	42.880521
1664.000000	43.008483
1663.000000	43.137595
1662.000000	43.271857
1661.000000	43.374882
1660.000000	43.455969
1659.000000	43.560997
1658.000000	43.608021
1657.000000	43.663508
1656.000000	43.747364
1655.000000	43.795193
1654.000000	43.858207
1653.000000	43.901546
1652.000000	43.917497
1651.000000	43.921942
1650.000000	43.907007
1649.000000	43.921121
1648.000000	43.915546
1647.000000	43.891942
1646.000000	43.876556
1645.000000	43.858585
1644.000000	43.860836
1643.000000	43.822981
1642.000000	43.787429
1641.000000	43.754948
1640.000000	43.726120
1639.000000	43.697328
1638.000000	43.658348
1637.000000	43.628951
1636.000000	43.560439
1635.000000	43.511207
1634.000000	43.478102
1633.000000	43.430172
1632.000000	43.369099
1631.000000	43.309839
1630.000000	43.254931
1629.000000	43.207338
1628.000000	43.141988
1627.000000	43.090588
1626.000000	43.040588
1625.000000	42.972233
1624.000000	42.916623
1623.000000	42.868611
1622.000000	42.799365
1621.000000	42.719710
1620.000000	42.661934
1619.000000	42.595071
1618.000000	42.515185
1617.000000	42.452428
1616.000000	42.383139
1615.000000	42.309384
1614.000000	42.233555
1613.000000	42.166247
1612.000000	42.094438
1611.000000	42.004556
1610.000000	41.925940
1609.000000	41.857113
1608.000000	41.780114
1607.000000	41.693194
1606.000000	41.599490
1605.000000	41.516339
1604.000000	41.434333
1603.000000	41.356103
1602.000000	41.274241
1601.000000	41.190154
1600.000000	41.122172
1599.000000	41.042711
1598.000000	40.948136
1597.000000	40.873341
1596.000000	40.804939
1595.000000	40.718580
1594.000000	40.653918
1593.000000	40.598642
1592.000000	40.523597
1591.000000	40.436928
1590.000000	40.366136
1589.000000	40.306164
1588.000000	40.245381
1587.000000	40.178624
1586.000000	40.114104
1585.000000	40.045409
1584.000000	39.990330
1583.000000	39.929779
1582.000000	39.861839
1581.000000	39.813136
1580.000000	39.746306
1579.000000	39.695588
1578.000000	39.655111
1577.000000	39.593322
1576.000000	39.527987
1575.000000	39.471660
1574.000000	39.404512
1573.000000	39.337281
1572.000000	39.294973
1571.000000	39.246353
1570.000000	39.188485
1569.000000	39.141168
1568.000000	39.090246
1567.000000	39.041796
1566.000000	38.978311
1565.000000	38.946451
1564.000000	38.931902
1563.000000	38.883107
1562.000000	38.839497
1561.000000	38.819235
1560.000000	38.786514
1559.000000	38.747989
1558.000000	38.718185
1557.000000	38.694675
1556.000000	38.665664
1555.000000	38.622761
1554.000000	38.601175
1553.000000	38.561031
1552.000000	38.507866
1551.000000	38.458515
1550.000000	38.417612
1549.000000	38.370126
1548.000000	38.321643
1547.000000	38.244350
1546.000000	38.161488
1545.000000	38.087900
1544.000000	37.985639
1543.000000	37.906451
1542.000000	37.814642
1541.000000	37.711706
1540.000000	37.589821
1539.000000	37.477587
1538.000000	37.386723
1537.000000	37.268540
1536.000000	37.151013
1535.000000	37.030243
1534.000000	36.925497
1533.000000	36.812653
1532.000000	36.702323
1531.000000	36.586265
1530.000000	36.471523
1529.000000	36.366730
1528.000000	36.278323
1527.000000	36.193795
1526.000000	36.088686
1525.000000	35.999064
1524.000000	35.912718
1523.000000	35.831980
1522.000000	35.747941
1521.000000	35.688089
1520.000000	35.628972
1519.000000	35.566167
1518.000000	35.510186
1517.000000	35.449279
1516.000000	35.391829
1515.000000	35.346460
1514.000000	35.292270
1513.000000	35.270474
1512.000000	35.236581
1511.000000	35.194671
1510.000000	35.154585
1509.000000	35.136214
1508.000000	35.105035
1507.000000	35.093153
1506.000000	35.075137
1505.000000	35.052670
1504.000000	35.085840
1503.000000	35.098779
1502.000000	35.124201
1501.000000	35.125127
1500.000000	35.117206
1499.000000	35.106931
1498.000000	35.090541
1497.000000	35.117153
1496.000000	35.124443
1495.000000	35.172904
1494.000000	35.220544
1493.000000	35.256356
1492.000000	35.306832
1491.000000	35.366070
1490.000000	35.447756
1489.000000	35.531313
1488.000000	35.615247
1487.000000	35.690565
1486.000000	35.766401
1485.000000	35.892619
1484.000000	35.984490
1483.000000	36.093655
1482.000000	36.174897
1481.000000	36.303715
1480.000000	36.410233
1479.000000	36.506201
1478.000000	36.601725
1477.000000	36.713089
1476.000000	36.800966
1475.000000	36.891644
1474.000000	37.033908
1473.000000	37.118390
1472.000000	37.202042
1471.000000	37.288748
1470.000000	37.410329
