PE UV       SUBTECH     SPECTRUM    ASCII       PEDS        4.00        
   -1
RTVeauUK 42.Sample.asc
18/03/02
11:55:53.00
18/03/02
11:55:53.00
Administrator

200.000000
1
Lambda 750
750N8071901
PerkinElmer UV WinLab 6.0.4.0738 / 1.61.00 Lambda 900

0
0
3350/servo 860.8/2
0
0
UV/VIS
1
1
1
CommonBeamDepol,150mm sphere / downward view
0
0
0
0
Program
Program
3350/servo 860.8/2
3350/0.2 860.8/0.2
3350/0.2 860.8/0.2
0
1
 
 
 
0
 
860.8
319.2
860.8
Front
100
on
 
 
0
0
0
 
0
 
 
 
0
 
 
0
0
0
0
0
 
 
 
 
0
0


0
0
#HDR
-1
-1
#GR
nm
%R
1.0
0.0
2350.000000
-1.000000
2151
8
44.490699
7.445102
#DATA
2350.000000	8.429071
2349.000000	8.013117
2348.000000	8.093755
2347.000000	8.675262
2346.000000	8.391000
2345.000000	8.212203
2344.000000	7.987943
2343.000000	8.090393
2342.000000	8.196996
2341.000000	8.523226
2340.000000	8.295150
2339.000000	8.454669
2338.000000	8.951423
2337.000000	9.005166
2336.000000	9.009728
2335.000000	8.961663
2334.000000	9.136679
2333.000000	8.877644
2332.000000	8.861366
2331.000000	9.048842
2330.000000	9.303913
2329.000000	8.987543
2328.000000	8.962990
2327.000000	9.075612
2326.000000	8.896396
2325.000000	9.016465
2324.000000	9.131724
2323.000000	8.956004
2322.000000	8.528098
2321.000000	8.847530
2320.000000	8.732027
2319.000000	8.624891
2318.000000	8.817764
2317.000000	8.952032
2316.000000	8.800076
2315.000000	8.723260
2314.000000	8.612984
2313.000000	8.537456
2312.000000	8.354328
2311.000000	8.557050
2310.000000	8.598650
2309.000000	8.576729
2308.000000	8.175795
2307.000000	8.208186
2306.000000	8.167715
2305.000000	8.139813
2304.000000	8.329930
2303.000000	8.374104
2302.000000	8.328880
2301.000000	8.268942
2300.000000	8.214071
2299.000000	8.075132
2298.000000	7.962406
2297.000000	7.974693
2296.000000	7.876759
2295.000000	7.760788
2294.000000	8.008037
2293.000000	7.818555
2292.000000	7.911453
2291.000000	7.829254
2290.000000	8.012786
2289.000000	7.753662
2288.000000	7.847173
2287.000000	7.868139
2286.000000	7.648758
2285.000000	7.445102
2284.000000	7.624294
2283.000000	7.699095
2282.000000	7.687312
2281.000000	7.887139
2280.000000	7.692697
2279.000000	7.608792
2278.000000	7.549213
2277.000000	7.690583
2276.000000	7.808085
2275.000000	7.658061
2274.000000	7.622894
2273.000000	7.750987
2272.000000	7.727498
2271.000000	7.680325
2270.000000	7.834721
2269.000000	7.804729
2268.000000	7.784757
2267.000000	7.859705
2266.000000	7.959092
2265.000000	7.948570
2264.000000	8.135487
2263.000000	8.192676
2262.000000	8.045513
2261.000000	8.076985
2260.000000	8.276168
2259.000000	8.553279
2258.000000	8.544702
2257.000000	8.565832
2256.000000	8.578019
2255.000000	8.636449
2254.000000	8.778485
2253.000000	8.754392
2252.000000	8.788799
2251.000000	9.068221
2250.000000	9.265400
2249.000000	9.389755
2248.000000	9.514143
2247.000000	9.494770
2246.000000	9.545518
2245.000000	9.776181
2244.000000	9.793734
2243.000000	9.846341
2242.000000	10.053672
2241.000000	10.060568
2240.000000	10.171151
2239.000000	10.169183
2238.000000	10.246803
2237.000000	10.306224
2236.000000	10.237573
2235.000000	10.330389
2234.000000	10.358056
2233.000000	10.380146
2232.000000	10.374265
2231.000000	10.422077
2230.000000	10.669673
2229.000000	10.688649
2228.000000	10.703183
2227.000000	10.673714
2226.000000	10.607032
2225.000000	10.700413
2224.000000	10.735206
2223.000000	10.700322
2222.000000	10.747281
2221.000000	10.713132
2220.000000	10.621204
2219.000000	10.538170
2218.000000	10.452910
2217.000000	10.521641
2216.000000	10.663292
2215.000000	10.645544
2214.000000	10.625234
2213.000000	10.484092
2212.000000	10.435856
2211.000000	10.391085
2210.000000	10.475619
2209.000000	10.277373
2208.000000	10.152708
2207.000000	10.208304
2206.000000	10.274783
2205.000000	10.168196
2204.000000	10.137817
2203.000000	10.044164
2202.000000	10.059786
2201.000000	10.014000
2200.000000	9.939450
2199.000000	10.021629
2198.000000	10.068337
2197.000000	9.926423
2196.000000	9.763295
2195.000000	9.776298
2194.000000	9.546744
2193.000000	9.495671
2192.000000	9.679952
2191.000000	9.669407
2190.000000	9.565962
2189.000000	9.525883
2188.000000	9.452950
2187.000000	9.387440
2186.000000	9.481888
2185.000000	9.536948
2184.000000	9.471739
2183.000000	9.473055
2182.000000	9.251534
2181.000000	9.125129
2180.000000	9.294448
2179.000000	9.387011
2178.000000	9.271047
2177.000000	9.248542
2176.000000	9.468355
2175.000000	9.404010
2174.000000	9.376846
2173.000000	9.359812
2172.000000	9.264909
2171.000000	9.452811
2170.000000	9.549543
2169.000000	9.561014
2168.000000	9.580841
2167.000000	9.570894
2166.000000	9.596903
2165.000000	9.681556
2164.000000	9.668401
2163.000000	9.674582
2162.000000	9.811759
2161.000000	9.849620
2160.000000	10.004776
2159.000000	10.209161
2158.000000	10.250639
2157.000000	10.046824
2156.000000	10.216851
2155.000000	10.404016
2154.000000	10.408807
2153.000000	10.590824
2152.000000	10.671946
2151.000000	10.685394
2150.000000	10.780917
2149.000000	10.706709
2148.000000	10.785346
2147.000000	10.864740
2146.000000	11.079517
2145.000000	11.085335
2144.000000	11.162837
2143.000000	11.213896
2142.000000	11.396064
2141.000000	11.230410
2140.000000	11.645717
2139.000000	11.766220
2138.000000	11.748031
2137.000000	11.763423
2136.000000	11.592896
2135.000000	11.772445
2134.000000	12.063398
2133.000000	11.851790
2132.000000	12.017719
2131.000000	12.165558
2130.000000	12.425738
2129.000000	12.244652
2128.000000	12.344926
2127.000000	12.288031
2126.000000	12.284013
2125.000000	12.262048
2124.000000	12.226103
2123.000000	12.204745
2122.000000	12.405458
2121.000000	12.473128
2120.000000	12.507359
2119.000000	12.502377
2118.000000	12.650556
2117.000000	12.584878
2116.000000	12.874238
2115.000000	12.739214
2114.000000	12.786041
2113.000000	12.715650
2112.000000	12.717871
2111.000000	12.650425
2110.000000	12.737113
2109.000000	12.802067
2108.000000	12.863149
2107.000000	12.817317
2106.000000	12.707442
2105.000000	12.674659
2104.000000	12.767546
2103.000000	12.857680
2102.000000	12.896419
2101.000000	13.077262
2100.000000	13.071078
2099.000000	12.966205
2098.000000	12.979894
2097.000000	12.882659
2096.000000	12.859278
2095.000000	12.985604
2094.000000	12.943104
2093.000000	12.872260
2092.000000	12.904332
2091.000000	12.945654
2090.000000	13.034208
2089.000000	12.978658
2088.000000	12.970162
2087.000000	12.902215
2086.000000	12.891685
2085.000000	12.856492
2084.000000	12.798034
2083.000000	12.837175
2082.000000	12.755542
2081.000000	12.740245
2080.000000	12.695761
2079.000000	12.644736
2078.000000	12.490645
2077.000000	12.485701
2076.000000	12.395241
2075.000000	12.350244
2074.000000	12.317387
2073.000000	12.280062
2072.000000	12.192366
2071.000000	12.212914
2070.000000	12.123646
2069.000000	11.996130
2068.000000	11.848464
2067.000000	11.841523
2066.000000	11.729493
2065.000000	11.565638
2064.000000	11.539550
2063.000000	11.410628
2062.000000	11.211625
2061.000000	11.160752
2060.000000	11.122832
2059.000000	11.019384
2058.000000	10.930738
2057.000000	10.907664
2056.000000	10.864042
2055.000000	10.717669
2054.000000	10.612648
2053.000000	10.549857
2052.000000	10.508144
2051.000000	10.453544
2050.000000	10.289891
2049.000000	10.214147
2048.000000	10.167054
2047.000000	10.181596
2046.000000	10.113235
2045.000000	10.086599
2044.000000	10.096419
2043.000000	10.048096
2042.000000	10.038747
2041.000000	10.051314
2040.000000	10.127447
2039.000000	10.172413
2038.000000	10.123152
2037.000000	10.146134
2036.000000	10.202079
2035.000000	10.260737
2034.000000	10.364474
2033.000000	10.439742
2032.000000	10.513483
2031.000000	10.583012
2030.000000	10.642798
2029.000000	10.688439
2028.000000	10.733061
2027.000000	10.852039
2026.000000	10.973625
2025.000000	11.020396
2024.000000	11.066065
2023.000000	11.124703
2022.000000	11.214239
2021.000000	11.293893
2020.000000	11.347034
2019.000000	11.376495
2018.000000	11.375297
2017.000000	11.361525
2016.000000	11.387642
2015.000000	11.418307
2014.000000	11.490968
2013.000000	11.531290
2012.000000	11.478643
2011.000000	11.449515
2010.000000	11.441683
2009.000000	11.384250
2008.000000	11.342178
2007.000000	11.366323
2006.000000	11.336811
2005.000000	11.261261
2004.000000	11.232609
2003.000000	11.217064
2002.000000	11.155378
2001.000000	11.081727
2000.000000	11.066474
1999.000000	11.041570
1998.000000	10.985169
1997.000000	10.940934
1996.000000	10.896056
1995.000000	10.839156
1994.000000	10.763281
1993.000000	10.695968
1992.000000	10.675748
1991.000000	10.657785
1990.000000	10.599119
1989.000000	10.492568
1988.000000	10.428479
1987.000000	10.402969
1986.000000	10.355664
1985.000000	10.310882
1984.000000	10.236895
1983.000000	10.225644
1982.000000	10.184139
1981.000000	10.154484
1980.000000	10.123915
1979.000000	10.030953
1978.000000	9.974219
1977.000000	9.939706
1976.000000	9.894871
1975.000000	9.837280
1974.000000	9.816686
1973.000000	9.755053
1972.000000	9.695648
1971.000000	9.657714
1970.000000	9.638535
1969.000000	9.598448
1968.000000	9.583882
1967.000000	9.573427
1966.000000	9.504048
1965.000000	9.451639
1964.000000	9.393065
1963.000000	9.359170
1962.000000	9.359440
1961.000000	9.319431
1960.000000	9.325838
1959.000000	9.218092
1958.000000	9.187862
1957.000000	9.165836
1956.000000	9.136040
1955.000000	9.122133
1954.000000	9.062169
1953.000000	9.051463
1952.000000	9.019101
1951.000000	9.061420
1950.000000	9.074951
1949.000000	9.035153
1948.000000	9.020016
1947.000000	9.035276
1946.000000	8.973820
1945.000000	9.009806
1944.000000	9.028606
1943.000000	9.031191
1942.000000	9.045877
1941.000000	9.113502
1940.000000	9.121716
1939.000000	9.177817
1938.000000	9.126874
1937.000000	9.216763
1936.000000	9.294027
1935.000000	9.403740
1934.000000	9.335393
1933.000000	9.494265
1932.000000	9.573788
1931.000000	9.598285
1930.000000	9.681532
1929.000000	9.798363
1928.000000	9.863257
1927.000000	10.047016
1926.000000	10.136141
1925.000000	10.280983
1924.000000	10.470265
1923.000000	10.603076
1922.000000	10.732850
1921.000000	10.899957
1920.000000	11.063669
1919.000000	11.242041
1918.000000	11.448644
1917.000000	11.628858
1916.000000	11.734735
1915.000000	12.042420
1914.000000	12.280444
1913.000000	12.564856
1912.000000	12.783201
1911.000000	13.025393
1910.000000	13.252039
1909.000000	13.533153
1908.000000	13.920614
1907.000000	14.166855
1906.000000	14.475362
1905.000000	14.907100
1904.000000	15.170517
1903.000000	15.433878
1902.000000	15.847694
1901.000000	16.250089
1900.000000	16.637753
1899.000000	17.019922
1898.000000	17.387481
1897.000000	17.810287
1896.000000	18.176037
1895.000000	18.636386
1894.000000	19.007472
1893.000000	19.332364
1892.000000	19.744070
1891.000000	20.145415
1890.000000	20.529634
1889.000000	20.877160
1888.000000	21.279726
1887.000000	21.654733
1886.000000	22.015460
1885.000000	22.357420
1884.000000	22.726964
1883.000000	23.018379
1882.000000	23.320908
1881.000000	23.660226
1880.000000	23.977599
1879.000000	24.226829
1878.000000	24.448681
1877.000000	24.770192
1876.000000	24.960915
1875.000000	25.245537
1874.000000	25.456506
1873.000000	25.643808
1872.000000	25.898078
1871.000000	26.016685
1870.000000	26.189327
1869.000000	26.354509
1868.000000	26.518824
1867.000000	26.599390
1866.000000	26.655456
1865.000000	26.799778
1864.000000	26.858198
1863.000000	26.942225
1862.000000	26.974684
1861.000000	27.036042
1860.000000	27.156098
1859.000000	27.181772
1858.000000	27.217514
1857.000000	27.246077
1856.000000	27.265060
1855.000000	27.303487
1854.000000	27.386788
1853.000000	27.422135
1852.000000	27.388938
1851.000000	27.429642
1850.000000	27.408551
1849.000000	27.366208
1848.000000	27.358644
1847.000000	27.347191
1846.000000	27.307309
1845.000000	27.317161
1844.000000	27.325191
1843.000000	27.261240
1842.000000	27.239210
1841.000000	27.242089
1840.000000	27.200066
1839.000000	27.163930
1838.000000	27.134806
1837.000000	27.079453
1836.000000	27.021724
1835.000000	27.001875
1834.000000	26.919823
1833.000000	26.879181
1832.000000	26.833998
1831.000000	26.783642
1830.000000	26.765278
1829.000000	26.729690
1828.000000	26.687472
1827.000000	26.627729
1826.000000	26.587757
1825.000000	26.553136
1824.000000	26.505630
1823.000000	26.465881
1822.000000	26.436200
1821.000000	26.414859
1820.000000	26.361476
1819.000000	26.325391
1818.000000	26.286667
1817.000000	26.248532
1816.000000	26.209099
1815.000000	26.171835
1814.000000	26.138102
1813.000000	26.095332
1812.000000	26.056319
1811.000000	26.023674
1810.000000	26.002274
1809.000000	25.970328
1808.000000	25.911404
1807.000000	25.863159
1806.000000	25.826706
1805.000000	25.810683
1804.000000	25.770626
1803.000000	25.726654
1802.000000	25.707122
1801.000000	25.692721
1800.000000	25.672646
1799.000000	25.649189
1798.000000	25.628707
1797.000000	25.602725
1796.000000	25.585780
1795.000000	25.552816
1794.000000	25.531500
1793.000000	25.499614
1792.000000	25.477776
1791.000000	25.454704
1790.000000	25.428768
1789.000000	25.418263
1788.000000	25.385395
1787.000000	25.349914
1786.000000	25.324679
1785.000000	25.286272
1784.000000	25.259187
1783.000000	25.241432
1782.000000	25.190093
1781.000000	25.154828
1780.000000	25.130193
1779.000000	25.095703
1778.000000	25.044299
1777.000000	24.975797
1776.000000	24.922230
1775.000000	24.852817
1774.000000	24.789184
1773.000000	24.738094
1772.000000	24.669588
1771.000000	24.621875
1770.000000	24.552461
1769.000000	24.472618
1768.000000	24.404326
1767.000000	24.356449
1766.000000	24.318643
1765.000000	24.248605
1764.000000	24.213000
1763.000000	24.130130
1762.000000	24.045821
1761.000000	23.958397
1760.000000	23.905924
1759.000000	23.843484
1758.000000	23.795528
1757.000000	23.715898
1756.000000	23.659143
1755.000000	23.582914
1754.000000	23.509869
1753.000000	23.478902
1752.000000	23.414041
1751.000000	23.347065
1750.000000	23.307050
1749.000000	23.243130
1748.000000	23.155456
1747.000000	23.066621
1746.000000	23.023662
1745.000000	22.970341
1744.000000	22.889597
1743.000000	22.838457
1742.000000	22.746620
1741.000000	22.689209
1740.000000	22.642044
1739.000000	22.587184
1738.000000	22.559097
1737.000000	22.521688
1736.000000	22.509689
1735.000000	22.491196
1734.000000	22.462996
1733.000000	22.466158
1732.000000	22.454397
1731.000000	22.436556
1730.000000	22.468032
1729.000000	22.539333
1728.000000	22.577919
1727.000000	22.600849
1726.000000	22.672805
1725.000000	22.734024
1724.000000	22.828260
1723.000000	22.900965
1722.000000	22.998199
1721.000000	23.099233
1720.000000	23.185156
1719.000000	23.292581
1718.000000	23.380425
1717.000000	23.474508
1716.000000	23.561950
1715.000000	23.645654
1714.000000	23.743660
1713.000000	23.837666
1712.000000	23.876057
1711.000000	23.988481
1710.000000	24.027064
1709.000000	24.061491
1708.000000	24.139753
1707.000000	24.174293
1706.000000	24.206683
1705.000000	24.205793
1704.000000	24.257233
1703.000000	24.270475
1702.000000	24.268469
1701.000000	24.293701
1700.000000	24.310521
1699.000000	24.309230
1698.000000	24.350449
1697.000000	24.398107
1696.000000	24.467362
1695.000000	24.460829
1694.000000	24.508094
1693.000000	24.580767
1692.000000	24.619209
1691.000000	24.693425
1690.000000	24.828481
1689.000000	24.931237
1688.000000	25.035243
1687.000000	25.158736
1686.000000	25.317741
1685.000000	25.512077
1684.000000	25.660672
1683.000000	25.843835
1682.000000	26.015372
1681.000000	26.229884
1680.000000	26.427898
1679.000000	26.638289
1678.000000	26.834601
1677.000000	27.037045
1676.000000	27.257876
1675.000000	27.458728
1674.000000	27.688829
1673.000000	27.889502
1672.000000	28.088682
1671.000000	28.278768
1670.000000	28.488875
1669.000000	28.702509
1668.000000	28.840646
1667.000000	29.021469
1666.000000	29.146944
1665.000000	29.257827
1664.000000	29.364553
1663.000000	29.483470
1662.000000	29.577406
1661.000000	29.684424
1660.000000	29.766169
1659.000000	29.852078
1658.000000	29.926549
1657.000000	29.973620
1656.000000	30.036676
1655.000000	30.079303
1654.000000	30.112078
1653.000000	30.147658
1652.000000	30.166848
1651.000000	30.168990
1650.000000	30.168039
1649.000000	30.178728
1648.000000	30.151763
1647.000000	30.130831
1646.000000	30.127471
1645.000000	30.121563
1644.000000	30.115159
1643.000000	30.089255
1642.000000	30.060049
1641.000000	30.028820
1640.000000	30.012763
1639.000000	29.967881
1638.000000	29.915095
1637.000000	29.891606
1636.000000	29.840922
1635.000000	29.810015
1634.000000	29.764411
1633.000000	29.727711
1632.000000	29.680849
1631.000000	29.625654
1630.000000	29.572286
1629.000000	29.516073
1628.000000	29.469249
1627.000000	29.410119
1626.000000	29.366749
1625.000000	29.308215
1624.000000	29.264950
1623.000000	29.220789
1622.000000	29.174856
1621.000000	29.116193
1620.000000	29.062223
1619.000000	28.994463
1618.000000	28.934500
1617.000000	28.856102
1616.000000	28.774672
1615.000000	28.707659
1614.000000	28.646572
1613.000000	28.593729
1612.000000	28.539556
1611.000000	28.482919
1610.000000	28.400838
1609.000000	28.335686
1608.000000	28.263650
1607.000000	28.189193
1606.000000	28.117709
1605.000000	28.044798
1604.000000	27.970878
1603.000000	27.894703
1602.000000	27.830101
1601.000000	27.757343
1600.000000	27.685204
1599.000000	27.616029
1598.000000	27.547590
1597.000000	27.485318
1596.000000	27.413104
1595.000000	27.348642
1594.000000	27.294509
1593.000000	27.241032
1592.000000	27.183865
1591.000000	27.117473
1590.000000	27.059107
1589.000000	27.000524
1588.000000	26.945369
1587.000000	26.890594
1586.000000	26.843804
1585.000000	26.781810
1584.000000	26.733134
1583.000000	26.687087
1582.000000	26.631882
1581.000000	26.596171
1580.000000	26.547085
1579.000000	26.491994
1578.000000	26.449340
1577.000000	26.397304
1576.000000	26.350910
1575.000000	26.294577
1574.000000	26.246468
1573.000000	26.198741
1572.000000	26.149219
1571.000000	26.093769
1570.000000	26.044112
1569.000000	25.993989
1568.000000	25.945782
1567.000000	25.907151
1566.000000	25.869189
1565.000000	25.841375
1564.000000	25.829936
1563.000000	25.812224
1562.000000	25.777181
1561.000000	25.749314
1560.000000	25.710209
1559.000000	25.685880
1558.000000	25.651100
1557.000000	25.635848
1556.000000	25.621353
1555.000000	25.606147
1554.000000	25.563872
1553.000000	25.532529
1552.000000	25.508371
1551.000000	25.483183
1550.000000	25.451278
1549.000000	25.413005
1548.000000	25.365628
1547.000000	25.308266
1546.000000	25.251648
1545.000000	25.186367
1544.000000	25.094975
1543.000000	25.035586
1542.000000	24.976190
1541.000000	24.906584
1540.000000	24.807086
1539.000000	24.703946
1538.000000	24.608937
1537.000000	24.531660
1536.000000	24.427946
1535.000000	24.339598
1534.000000	24.245991
1533.000000	24.171375
1532.000000	24.066939
1531.000000	23.965488
1530.000000	23.890843
1529.000000	23.805578
1528.000000	23.723298
1527.000000	23.646807
1526.000000	23.547095
1525.000000	23.488070
1524.000000	23.416581
1523.000000	23.362590
1522.000000	23.302125
1521.000000	23.246399
1520.000000	23.188871
1519.000000	23.150729
1518.000000	23.122481
1517.000000	23.063969
1516.000000	23.013195
1515.000000	22.984399
1514.000000	22.931151
1513.000000	22.921177
1512.000000	22.880419
1511.000000	22.854152
1510.000000	22.831119
1509.000000	22.816495
1508.000000	22.805752
1507.000000	22.789245
1506.000000	22.769821
1505.000000	22.747069
1504.000000	22.741500
1503.000000	22.733225
1502.000000	22.733427
1501.000000	22.737490
1500.000000	22.729378
1499.000000	22.739885
1498.000000	22.745402
1497.000000	22.760952
1496.000000	22.781429
1495.000000	22.815944
1494.000000	22.823156
1493.000000	22.861856
1492.000000	22.908822
1491.000000	22.948763
1490.000000	22.999159
1489.000000	23.071490
1488.000000	23.139544
1487.000000	23.185865
1486.000000	23.244174
1485.000000	23.308072
1484.000000	23.378418
1483.000000	23.469132
1482.000000	23.511120
1481.000000	23.643947
1480.000000	23.705448
1479.000000	23.776300
1478.000000	23.854927
1477.000000	23.907272
1476.000000	23.992249
1475.000000	24.073541
1474.000000	24.154579
1473.000000	24.235057
1472.000000	24.322394
1471.000000	24.409205
1470.000000	24.473421
1469.000000	24.533021
1468.000000	24.617620
1467.000000	24.680965
1466.000000	24.749614
1465.000000	24.798219
1464.000000	24.869306
1463.000000	24.936276
1462.000000	24.995138
1461.000000	25.045024
