PE UV       SUBTECH     SPECTRUM    ASCII       PEDS        4.00        
   -1
RTVeauAl 12.Sample.asc
18/03/02
14:12:51.00
18/03/02
14:12:51.00
Administrator

200.000000
1
Lambda 750
750N8071901
PerkinElmer UV WinLab 6.0.4.0738 / 1.61.00 Lambda 900

0
0
3350/servo 860.8/2
0
0
UV/VIS
1
1
1
CommonBeamDepol,150mm sphere / downward view
0
0
0
0
Program
Program
3350/servo 860.8/2
3350/0.2 860.8/0.2
3350/0.2 860.8/0.2
0
1
 
 
 
0
 
860.8
319.2
860.8
Front
100
on
 
 
0
0
0
 
0
 
 
 
0
 
 
0
0
0
0
0
 
 
 
 
0
0


0
0
#HDR
-1
-1
#GR
nm
%R
1.0
0.0
2350.000000
-1.000000
2151
8
63.262423
15.810692
#DATA
2350.000000	30.435019
2349.000000	29.925110
2348.000000	30.162521
2347.000000	30.619721
2346.000000	30.255866
2345.000000	30.281629
2344.000000	30.322671
2343.000000	30.093807
2342.000000	29.982955
2341.000000	30.474201
2340.000000	30.311799
2339.000000	30.771748
2338.000000	30.830070
2337.000000	30.544462
2336.000000	31.091677
2335.000000	30.725638
2334.000000	31.021406
2333.000000	30.884951
2332.000000	31.018971
2331.000000	31.058514
2330.000000	30.542527
2329.000000	30.940883
2328.000000	30.797012
2327.000000	30.700765
2326.000000	30.715525
2325.000000	30.591539
2324.000000	30.546741
2323.000000	30.774526
2322.000000	30.609828
2321.000000	30.796477
2320.000000	30.209073
2319.000000	30.159874
2318.000000	30.577679
2317.000000	30.452550
2316.000000	30.374548
2315.000000	30.055270
2314.000000	29.990138
2313.000000	30.011898
2312.000000	30.030050
2311.000000	29.902256
2310.000000	29.942318
2309.000000	29.982295
2308.000000	29.602542
2307.000000	29.725134
2306.000000	29.733918
2305.000000	29.548930
2304.000000	29.339910
2303.000000	29.237057
2302.000000	29.303625
2301.000000	29.226980
2300.000000	29.422229
2299.000000	29.087112
2298.000000	28.956994
2297.000000	28.884598
2296.000000	28.874353
2295.000000	28.871752
2294.000000	28.715242
2293.000000	28.724500
2292.000000	28.555774
2291.000000	28.621596
2290.000000	28.633209
2289.000000	28.508292
2288.000000	28.589944
2287.000000	28.520998
2286.000000	28.329785
2285.000000	28.134863
2284.000000	28.224885
2283.000000	28.257801
2282.000000	28.374517
2281.000000	28.386914
2280.000000	28.258675
2279.000000	28.285995
2278.000000	28.157044
2277.000000	28.127819
2276.000000	28.260631
2275.000000	28.272079
2274.000000	28.148890
2273.000000	28.262235
2272.000000	28.434123
2271.000000	28.355435
2270.000000	28.337590
2269.000000	28.426330
2268.000000	28.634190
2267.000000	28.595150
2266.000000	28.708532
2265.000000	28.826633
2264.000000	28.862967
2263.000000	28.938702
2262.000000	29.040054
2261.000000	29.153430
2260.000000	29.248277
2259.000000	29.396586
2258.000000	29.481569
2257.000000	29.611197
2256.000000	29.871033
2255.000000	30.055579
2254.000000	30.217889
2253.000000	30.362111
2252.000000	30.629569
2251.000000	30.901941
2250.000000	30.947605
2249.000000	31.151570
2248.000000	31.440064
2247.000000	31.568081
2246.000000	31.650985
2245.000000	31.811828
2244.000000	32.137844
2243.000000	32.339786
2242.000000	32.386933
2241.000000	32.496916
2240.000000	32.601084
2239.000000	32.696782
2238.000000	32.748312
2237.000000	32.875606
2236.000000	32.962912
2235.000000	33.047431
2234.000000	33.163689
2233.000000	33.196764
2232.000000	33.336803
2231.000000	33.443334
2230.000000	33.448424
2229.000000	33.494240
2228.000000	33.498252
2227.000000	33.460131
2226.000000	33.484524
2225.000000	33.444564
2224.000000	33.386169
2223.000000	33.427655
2222.000000	33.459142
2221.000000	33.469290
2220.000000	33.478723
2219.000000	33.543442
2218.000000	33.376142
2217.000000	33.218699
2216.000000	33.164840
2215.000000	33.135588
2214.000000	33.225676
2213.000000	33.147950
2212.000000	33.149628
2211.000000	33.047603
2210.000000	32.982905
2209.000000	32.879662
2208.000000	32.809673
2207.000000	32.731069
2206.000000	32.789475
2205.000000	32.716550
2204.000000	32.756380
2203.000000	32.664111
2202.000000	32.611121
2201.000000	32.560616
2200.000000	32.344295
2199.000000	32.333170
2198.000000	32.377409
2197.000000	32.242917
2196.000000	32.165876
2195.000000	32.131630
2194.000000	32.030192
2193.000000	31.892718
2192.000000	31.973614
2191.000000	31.937900
2190.000000	31.891049
2189.000000	31.805249
2188.000000	31.537230
2187.000000	31.533824
2186.000000	31.656249
2185.000000	31.564691
2184.000000	31.674531
2183.000000	31.601632
2182.000000	31.579282
2181.000000	31.399462
2180.000000	31.361349
2179.000000	31.419540
2178.000000	31.447386
2177.000000	31.529853
2176.000000	31.470334
2175.000000	31.502851
2174.000000	31.464628
2173.000000	31.596890
2172.000000	31.622661
2171.000000	31.514818
2170.000000	31.671982
2169.000000	31.705470
2168.000000	31.803663
2167.000000	31.842760
2166.000000	31.836661
2165.000000	31.788710
2164.000000	32.133084
2163.000000	32.099357
2162.000000	32.204014
2161.000000	32.486347
2160.000000	32.641221
2159.000000	32.660250
2158.000000	32.845230
2157.000000	32.956569
2156.000000	33.008622
2155.000000	33.112559
2154.000000	33.177677
2153.000000	33.532941
2152.000000	33.559964
2151.000000	33.734768
2150.000000	33.764168
2149.000000	33.900155
2148.000000	33.929778
2147.000000	34.346686
2146.000000	34.282487
2145.000000	34.371571
2144.000000	34.570780
2143.000000	34.812030
2142.000000	35.015413
2141.000000	34.956998
2140.000000	35.089591
2139.000000	35.356840
2138.000000	35.508256
2137.000000	35.560447
2136.000000	35.529713
2135.000000	35.673293
2134.000000	35.934976
2133.000000	35.744298
2132.000000	35.977715
2131.000000	36.218118
2130.000000	36.219979
2129.000000	36.202850
2128.000000	36.282402
2127.000000	36.406343
2126.000000	36.397670
2125.000000	36.395402
2124.000000	36.605247
2123.000000	36.701349
2122.000000	36.621314
2121.000000	36.761307
2120.000000	36.743067
2119.000000	36.876761
2118.000000	36.837589
2117.000000	36.902094
2116.000000	36.879315
2115.000000	36.986380
2114.000000	36.964826
2113.000000	37.025544
2112.000000	36.980053
2111.000000	36.966994
2110.000000	37.056304
2109.000000	37.111342
2108.000000	37.231845
2107.000000	37.217282
2106.000000	37.174362
2105.000000	37.218343
2104.000000	37.340299
2103.000000	37.346141
2102.000000	37.338344
2101.000000	37.333738
2100.000000	37.452206
2099.000000	37.421750
2098.000000	37.284116
2097.000000	37.424519
2096.000000	37.409784
2095.000000	37.381714
2094.000000	37.423062
2093.000000	37.379528
2092.000000	37.383185
2091.000000	37.321082
2090.000000	37.330533
2089.000000	37.351757
2088.000000	37.371661
2087.000000	37.336108
2086.000000	37.348311
2085.000000	37.280960
2084.000000	37.177711
2083.000000	37.174832
2082.000000	37.102350
2081.000000	37.007518
2080.000000	36.910179
2079.000000	36.900873
2078.000000	36.835124
2077.000000	36.797719
2076.000000	36.663853
2075.000000	36.606430
2074.000000	36.602984
2073.000000	36.541575
2072.000000	36.379944
2071.000000	36.360472
2070.000000	36.242930
2069.000000	36.090434
2068.000000	35.912085
2067.000000	35.738706
2066.000000	35.633342
2065.000000	35.493735
2064.000000	35.315800
2063.000000	35.171923
2062.000000	35.097229
2061.000000	34.964650
2060.000000	34.819138
2059.000000	34.640158
2058.000000	34.479630
2057.000000	34.408697
2056.000000	34.346681
2055.000000	34.208303
2054.000000	34.021638
2053.000000	33.860113
2052.000000	33.786718
2051.000000	33.631228
2050.000000	33.493447
2049.000000	33.496492
2048.000000	33.459973
2047.000000	33.346336
2046.000000	33.250851
2045.000000	33.196868
2044.000000	33.186618
2043.000000	33.172123
2042.000000	33.176320
2041.000000	33.175680
2040.000000	33.190515
2039.000000	33.202611
2038.000000	33.254290
2037.000000	33.289853
2036.000000	33.292967
2035.000000	33.434283
2034.000000	33.561276
2033.000000	33.656500
2032.000000	33.820521
2031.000000	33.939553
2030.000000	34.013959
2029.000000	34.119585
2028.000000	34.248043
2027.000000	34.385683
2026.000000	34.573773
2025.000000	34.731993
2024.000000	34.796333
2023.000000	34.866730
2022.000000	34.963906
2021.000000	35.065872
2020.000000	35.191431
2019.000000	35.268321
2018.000000	35.305786
2017.000000	35.342240
2016.000000	35.378737
2015.000000	35.374079
2014.000000	35.385347
2013.000000	35.417851
2012.000000	35.430138
2011.000000	35.422561
2010.000000	35.389088
2009.000000	35.326882
2008.000000	35.294606
2007.000000	35.279399
2006.000000	35.206739
2005.000000	35.170897
2004.000000	35.118776
2003.000000	35.052541
2002.000000	35.001691
2001.000000	34.906142
2000.000000	34.824360
1999.000000	34.766608
1998.000000	34.699732
1997.000000	34.628725
1996.000000	34.556913
1995.000000	34.429440
1994.000000	34.336720
1993.000000	34.254993
1992.000000	34.219265
1991.000000	34.104453
1990.000000	34.035822
1989.000000	33.952905
1988.000000	33.834362
1987.000000	33.790437
1986.000000	33.677077
1985.000000	33.615746
1984.000000	33.550354
1983.000000	33.434453
1982.000000	33.384777
1981.000000	33.331239
1980.000000	33.234915
1979.000000	33.112825
1978.000000	33.054708
1977.000000	32.933520
1976.000000	32.865997
1975.000000	32.798657
1974.000000	32.711020
1973.000000	32.669928
1972.000000	32.603680
1971.000000	32.506234
1970.000000	32.399029
1969.000000	32.313516
1968.000000	32.250844
1967.000000	32.206889
1966.000000	32.092154
1965.000000	32.041772
1964.000000	31.990086
1963.000000	31.940973
1962.000000	31.838889
1961.000000	31.775530
1960.000000	31.671516
1959.000000	31.600341
1958.000000	31.545122
1957.000000	31.515258
1956.000000	31.438740
1955.000000	31.375613
1954.000000	31.285399
1953.000000	31.244126
1952.000000	31.203209
1951.000000	31.148862
1950.000000	31.087082
1949.000000	31.040155
1948.000000	31.005365
1947.000000	30.996841
1946.000000	31.033076
1945.000000	30.977092
1944.000000	30.963673
1943.000000	30.941347
1942.000000	30.996274
1941.000000	31.051422
1940.000000	31.064887
1939.000000	31.132602
1938.000000	31.152472
1937.000000	31.231437
1936.000000	31.326246
1935.000000	31.312288
1934.000000	31.468919
1933.000000	31.548814
1932.000000	31.718756
1931.000000	31.850522
1930.000000	31.997439
1929.000000	32.166766
1928.000000	32.347284
1927.000000	32.490436
1926.000000	32.616857
1925.000000	32.839658
1924.000000	33.067739
1923.000000	33.268928
1922.000000	33.563541
1921.000000	33.840862
1920.000000	34.028849
1919.000000	34.287810
1918.000000	34.467482
1917.000000	34.900360
1916.000000	35.139813
1915.000000	35.480737
1914.000000	35.855571
1913.000000	36.166261
1912.000000	36.434020
1911.000000	36.763845
1910.000000	37.130360
1909.000000	37.525476
1908.000000	37.872914
1907.000000	38.262290
1906.000000	38.649442
1905.000000	39.072205
1904.000000	39.433333
1903.000000	39.906189
1902.000000	40.331398
1901.000000	40.794625
1900.000000	41.221756
1899.000000	41.667021
1898.000000	42.114039
1897.000000	42.568763
1896.000000	42.923266
1895.000000	43.380267
1894.000000	43.797483
1893.000000	44.226092
1892.000000	44.597653
1891.000000	44.977274
1890.000000	45.456810
1889.000000	45.791829
1888.000000	46.155341
1887.000000	46.559716
1886.000000	46.909821
1885.000000	47.240503
1884.000000	47.563426
1883.000000	47.878919
1882.000000	48.114999
1881.000000	48.484012
1880.000000	48.753697
1879.000000	48.984803
1878.000000	49.254214
1877.000000	49.521395
1876.000000	49.700348
1875.000000	49.893315
1874.000000	50.101929
1873.000000	50.299727
1872.000000	50.459850
1871.000000	50.588206
1870.000000	50.732300
1869.000000	50.852189
1868.000000	51.009280
1867.000000	51.079965
1866.000000	51.172979
1865.000000	51.242167
1864.000000	51.337780
1863.000000	51.395020
1862.000000	51.454229
1861.000000	51.514291
1860.000000	51.521357
1859.000000	51.568920
1858.000000	51.592715
1857.000000	51.606157
1856.000000	51.665366
1855.000000	51.683521
1854.000000	51.737678
1853.000000	51.734184
1852.000000	51.735023
1851.000000	51.741771
1850.000000	51.729710
1849.000000	51.729507
1848.000000	51.735693
1847.000000	51.752625
1846.000000	51.760735
1845.000000	51.746796
1844.000000	51.695854
1843.000000	51.605989
1842.000000	51.613695
1841.000000	51.604526
1840.000000	51.562178
1839.000000	51.544576
1838.000000	51.547637
1837.000000	51.493551
1836.000000	51.439170
1835.000000	51.432854
1834.000000	51.409746
1833.000000	51.358223
1832.000000	51.324687
1831.000000	51.264980
1830.000000	51.255378
1829.000000	51.218545
1828.000000	51.151279
1827.000000	51.114443
1826.000000	51.094167
1825.000000	51.074316
1824.000000	51.060697
1823.000000	51.043209
1822.000000	50.997524
1821.000000	50.940325
1820.000000	50.903775
1819.000000	50.885524
1818.000000	50.869614
1817.000000	50.854560
1816.000000	50.816262
1815.000000	50.802211
1814.000000	50.757566
1813.000000	50.695958
1812.000000	50.692876
1811.000000	50.675473
1810.000000	50.637488
1809.000000	50.617352
1808.000000	50.603344
1807.000000	50.562461
1806.000000	50.526045
1805.000000	50.482922
1804.000000	50.443908
1803.000000	50.440323
1802.000000	50.408324
1801.000000	50.376916
1800.000000	50.354552
1799.000000	50.323407
1798.000000	50.313655
1797.000000	50.288357
1796.000000	50.250183
1795.000000	50.250628
1794.000000	50.249908
1793.000000	50.221095
1792.000000	50.185408
1791.000000	50.150373
1790.000000	50.129056
1789.000000	50.118458
1788.000000	50.092722
1787.000000	50.053102
1786.000000	50.023729
1785.000000	50.007150
1784.000000	49.960135
1783.000000	49.939751
1782.000000	49.907200
1781.000000	49.869625
1780.000000	49.814158
1779.000000	49.790922
1778.000000	49.736807
1777.000000	49.667916
1776.000000	49.616129
1775.000000	49.574564
1774.000000	49.510242
1773.000000	49.456559
1772.000000	49.409349
1771.000000	49.340246
1770.000000	49.276884
1769.000000	49.236512
1768.000000	49.181403
1767.000000	49.126981
1766.000000	49.060649
1765.000000	49.000831
1764.000000	48.967760
1763.000000	48.928854
1762.000000	48.876621
1761.000000	48.785655
1760.000000	48.734205
1759.000000	48.661798
1758.000000	48.616655
1757.000000	48.571411
1756.000000	48.539503
1755.000000	48.470101
1754.000000	48.391120
1753.000000	48.321105
1752.000000	48.281936
1751.000000	48.238075
1750.000000	48.161078
1749.000000	48.089814
1748.000000	48.026994
1747.000000	47.948725
1746.000000	47.909118
1745.000000	47.842004
1744.000000	47.793076
1743.000000	47.717454
1742.000000	47.661429
1741.000000	47.614450
1740.000000	47.570492
1739.000000	47.508439
1738.000000	47.483545
1737.000000	47.407616
1736.000000	47.393788
1735.000000	47.378820
1734.000000	47.392546
1733.000000	47.366777
1732.000000	47.343097
1731.000000	47.378703
1730.000000	47.371196
1729.000000	47.400383
1728.000000	47.462956
1727.000000	47.482481
1726.000000	47.564742
1725.000000	47.627802
1724.000000	47.667965
1723.000000	47.761215
1722.000000	47.843834
1721.000000	47.946667
1720.000000	48.055715
1719.000000	48.145677
1718.000000	48.224657
1717.000000	48.299992
1716.000000	48.380123
1715.000000	48.465030
1714.000000	48.555366
1713.000000	48.657759
1712.000000	48.702390
1711.000000	48.799411
1710.000000	48.860717
1709.000000	48.907819
1708.000000	48.935929
1707.000000	49.012214
1706.000000	49.050135
1705.000000	49.055791
1704.000000	49.109988
1703.000000	49.130767
1702.000000	49.136358
1701.000000	49.188990
1700.000000	49.177606
1699.000000	49.188996
1698.000000	49.247111
1697.000000	49.244828
1696.000000	49.298047
1695.000000	49.292610
1694.000000	49.355305
1693.000000	49.381009
1692.000000	49.432637
1691.000000	49.518276
1690.000000	49.603513
1689.000000	49.677368
1688.000000	49.778530
1687.000000	49.889657
1686.000000	50.019312
1685.000000	50.130201
1684.000000	50.301574
1683.000000	50.435190
1682.000000	50.592175
1681.000000	50.763257
1680.000000	50.926510
1679.000000	51.081759
1678.000000	51.245694
1677.000000	51.427471
1676.000000	51.605497
1675.000000	51.788944
1674.000000	51.965960
1673.000000	52.146014
1672.000000	52.307359
1671.000000	52.462383
1670.000000	52.624974
1669.000000	52.811204
1668.000000	52.920843
1667.000000	53.074155
1666.000000	53.174684
1665.000000	53.282052
1664.000000	53.354847
1663.000000	53.445734
1662.000000	53.530858
1661.000000	53.591174
1660.000000	53.680397
1659.000000	53.756104
1658.000000	53.833284
1657.000000	53.874569
1656.000000	53.902040
1655.000000	53.929174
1654.000000	53.967289
1653.000000	53.991928
1652.000000	54.032956
1651.000000	54.017442
1650.000000	54.018511
1649.000000	54.028578
1648.000000	54.005068
1647.000000	54.037013
1646.000000	54.019951
1645.000000	53.999552
1644.000000	53.988403
1643.000000	53.975794
1642.000000	53.982859
1641.000000	53.959136
1640.000000	53.943494
1639.000000	53.915944
1638.000000	53.875732
1637.000000	53.860687
1636.000000	53.818551
1635.000000	53.792740
1634.000000	53.749748
1633.000000	53.714760
1632.000000	53.690859
1631.000000	53.654849
1630.000000	53.609506
1629.000000	53.584284
1628.000000	53.550905
1627.000000	53.515690
1626.000000	53.475670
1625.000000	53.432567
1624.000000	53.388450
1623.000000	53.341187
1622.000000	53.305200
1621.000000	53.253424
1620.000000	53.208847
1619.000000	53.161469
1618.000000	53.108984
1617.000000	53.073753
1616.000000	53.024493
1615.000000	52.980158
1614.000000	52.938066
1613.000000	52.875191
1612.000000	52.812201
1611.000000	52.766056
1610.000000	52.712739
1609.000000	52.668283
1608.000000	52.609199
1607.000000	52.548506
1606.000000	52.496245
1605.000000	52.430256
1604.000000	52.364987
1603.000000	52.306227
1602.000000	52.255120
1601.000000	52.209812
1600.000000	52.162360
1599.000000	52.093170
1598.000000	52.022562
1597.000000	51.987148
1596.000000	51.947576
1595.000000	51.892662
1594.000000	51.840838
1593.000000	51.790028
1592.000000	51.742069
1591.000000	51.705120
1590.000000	51.649783
1589.000000	51.574593
1588.000000	51.537235
1587.000000	51.505103
1586.000000	51.454482
1585.000000	51.411364
1584.000000	51.376904
1583.000000	51.335125
1582.000000	51.287767
1581.000000	51.232988
1580.000000	51.189448
1579.000000	51.162397
1578.000000	51.139908
1577.000000	51.094817
1576.000000	51.046851
1575.000000	51.006671
1574.000000	50.969543
1573.000000	50.922401
1572.000000	50.887373
1571.000000	50.848894
1570.000000	50.815831
1569.000000	50.787286
1568.000000	50.752899
1567.000000	50.710548
1566.000000	50.672321
1565.000000	50.648393
1564.000000	50.635462
1563.000000	50.612625
1562.000000	50.596601
1561.000000	50.571077
1560.000000	50.541219
1559.000000	50.523907
1558.000000	50.511738
1557.000000	50.502931
1556.000000	50.471341
1555.000000	50.449188
1554.000000	50.435058
1553.000000	50.425129
1552.000000	50.407353
1551.000000	50.375625
1550.000000	50.346489
1549.000000	50.316665
1548.000000	50.284376
1547.000000	50.222418
1546.000000	50.174041
1545.000000	50.119011
1544.000000	50.057651
1543.000000	49.997671
1542.000000	49.938290
1541.000000	49.862623
1540.000000	49.784106
1539.000000	49.718443
1538.000000	49.618637
1537.000000	49.524089
1536.000000	49.445441
1535.000000	49.361327
1534.000000	49.284614
1533.000000	49.213490
1532.000000	49.113739
1531.000000	49.012824
1530.000000	48.944659
1529.000000	48.850819
1528.000000	48.791405
1527.000000	48.719553
1526.000000	48.653137
1525.000000	48.586191
1524.000000	48.509495
1523.000000	48.452626
1522.000000	48.405116
1521.000000	48.347980
1520.000000	48.308785
1519.000000	48.247626
1518.000000	48.210168
1517.000000	48.170070
1516.000000	48.105081
1515.000000	48.068748
1514.000000	48.050122
1513.000000	48.002175
1512.000000	47.978073
1511.000000	47.970813
1510.000000	47.981391
1509.000000	48.028967
1508.000000	48.023041
1507.000000	48.011936
1506.000000	47.976405
1505.000000	47.949395
1504.000000	47.950433
1503.000000	47.921222
1502.000000	47.901309
1501.000000	47.890741
1500.000000	47.899448
1499.000000	47.885928
1498.000000	47.908105
1497.000000	47.907103
1496.000000	47.936124
1495.000000	47.945802
1494.000000	47.977780
1493.000000	48.018315
1492.000000	48.065601
1491.000000	48.104883
1490.000000	48.171270
1489.000000	48.178895
1488.000000	48.234857
1487.000000	48.309684
1486.000000	48.388625
1485.000000	48.474544
1484.000000	48.550448
1483.000000	48.635199
1482.000000	48.701449
1481.000000	48.805496
1480.000000	48.890744
1479.000000	48.959705
1478.000000	49.037497
1477.000000	49.103272
1476.000000	49.212079
1475.000000	49.275685
1474.000000	49.374626
1473.000000	49.446042
1472.000000	49.510114
1471.000000	49.621991
1470.000000	49.739156
