PE UV       SUBTECH     SPECTRUM    ASCII       PEDS        4.00        
   -1
RTVeauAl 32.Sample.asc
18/03/02
14:34:46.00
18/03/02
14:34:46.00
Administrator

200.000000
1
Lambda 750
750N8071901
PerkinElmer UV WinLab 6.0.4.0738 / 1.61.00 Lambda 900

0
0
3350/servo 860.8/2
0
0
UV/VIS
1
1
1
CommonBeamDepol,150mm sphere / downward view
0
0
0
0
Program
Program
3350/servo 860.8/2
3350/0.2 860.8/0.2
3350/0.2 860.8/0.2
0
1
 
 
 
0
 
860.8
319.2
860.8
Front
100
on
 
 
0
0
0
 
0
 
 
 
0
 
 
0
0
0
0
0
 
 
 
 
0
0


0
0
#HDR
-1
-1
#GR
nm
%R
1.0
0.0
2350.000000
-1.000000
2151
8
60.645411
14.098006
#DATA
2350.000000	28.224268
2349.000000	28.056118
2348.000000	27.529771
2347.000000	28.441192
2346.000000	28.369800
2345.000000	28.344560
2344.000000	28.032525
2343.000000	27.941243
2342.000000	28.210671
2341.000000	28.341526
2340.000000	28.231152
2339.000000	28.437421
2338.000000	28.458759
2337.000000	28.332021
2336.000000	28.582271
2335.000000	28.725481
2334.000000	28.943681
2333.000000	28.778683
2332.000000	29.172711
2331.000000	28.691857
2330.000000	28.733029
2329.000000	28.554286
2328.000000	28.453137
2327.000000	28.331311
2326.000000	28.681533
2325.000000	28.650633
2324.000000	28.384583
2323.000000	28.587155
2322.000000	28.464698
2321.000000	28.351264
2320.000000	28.285405
2319.000000	28.323899
2318.000000	28.315559
2317.000000	28.261573
2316.000000	28.125723
2315.000000	28.072225
2314.000000	28.048322
2313.000000	28.044915
2312.000000	27.845314
2311.000000	27.720545
2310.000000	27.709925
2309.000000	27.771406
2308.000000	27.638165
2307.000000	27.723580
2306.000000	27.488923
2305.000000	27.407041
2304.000000	27.437380
2303.000000	27.400209
2302.000000	27.442415
2301.000000	27.381140
2300.000000	27.233742
2299.000000	27.145306
2298.000000	26.992947
2297.000000	26.698071
2296.000000	26.651174
2295.000000	26.726529
2294.000000	26.727605
2293.000000	26.503185
2292.000000	26.453059
2291.000000	26.331876
2290.000000	26.335323
2289.000000	26.274548
2288.000000	26.442084
2287.000000	26.416368
2286.000000	26.161623
2285.000000	26.196131
2284.000000	26.210857
2283.000000	26.061093
2282.000000	25.973963
2281.000000	26.147087
2280.000000	26.076887
2279.000000	26.045677
2278.000000	26.102873
2277.000000	25.944080
2276.000000	25.940819
2275.000000	25.986427
2274.000000	26.054759
2273.000000	26.215911
2272.000000	26.238814
2271.000000	26.173564
2270.000000	26.201233
2269.000000	26.232614
2268.000000	26.390580
2267.000000	26.475871
2266.000000	26.527093
2265.000000	26.736147
2264.000000	26.832403
2263.000000	26.885686
2262.000000	26.968688
2261.000000	27.093235
2260.000000	27.434764
2259.000000	27.611150
2258.000000	27.739872
2257.000000	27.854872
2256.000000	27.930412
2255.000000	28.001555
2254.000000	28.092359
2253.000000	28.293051
2252.000000	28.478316
2251.000000	28.698914
2250.000000	28.959705
2249.000000	29.207022
2248.000000	29.390256
2247.000000	29.507810
2246.000000	29.627637
2245.000000	29.819900
2244.000000	30.012298
2243.000000	30.174397
2242.000000	30.306448
2241.000000	30.344916
2240.000000	30.433438
2239.000000	30.555662
2238.000000	30.722912
2237.000000	30.792222
2236.000000	30.874057
2235.000000	30.996112
2234.000000	31.027361
2233.000000	31.106690
2232.000000	31.233478
2231.000000	31.238231
2230.000000	31.263999
2229.000000	31.357068
2228.000000	31.444075
2227.000000	31.492661
2226.000000	31.399853
2225.000000	31.278098
2224.000000	31.261511
2223.000000	31.310976
2222.000000	31.362953
2221.000000	31.386189
2220.000000	31.369977
2219.000000	31.299279
2218.000000	31.308999
2217.000000	31.218119
2216.000000	31.156447
2215.000000	31.205500
2214.000000	31.176762
2213.000000	31.075072
2212.000000	31.103858
2211.000000	30.975997
2210.000000	30.876594
2209.000000	30.817446
2208.000000	30.749156
2207.000000	30.750513
2206.000000	30.754125
2205.000000	30.636548
2204.000000	30.574333
2203.000000	30.611678
2202.000000	30.457305
2201.000000	30.382043
2200.000000	30.218949
2199.000000	30.229347
2198.000000	30.202293
2197.000000	30.165771
2196.000000	30.084850
2195.000000	29.948002
2194.000000	29.760019
2193.000000	29.726095
2192.000000	29.849269
2191.000000	29.781581
2190.000000	29.670994
2189.000000	29.505353
2188.000000	29.482700
2187.000000	29.438683
2186.000000	29.512317
2185.000000	29.360919
2184.000000	29.282719
2183.000000	29.380206
2182.000000	29.338653
2181.000000	29.203218
2180.000000	29.131170
2179.000000	29.124016
2178.000000	29.129619
2177.000000	29.210746
2176.000000	29.246074
2175.000000	29.245366
2174.000000	29.286008
2173.000000	29.285911
2172.000000	29.267387
2171.000000	29.338119
2170.000000	29.484360
2169.000000	29.479880
2168.000000	29.479797
2167.000000	29.682338
2166.000000	29.840069
2165.000000	29.821835
2164.000000	29.874209
2163.000000	30.033647
2162.000000	30.159727
2161.000000	30.245753
2160.000000	30.350426
2159.000000	30.410984
2158.000000	30.607339
2157.000000	30.543410
2156.000000	30.701648
2155.000000	30.999925
2154.000000	30.937931
2153.000000	31.229300
2152.000000	31.365180
2151.000000	31.369998
2150.000000	31.624962
2149.000000	31.835879
2148.000000	31.769744
2147.000000	32.022558
2146.000000	32.254928
2145.000000	32.282491
2144.000000	32.392086
2143.000000	32.395778
2142.000000	32.611571
2141.000000	32.872948
2140.000000	33.098081
2139.000000	33.179266
2138.000000	33.281529
2137.000000	33.341805
2136.000000	33.408569
2135.000000	33.550267
2134.000000	33.714352
2133.000000	33.641645
2132.000000	33.847357
2131.000000	33.990914
2130.000000	33.983171
2129.000000	34.185149
2128.000000	34.271106
2127.000000	34.402399
2126.000000	34.400214
2125.000000	34.287785
2124.000000	34.355903
2123.000000	34.584471
2122.000000	34.400093
2121.000000	34.486287
2120.000000	34.419360
2119.000000	34.545727
2118.000000	34.813500
2117.000000	34.936571
2116.000000	34.803611
2115.000000	34.888667
2114.000000	34.796343
2113.000000	34.940979
2112.000000	34.927034
2111.000000	34.955375
2110.000000	34.894992
2109.000000	35.093125
2108.000000	35.034745
2107.000000	35.116161
2106.000000	35.066103
2105.000000	35.112814
2104.000000	35.165343
2103.000000	35.131633
2102.000000	35.136852
2101.000000	35.240560
2100.000000	35.268780
2099.000000	35.271478
2098.000000	35.178899
2097.000000	35.241015
2096.000000	35.221715
2095.000000	35.165671
2094.000000	35.235694
2093.000000	35.189750
2092.000000	35.250039
2091.000000	35.219441
2090.000000	35.199571
2089.000000	35.269976
2088.000000	35.226695
2087.000000	35.197417
2086.000000	35.222996
2085.000000	35.199802
2084.000000	35.042139
2083.000000	34.987128
2082.000000	34.902689
2081.000000	34.847012
2080.000000	34.810974
2079.000000	34.834249
2078.000000	34.749442
2077.000000	34.597532
2076.000000	34.526414
2075.000000	34.433981
2074.000000	34.301897
2073.000000	34.306230
2072.000000	34.252623
2071.000000	34.102856
2070.000000	34.029480
2069.000000	33.875666
2068.000000	33.788132
2067.000000	33.592307
2066.000000	33.413026
2065.000000	33.275150
2064.000000	33.127587
2063.000000	33.007289
2062.000000	32.889131
2061.000000	32.776087
2060.000000	32.587354
2059.000000	32.513948
2058.000000	32.364640
2057.000000	32.251815
2056.000000	32.152273
2055.000000	31.998736
2054.000000	31.863411
2053.000000	31.710202
2052.000000	31.552058
2051.000000	31.424338
2050.000000	31.322226
2049.000000	31.289708
2048.000000	31.185097
2047.000000	31.132038
2046.000000	31.116570
2045.000000	31.071299
2044.000000	31.007810
2043.000000	30.991294
2042.000000	31.045228
2041.000000	31.081159
2040.000000	31.052289
2039.000000	31.106430
2038.000000	31.155916
2037.000000	31.172605
2036.000000	31.198313
2035.000000	31.281505
2034.000000	31.435212
2033.000000	31.538785
2032.000000	31.669432
2031.000000	31.785651
2030.000000	31.886469
2029.000000	32.040084
2028.000000	32.184692
2027.000000	32.304772
2026.000000	32.467622
2025.000000	32.568356
2024.000000	32.656954
2023.000000	32.773996
2022.000000	32.852930
2021.000000	32.955248
2020.000000	33.082193
2019.000000	33.134985
2018.000000	33.169800
2017.000000	33.250204
2016.000000	33.272193
2015.000000	33.238349
2014.000000	33.217112
2013.000000	33.265635
2012.000000	33.290016
2011.000000	33.284035
2010.000000	33.292787
2009.000000	33.232522
2008.000000	33.182181
2007.000000	33.151413
2006.000000	33.089758
2005.000000	33.054689
2004.000000	33.001052
2003.000000	32.940059
2002.000000	32.854634
2001.000000	32.761624
2000.000000	32.716009
1999.000000	32.661560
1998.000000	32.579106
1997.000000	32.518688
1996.000000	32.466987
1995.000000	32.377101
1994.000000	32.211514
1993.000000	32.129294
1992.000000	32.066265
1991.000000	31.953476
1990.000000	31.928355
1989.000000	31.806129
1988.000000	31.733546
1987.000000	31.665655
1986.000000	31.566368
1985.000000	31.541906
1984.000000	31.467848
1983.000000	31.322889
1982.000000	31.227694
1981.000000	31.186433
1980.000000	31.094144
1979.000000	30.986337
1978.000000	30.916809
1977.000000	30.862322
1976.000000	30.763542
1975.000000	30.702821
1974.000000	30.597350
1973.000000	30.508785
1972.000000	30.484054
1971.000000	30.373978
1970.000000	30.261810
1969.000000	30.221444
1968.000000	30.145684
1967.000000	30.042389
1966.000000	29.995472
1965.000000	29.929671
1964.000000	29.815074
1963.000000	29.782861
1962.000000	29.701054
1961.000000	29.583122
1960.000000	29.494067
1959.000000	29.432969
1958.000000	29.363963
1957.000000	29.319157
1956.000000	29.260403
1955.000000	29.174203
1954.000000	29.118725
1953.000000	29.050468
1952.000000	29.016855
1951.000000	28.987976
1950.000000	28.914619
1949.000000	28.904936
1948.000000	28.838364
1947.000000	28.809948
1946.000000	28.760898
1945.000000	28.771963
1944.000000	28.785636
1943.000000	28.770509
1942.000000	28.810554
1941.000000	28.777202
1940.000000	28.851375
1939.000000	28.958139
1938.000000	28.985095
1937.000000	29.024502
1936.000000	29.105149
1935.000000	29.140309
1934.000000	29.285823
1933.000000	29.431219
1932.000000	29.556479
1931.000000	29.646985
1930.000000	29.802170
1929.000000	29.971749
1928.000000	30.117929
1927.000000	30.312656
1926.000000	30.535563
1925.000000	30.763554
1924.000000	31.006046
1923.000000	31.176179
1922.000000	31.368685
1921.000000	31.720424
1920.000000	31.874183
1919.000000	32.163656
1918.000000	32.376999
1917.000000	32.684799
1916.000000	32.973554
1915.000000	33.318774
1914.000000	33.611930
1913.000000	33.981779
1912.000000	34.314989
1911.000000	34.601635
1910.000000	34.946751
1909.000000	35.373932
1908.000000	35.701974
1907.000000	36.155717
1906.000000	36.480305
1905.000000	36.938153
1904.000000	37.300262
1903.000000	37.704852
1902.000000	38.172273
1901.000000	38.658520
1900.000000	39.080313
1899.000000	39.478297
1898.000000	39.991799
1897.000000	40.385871
1896.000000	40.811949
1895.000000	41.250752
1894.000000	41.632071
1893.000000	42.015678
1892.000000	42.494772
1891.000000	42.890042
1890.000000	43.311863
1889.000000	43.636349
1888.000000	44.002231
1887.000000	44.366552
1886.000000	44.713154
1885.000000	44.995311
1884.000000	45.372482
1883.000000	45.697152
1882.000000	45.956653
1881.000000	46.245466
1880.000000	46.492542
1879.000000	46.745843
1878.000000	46.984013
1877.000000	47.263842
1876.000000	47.476934
1875.000000	47.715071
1874.000000	47.872636
1873.000000	48.061477
1872.000000	48.255116
1871.000000	48.372145
1870.000000	48.535399
1869.000000	48.743816
1868.000000	48.855920
1867.000000	48.898116
1866.000000	48.944707
1865.000000	49.051309
1864.000000	49.104609
1863.000000	49.159491
1862.000000	49.254288
1861.000000	49.310583
1860.000000	49.361607
1859.000000	49.379165
1858.000000	49.416227
1857.000000	49.436718
1856.000000	49.469605
1855.000000	49.505905
1854.000000	49.531069
1853.000000	49.516050
1852.000000	49.505925
1851.000000	49.538617
1850.000000	49.511218
1849.000000	49.511846
1848.000000	49.517571
1847.000000	49.555702
1846.000000	49.524799
1845.000000	49.502706
1844.000000	49.496641
1843.000000	49.428846
1842.000000	49.433916
1841.000000	49.423389
1840.000000	49.367752
1839.000000	49.367820
1838.000000	49.349709
1837.000000	49.296296
1836.000000	49.251652
1835.000000	49.245321
1834.000000	49.220832
1833.000000	49.179179
1832.000000	49.130214
1831.000000	49.077872
1830.000000	49.068166
1829.000000	49.035110
1828.000000	48.997740
1827.000000	48.956379
1826.000000	48.914840
1825.000000	48.889852
1824.000000	48.872879
1823.000000	48.857028
1822.000000	48.819249
1821.000000	48.770781
1820.000000	48.735302
1819.000000	48.703989
1818.000000	48.675473
1817.000000	48.647074
1816.000000	48.612005
1815.000000	48.592318
1814.000000	48.554245
1813.000000	48.516637
1812.000000	48.481124
1811.000000	48.445581
1810.000000	48.422772
1809.000000	48.409542
1808.000000	48.396490
1807.000000	48.354387
1806.000000	48.313990
1805.000000	48.275104
1804.000000	48.243319
1803.000000	48.226745
1802.000000	48.204295
1801.000000	48.168759
1800.000000	48.137514
1799.000000	48.098892
1798.000000	48.074016
1797.000000	48.073363
1796.000000	48.065199
1795.000000	48.049888
1794.000000	48.033494
1793.000000	47.997367
1792.000000	47.968931
1791.000000	47.951422
1790.000000	47.928357
1789.000000	47.895140
1788.000000	47.862321
1787.000000	47.817333
1786.000000	47.780953
1785.000000	47.764535
1784.000000	47.734194
1783.000000	47.708296
1782.000000	47.690457
1781.000000	47.652183
1780.000000	47.593288
1779.000000	47.568497
1778.000000	47.522034
1777.000000	47.450776
1776.000000	47.412614
1775.000000	47.374144
1774.000000	47.313889
1773.000000	47.235229
1772.000000	47.183683
1771.000000	47.139275
1770.000000	47.080606
1769.000000	47.007922
1768.000000	46.951053
1767.000000	46.911702
1766.000000	46.841415
1765.000000	46.795103
1764.000000	46.764091
1763.000000	46.706434
1762.000000	46.639501
1761.000000	46.577431
1760.000000	46.519116
1759.000000	46.459943
1758.000000	46.420547
1757.000000	46.339492
1756.000000	46.284945
1755.000000	46.240929
1754.000000	46.185983
1753.000000	46.116551
1752.000000	46.056395
1751.000000	45.982544
1750.000000	45.928779
1749.000000	45.905514
1748.000000	45.844119
1747.000000	45.760766
1746.000000	45.727244
1745.000000	45.660220
1744.000000	45.588283
1743.000000	45.534497
1742.000000	45.466274
1741.000000	45.394934
1740.000000	45.341693
1739.000000	45.275083
1738.000000	45.240128
1737.000000	45.198735
1736.000000	45.173198
1735.000000	45.148952
1734.000000	45.158151
1733.000000	45.154572
1732.000000	45.147784
1731.000000	45.179953
1730.000000	45.167894
1729.000000	45.173401
1728.000000	45.250023
1727.000000	45.283708
1726.000000	45.364414
1725.000000	45.419766
1724.000000	45.480229
1723.000000	45.588232
1722.000000	45.656846
1721.000000	45.754667
1720.000000	45.854975
1719.000000	45.945006
1718.000000	46.040181
1717.000000	46.109262
1716.000000	46.197711
1715.000000	46.288927
1714.000000	46.385550
1713.000000	46.486180
1712.000000	46.532542
1711.000000	46.598763
1710.000000	46.662550
1709.000000	46.665484
1708.000000	46.737544
1707.000000	46.796945
1706.000000	46.847992
1705.000000	46.869025
1704.000000	46.915500
1703.000000	46.915354
1702.000000	46.867916
1701.000000	46.943185
1700.000000	46.968576
1699.000000	46.985128
1698.000000	47.041416
1697.000000	47.053308
1696.000000	47.088822
1695.000000	47.091232
1694.000000	47.124400
1693.000000	47.209269
1692.000000	47.242244
1691.000000	47.317617
1690.000000	47.399388
1689.000000	47.467962
1688.000000	47.573050
1687.000000	47.689376
1686.000000	47.791548
1685.000000	47.964276
1684.000000	48.086347
1683.000000	48.225180
1682.000000	48.391436
1681.000000	48.565085
1680.000000	48.714403
1679.000000	48.899588
1678.000000	49.056175
1677.000000	49.255396
1676.000000	49.400301
1675.000000	49.588040
1674.000000	49.755212
1673.000000	49.947633
1672.000000	50.071916
1671.000000	50.244566
1670.000000	50.435341
1669.000000	50.568037
1668.000000	50.694030
1667.000000	50.847258
1666.000000	50.937813
1665.000000	51.060104
1664.000000	51.129596
1663.000000	51.241198
1662.000000	51.311369
1661.000000	51.394353
1660.000000	51.464166
1659.000000	51.528884
1658.000000	51.594166
1657.000000	51.622754
1656.000000	51.681855
1655.000000	51.721113
1654.000000	51.755882
1653.000000	51.770858
1652.000000	51.799889
1651.000000	51.797079
1650.000000	51.792050
1649.000000	51.812906
1648.000000	51.804532
1647.000000	51.815881
1646.000000	51.806083
1645.000000	51.797557
1644.000000	51.776597
1643.000000	51.758374
1642.000000	51.747944
1641.000000	51.725993
1640.000000	51.699158
1639.000000	51.682980
1638.000000	51.661404
1637.000000	51.645115
1636.000000	51.601194
1635.000000	51.573445
1634.000000	51.547524
1633.000000	51.511005
1632.000000	51.472160
1631.000000	51.443286
1630.000000	51.394896
1629.000000	51.364021
1628.000000	51.332400
1627.000000	51.293671
1626.000000	51.262102
1625.000000	51.207198
1624.000000	51.173681
1623.000000	51.143509
1622.000000	51.108250
1621.000000	51.046185
1620.000000	51.003901
1619.000000	50.957923
1618.000000	50.901984
1617.000000	50.853989
1616.000000	50.801091
1615.000000	50.747268
1614.000000	50.701493
1613.000000	50.653158
1612.000000	50.593780
1611.000000	50.545270
1610.000000	50.501826
1609.000000	50.446090
1608.000000	50.383798
1607.000000	50.330837
1606.000000	50.267637
1605.000000	50.208282
1604.000000	50.154924
1603.000000	50.098659
1602.000000	50.047001
1601.000000	49.991288
1600.000000	49.929090
1599.000000	49.873935
1598.000000	49.813433
1597.000000	49.757462
1596.000000	49.702052
1595.000000	49.655378
1594.000000	49.608718
1593.000000	49.558228
1592.000000	49.509826
1591.000000	49.456649
1590.000000	49.401515
1589.000000	49.342493
1588.000000	49.307712
1587.000000	49.273587
1586.000000	49.214340
1585.000000	49.170015
1584.000000	49.130105
1583.000000	49.093493
1582.000000	49.056772
1581.000000	49.017336
1580.000000	48.986440
1579.000000	48.946870
1578.000000	48.902528
1577.000000	48.855154
1576.000000	48.819571
1575.000000	48.783072
1574.000000	48.725592
1573.000000	48.690510
1572.000000	48.662738
1571.000000	48.618832
1570.000000	48.590525
1569.000000	48.562406
1568.000000	48.523472
1567.000000	48.486699
1566.000000	48.464127
1565.000000	48.437801
1564.000000	48.401119
1563.000000	48.374229
1562.000000	48.360980
1561.000000	48.354418
1560.000000	48.337760
1559.000000	48.313544
1558.000000	48.304890
1557.000000	48.284627
1556.000000	48.266215
1555.000000	48.258884
1554.000000	48.235468
1553.000000	48.211198
1552.000000	48.197644
1551.000000	48.172091
1550.000000	48.129974
1549.000000	48.102843
1548.000000	48.084387
1547.000000	48.020608
1546.000000	47.965269
1545.000000	47.918702
1544.000000	47.859625
1543.000000	47.788143
1542.000000	47.720579
1541.000000	47.646868
1540.000000	47.585176
1539.000000	47.508105
1538.000000	47.419433
1537.000000	47.328239
1536.000000	47.244917
1535.000000	47.156539
1534.000000	47.078435
1533.000000	46.999642
1532.000000	46.902591
1531.000000	46.804053
1530.000000	46.730618
1529.000000	46.668165
1528.000000	46.588446
1527.000000	46.522867
1526.000000	46.459396
1525.000000	46.393716
1524.000000	46.308107
1523.000000	46.248904
1522.000000	46.206075
1521.000000	46.153184
1520.000000	46.110510
1519.000000	46.059043
1518.000000	46.009119
1517.000000	45.980959
1516.000000	45.923535
1515.000000	45.867735
1514.000000	45.843661
1513.000000	45.798163
1512.000000	45.782451
1511.000000	45.767278
1510.000000	45.752138
1509.000000	45.779874
1508.000000	45.803949
1507.000000	45.818525
1506.000000	45.798559
1505.000000	45.785855
1504.000000	45.715232
1503.000000	45.681883
1502.000000	45.689107
1501.000000	45.659064
1500.000000	45.667055
1499.000000	45.680468
1498.000000	45.689322
1497.000000	45.691595
1496.000000	45.721924
1495.000000	45.740496
1494.000000	45.773884
1493.000000	45.819232
1492.000000	45.871059
1491.000000	45.920230
1490.000000	45.960129
1489.000000	46.019244
1488.000000	46.084046
1487.000000	46.139322
1486.000000	46.200952
1485.000000	46.280281
1484.000000	46.359542
1483.000000	46.454048
1482.000000	46.516835
1481.000000	46.600281
1480.000000	46.697333
1479.000000	46.774868
1478.000000	46.839544
1477.000000	46.923695
1476.000000	47.005436
1475.000000	47.082754
1474.000000	47.167547
1473.000000	47.236789
1472.000000	47.301329
1471.000000	47.371244
1470.000000	47.473209
