PE UV       SUBTECH     SPECTRUM    ASCII       PEDS        4.00        
   -1
RTVeauAl 42.Sample.asc
18/03/02
14:46:12.00
18/03/02
14:46:12.00
Administrator

200.000000
1
Lambda 750
750N8071901
PerkinElmer UV WinLab 6.0.4.0738 / 1.61.00 Lambda 900

0
0
3350/servo 860.8/2
0
0
UV/VIS
1
1
1
CommonBeamDepol,150mm sphere / downward view
0
0
0
0
Program
Program
3350/servo 860.8/2
3350/0.2 860.8/0.2
3350/0.2 860.8/0.2
0
1
 
 
 
0
 
860.8
319.2
860.8
Front
100
on
 
 
0
0
0
 
0
 
 
 
0
 
 
0
0
0
0
0
 
 
 
 
0
0


0
0
#HDR
-1
-1
#GR
nm
%R
1.0
0.0
2350.000000
-1.000000
2151
8
62.456016
14.257158
#DATA
2350.000000	29.150811
2349.000000	28.940033
2348.000000	28.555150
2347.000000	29.814573
2346.000000	29.403886
2345.000000	29.089307
2344.000000	29.188104
2343.000000	29.280594
2342.000000	29.431616
2341.000000	29.374025
2340.000000	29.150383
2339.000000	29.381739
2338.000000	29.555437
2337.000000	29.497304
2336.000000	29.358546
2335.000000	29.722585
2334.000000	29.800148
2333.000000	29.721427
2332.000000	30.032257
2331.000000	29.694875
2330.000000	29.760395
2329.000000	29.785078
2328.000000	29.623010
2327.000000	29.535534
2326.000000	29.530579
2325.000000	29.286632
2324.000000	29.556762
2323.000000	29.678314
2322.000000	29.302982
2321.000000	29.262482
2320.000000	29.362966
2319.000000	29.266496
2318.000000	29.325733
2317.000000	29.261332
2316.000000	29.166208
2315.000000	29.079409
2314.000000	29.063486
2313.000000	29.067799
2312.000000	28.937228
2311.000000	29.225504
2310.000000	28.871040
2309.000000	28.867487
2308.000000	28.688544
2307.000000	28.589616
2306.000000	28.592455
2305.000000	28.369010
2304.000000	28.192108
2303.000000	28.260128
2302.000000	28.518618
2301.000000	28.477379
2300.000000	28.121765
2299.000000	28.060502
2298.000000	27.981791
2297.000000	27.776879
2296.000000	27.716357
2295.000000	27.595556
2294.000000	27.490581
2293.000000	27.351046
2292.000000	27.301861
2291.000000	27.325124
2290.000000	27.307230
2289.000000	27.320741
2288.000000	27.360270
2287.000000	27.171913
2286.000000	27.171542
2285.000000	26.953462
2284.000000	26.914292
2283.000000	27.080426
2282.000000	27.003911
2281.000000	27.109974
2280.000000	27.165252
2279.000000	27.027729
2278.000000	27.046368
2277.000000	27.084783
2276.000000	26.953423
2275.000000	27.093028
2274.000000	27.166799
2273.000000	27.171172
2272.000000	27.283824
2271.000000	27.383189
2270.000000	27.344476
2269.000000	27.407104
2268.000000	27.427221
2267.000000	27.514223
2266.000000	27.629942
2265.000000	27.677341
2264.000000	27.788325
2263.000000	27.877344
2262.000000	27.888835
2261.000000	28.128890
2260.000000	28.363789
2259.000000	28.536513
2258.000000	28.662499
2257.000000	28.771632
2256.000000	28.909616
2255.000000	29.014751
2254.000000	29.122530
2253.000000	29.285052
2252.000000	29.539987
2251.000000	29.695767
2250.000000	29.886907
2249.000000	30.137458
2248.000000	30.264151
2247.000000	30.412702
2246.000000	30.740155
2245.000000	30.972627
2244.000000	31.182996
2243.000000	31.305487
2242.000000	31.436489
2241.000000	31.538518
2240.000000	31.543989
2239.000000	31.664581
2238.000000	31.870376
2237.000000	32.030422
2236.000000	32.166623
2235.000000	32.236628
2234.000000	32.199554
2233.000000	32.178401
2232.000000	32.284736
2231.000000	32.400870
2230.000000	32.387668
2229.000000	32.402139
2228.000000	32.633490
2227.000000	32.729975
2226.000000	32.646569
2225.000000	32.535609
2224.000000	32.526143
2223.000000	32.538337
2222.000000	32.603658
2221.000000	32.574449
2220.000000	32.446295
2219.000000	32.438196
2218.000000	32.465838
2217.000000	32.422690
2216.000000	32.407426
2215.000000	32.412676
2214.000000	32.368057
2213.000000	32.378821
2212.000000	32.297115
2211.000000	32.028166
2210.000000	32.017095
2209.000000	31.975752
2208.000000	31.808692
2207.000000	31.726959
2206.000000	31.736812
2205.000000	31.683565
2204.000000	31.758494
2203.000000	31.716920
2202.000000	31.580350
2201.000000	31.547326
2200.000000	31.442825
2199.000000	31.366093
2198.000000	31.380586
2197.000000	31.337028
2196.000000	31.321517
2195.000000	31.141055
2194.000000	30.977981
2193.000000	30.914429
2192.000000	30.858684
2191.000000	30.853277
2190.000000	30.862029
2189.000000	30.718209
2188.000000	30.515161
2187.000000	30.670633
2186.000000	30.619940
2185.000000	30.623822
2184.000000	30.507845
2183.000000	30.483801
2182.000000	30.511461
2181.000000	30.397348
2180.000000	30.296776
2179.000000	30.466373
2178.000000	30.296459
2177.000000	30.347332
2176.000000	30.276590
2175.000000	30.380304
2174.000000	30.528224
2173.000000	30.443416
2172.000000	30.380097
2171.000000	30.541164
2170.000000	30.471874
2169.000000	30.587187
2168.000000	30.825506
2167.000000	30.857968
2166.000000	30.941036
2165.000000	30.914946
2164.000000	30.814568
2163.000000	31.086839
2162.000000	31.333728
2161.000000	31.428974
2160.000000	31.535192
2159.000000	31.599410
2158.000000	31.758953
2157.000000	31.862838
2156.000000	32.041120
2155.000000	32.048595
2154.000000	32.233986
2153.000000	32.478761
2152.000000	32.536509
2151.000000	32.735371
2150.000000	32.854845
2149.000000	32.893142
2148.000000	33.128238
2147.000000	33.259154
2146.000000	33.248172
2145.000000	33.327936
2144.000000	33.584297
2143.000000	33.837874
2142.000000	33.818715
2141.000000	34.036429
2140.000000	34.174698
2139.000000	34.400082
2138.000000	34.525746
2137.000000	34.564338
2136.000000	34.700076
2135.000000	34.838880
2134.000000	34.940778
2133.000000	34.715979
2132.000000	34.965345
2131.000000	35.263429
2130.000000	35.358693
2129.000000	35.260740
2128.000000	35.392350
2127.000000	35.565346
2126.000000	35.586481
2125.000000	35.464903
2124.000000	35.648979
2123.000000	35.658471
2122.000000	35.689643
2121.000000	35.743972
2120.000000	35.785460
2119.000000	35.866875
2118.000000	36.051734
2117.000000	36.063479
2116.000000	36.062628
2115.000000	36.123540
2114.000000	36.138278
2113.000000	36.145757
2112.000000	36.226946
2111.000000	36.273443
2110.000000	36.129423
2109.000000	36.330724
2108.000000	36.404073
2107.000000	36.395314
2106.000000	36.407319
2105.000000	36.328267
2104.000000	36.404663
2103.000000	36.450133
2102.000000	36.374839
2101.000000	36.476659
2100.000000	36.521377
2099.000000	36.334769
2098.000000	36.392718
2097.000000	36.495637
2096.000000	36.425839
2095.000000	36.462336
2094.000000	36.509093
2093.000000	36.481610
2092.000000	36.523246
2091.000000	36.424701
2090.000000	36.409777
2089.000000	36.498272
2088.000000	36.479337
2087.000000	36.444239
2086.000000	36.441959
2085.000000	36.379542
2084.000000	36.308540
2083.000000	36.331918
2082.000000	36.293398
2081.000000	36.202446
2080.000000	36.138560
2079.000000	36.104643
2078.000000	36.019229
2077.000000	35.972522
2076.000000	35.786163
2075.000000	35.670596
2074.000000	35.640334
2073.000000	35.592519
2072.000000	35.436945
2071.000000	35.337200
2070.000000	35.308777
2069.000000	35.134969
2068.000000	34.973470
2067.000000	34.749365
2066.000000	34.643529
2065.000000	34.525174
2064.000000	34.396302
2063.000000	34.216302
2062.000000	34.098959
2061.000000	33.916372
2060.000000	33.749694
2059.000000	33.679644
2058.000000	33.565708
2057.000000	33.401748
2056.000000	33.218832
2055.000000	33.128153
2054.000000	32.997715
2053.000000	32.880355
2052.000000	32.767941
2051.000000	32.597771
2050.000000	32.503894
2049.000000	32.458148
2048.000000	32.347486
2047.000000	32.312754
2046.000000	32.277425
2045.000000	32.223832
2044.000000	32.217832
2043.000000	32.181728
2042.000000	32.165233
2041.000000	32.204905
2040.000000	32.227101
2039.000000	32.231084
2038.000000	32.263526
2037.000000	32.305846
2036.000000	32.376587
2035.000000	32.463609
2034.000000	32.551853
2033.000000	32.652329
2032.000000	32.782239
2031.000000	32.904103
2030.000000	32.997519
2029.000000	33.167411
2028.000000	33.311203
2027.000000	33.457734
2026.000000	33.634593
2025.000000	33.738581
2024.000000	33.832080
2023.000000	33.973241
2022.000000	34.077225
2021.000000	34.143719
2020.000000	34.222442
2019.000000	34.292903
2018.000000	34.368890
2017.000000	34.433512
2016.000000	34.437864
2015.000000	34.420124
2014.000000	34.477281
2013.000000	34.516467
2012.000000	34.492760
2011.000000	34.500790
2010.000000	34.482664
2009.000000	34.450048
2008.000000	34.409958
2007.000000	34.352353
2006.000000	34.318127
2005.000000	34.272397
2004.000000	34.168205
2003.000000	34.116844
2002.000000	34.063702
2001.000000	34.016475
2000.000000	33.966291
1999.000000	33.873385
1998.000000	33.796967
1997.000000	33.715338
1996.000000	33.662750
1995.000000	33.567615
1994.000000	33.448121
1993.000000	33.361359
1992.000000	33.271775
1991.000000	33.161868
1990.000000	33.107673
1989.000000	33.061354
1988.000000	32.977945
1987.000000	32.888157
1986.000000	32.751057
1985.000000	32.659930
1984.000000	32.621091
1983.000000	32.549805
1982.000000	32.425049
1981.000000	32.350745
1980.000000	32.305873
1979.000000	32.180953
1978.000000	32.115423
1977.000000	32.040072
1976.000000	31.911671
1975.000000	31.837031
1974.000000	31.746696
1973.000000	31.691385
1972.000000	31.630483
1971.000000	31.528304
1970.000000	31.424802
1969.000000	31.395873
1968.000000	31.343827
1967.000000	31.269479
1966.000000	31.196774
1965.000000	31.080142
1964.000000	30.994096
1963.000000	30.920747
1962.000000	30.872941
1961.000000	30.803660
1960.000000	30.742710
1959.000000	30.647435
1958.000000	30.567008
1957.000000	30.545260
1956.000000	30.392336
1955.000000	30.350354
1954.000000	30.330288
1953.000000	30.224875
1952.000000	30.182579
1951.000000	30.151678
1950.000000	30.133396
1949.000000	30.068819
1948.000000	30.055144
1947.000000	29.969823
1946.000000	29.926704
1945.000000	29.991658
1944.000000	29.934054
1943.000000	29.938441
1942.000000	29.986358
1941.000000	29.974224
1940.000000	30.066650
1939.000000	30.097722
1938.000000	30.125926
1937.000000	30.191368
1936.000000	30.272487
1935.000000	30.390612
1934.000000	30.455414
1933.000000	30.523088
1932.000000	30.663208
1931.000000	30.834252
1930.000000	30.973998
1929.000000	31.133763
1928.000000	31.311887
1927.000000	31.481892
1926.000000	31.616797
1925.000000	31.802971
1924.000000	32.063674
1923.000000	32.317191
1922.000000	32.520532
1921.000000	32.830186
1920.000000	33.073959
1919.000000	33.340651
1918.000000	33.600460
1917.000000	33.915329
1916.000000	34.098888
1915.000000	34.488577
1914.000000	34.779812
1913.000000	35.144934
1912.000000	35.529955
1911.000000	35.841922
1910.000000	36.174879
1909.000000	36.545993
1908.000000	36.896168
1907.000000	37.282938
1906.000000	37.668843
1905.000000	38.135060
1904.000000	38.586275
1903.000000	38.991646
1902.000000	39.463740
1901.000000	39.847381
1900.000000	40.286140
1899.000000	40.728259
1898.000000	41.219564
1897.000000	41.646762
1896.000000	42.057884
1895.000000	42.496825
1894.000000	42.919717
1893.000000	43.350692
1892.000000	43.811704
1891.000000	44.159598
1890.000000	44.617382
1889.000000	44.999580
1888.000000	45.356704
1887.000000	45.744933
1886.000000	46.105614
1885.000000	46.431032
1884.000000	46.795174
1883.000000	47.162317
1882.000000	47.396561
1881.000000	47.676732
1880.000000	47.984346
1879.000000	48.246836
1878.000000	48.480133
1877.000000	48.735042
1876.000000	48.925629
1875.000000	49.161577
1874.000000	49.393936
1873.000000	49.565770
1872.000000	49.720897
1871.000000	49.878743
1870.000000	50.044027
1869.000000	50.146839
1868.000000	50.238173
1867.000000	50.304031
1866.000000	50.448978
1865.000000	50.511914
1864.000000	50.590257
1863.000000	50.660320
1862.000000	50.739041
1861.000000	50.759066
1860.000000	50.825499
1859.000000	50.850021
1858.000000	50.885617
1857.000000	50.919869
1856.000000	50.966697
1855.000000	51.003401
1854.000000	51.005141
1853.000000	51.021931
1852.000000	51.013318
1851.000000	51.050177
1850.000000	51.052803
1849.000000	51.040877
1848.000000	51.014980
1847.000000	51.024968
1846.000000	51.027386
1845.000000	51.001158
1844.000000	50.982560
1843.000000	50.927109
1842.000000	50.926434
1841.000000	50.914028
1840.000000	50.896181
1839.000000	50.859546
1838.000000	50.844276
1837.000000	50.805418
1836.000000	50.757346
1835.000000	50.703507
1834.000000	50.658697
1833.000000	50.647421
1832.000000	50.619975
1831.000000	50.553884
1830.000000	50.525228
1829.000000	50.489856
1828.000000	50.465266
1827.000000	50.445474
1826.000000	50.421161
1825.000000	50.369510
1824.000000	50.376112
1823.000000	50.344158
1822.000000	50.264511
1821.000000	50.250098
1820.000000	50.210893
1819.000000	50.157704
1818.000000	50.157716
1817.000000	50.153624
1816.000000	50.120213
1815.000000	50.089934
1814.000000	50.072822
1813.000000	50.038757
1812.000000	49.993415
1811.000000	49.962204
1810.000000	49.932253
1809.000000	49.904929
1808.000000	49.876107
1807.000000	49.818123
1806.000000	49.787037
1805.000000	49.757018
1804.000000	49.718858
1803.000000	49.728588
1802.000000	49.722696
1801.000000	49.681188
1800.000000	49.640379
1799.000000	49.615054
1798.000000	49.606955
1797.000000	49.592001
1796.000000	49.568225
1795.000000	49.532158
1794.000000	49.527264
1793.000000	49.510650
1792.000000	49.475624
1791.000000	49.452215
1790.000000	49.418816
1789.000000	49.393207
1788.000000	49.385235
1787.000000	49.363129
1786.000000	49.332146
1785.000000	49.305287
1784.000000	49.271477
1783.000000	49.232380
1782.000000	49.198374
1781.000000	49.177536
1780.000000	49.138740
1779.000000	49.090918
1778.000000	49.046624
1777.000000	48.988434
1776.000000	48.933186
1775.000000	48.880517
1774.000000	48.824440
1773.000000	48.779298
1772.000000	48.704383
1771.000000	48.631303
1770.000000	48.590433
1769.000000	48.531551
1768.000000	48.478721
1767.000000	48.409784
1766.000000	48.339529
1765.000000	48.291448
1764.000000	48.251633
1763.000000	48.198968
1762.000000	48.150734
1761.000000	48.093816
1760.000000	48.008286
1759.000000	47.927305
1758.000000	47.889961
1757.000000	47.847556
1756.000000	47.819197
1755.000000	47.733299
1754.000000	47.646306
1753.000000	47.581622
1752.000000	47.537554
1751.000000	47.478119
1750.000000	47.428268
1749.000000	47.380918
1748.000000	47.327703
1747.000000	47.244417
1746.000000	47.211007
1745.000000	47.136619
1744.000000	47.049659
1743.000000	46.997915
1742.000000	46.942626
1741.000000	46.866531
1740.000000	46.813698
1739.000000	46.767536
1738.000000	46.719686
1737.000000	46.671931
1736.000000	46.624974
1735.000000	46.624379
1734.000000	46.621894
1733.000000	46.606361
1732.000000	46.598552
1731.000000	46.642338
1730.000000	46.616517
1729.000000	46.631392
1728.000000	46.705195
1727.000000	46.733634
1726.000000	46.801077
1725.000000	46.836393
1724.000000	46.909120
1723.000000	47.018637
1722.000000	47.099157
1721.000000	47.189805
1720.000000	47.315204
1719.000000	47.407760
1718.000000	47.460435
1717.000000	47.557040
1716.000000	47.649171
1715.000000	47.725674
1714.000000	47.817359
1713.000000	47.886171
1712.000000	47.985394
1711.000000	48.036631
1710.000000	48.104980
1709.000000	48.151726
1708.000000	48.203708
1707.000000	48.286533
1706.000000	48.305206
1705.000000	48.299227
1704.000000	48.370381
1703.000000	48.389491
1702.000000	48.407752
1701.000000	48.424875
1700.000000	48.429506
1699.000000	48.455488
1698.000000	48.508163
1697.000000	48.505063
1696.000000	48.558124
1695.000000	48.550000
1694.000000	48.618193
1693.000000	48.689130
1692.000000	48.720379
1691.000000	48.792801
1690.000000	48.882019
1689.000000	48.962256
1688.000000	49.027862
1687.000000	49.174578
1686.000000	49.277231
1685.000000	49.437182
1684.000000	49.589048
1683.000000	49.733189
1682.000000	49.899243
1681.000000	50.070309
1680.000000	50.219284
1679.000000	50.368054
1678.000000	50.531060
1677.000000	50.737305
1676.000000	50.900435
1675.000000	51.074704
1674.000000	51.269664
1673.000000	51.459318
1672.000000	51.616068
1671.000000	51.759902
1670.000000	51.936862
1669.000000	52.105199
1668.000000	52.225648
1667.000000	52.376407
1666.000000	52.478239
1665.000000	52.592272
1664.000000	52.673887
1663.000000	52.779154
1662.000000	52.873501
1661.000000	52.940729
1660.000000	52.999095
1659.000000	53.073572
1658.000000	53.138728
1657.000000	53.191203
1656.000000	53.237626
1655.000000	53.268427
1654.000000	53.295983
1653.000000	53.297666
1652.000000	53.348891
1651.000000	53.348476
1650.000000	53.342478
1649.000000	53.361353
1648.000000	53.359872
1647.000000	53.369396
1646.000000	53.340967
1645.000000	53.331415
1644.000000	53.327485
1643.000000	53.319697
1642.000000	53.291686
1641.000000	53.283409
1640.000000	53.279879
1639.000000	53.231060
1638.000000	53.203837
1637.000000	53.181934
1636.000000	53.148592
1635.000000	53.127134
1634.000000	53.101683
1633.000000	53.049460
1632.000000	53.031793
1631.000000	53.006792
1630.000000	52.944049
1629.000000	52.906200
1628.000000	52.884958
1627.000000	52.841881
1626.000000	52.806676
1625.000000	52.760439
1624.000000	52.725083
1623.000000	52.676090
1622.000000	52.632683
1621.000000	52.587302
1620.000000	52.551669
1619.000000	52.510698
1618.000000	52.456577
1617.000000	52.409809
1616.000000	52.359712
1615.000000	52.307039
1614.000000	52.262809
1613.000000	52.215246
1612.000000	52.151364
1611.000000	52.103082
1610.000000	52.051269
1609.000000	52.005150
1608.000000	51.948162
1607.000000	51.879033
1606.000000	51.826366
1605.000000	51.773559
1604.000000	51.710953
1603.000000	51.640432
1602.000000	51.592755
1601.000000	51.543981
1600.000000	51.488003
1599.000000	51.443344
1598.000000	51.376262
1597.000000	51.318739
1596.000000	51.282701
1595.000000	51.231170
1594.000000	51.181847
1593.000000	51.124256
1592.000000	51.065377
1591.000000	51.022525
1590.000000	50.972487
1589.000000	50.914960
1588.000000	50.868550
1587.000000	50.830157
1586.000000	50.782014
1585.000000	50.743487
1584.000000	50.702986
1583.000000	50.657257
1582.000000	50.616412
1581.000000	50.572748
1580.000000	50.534803
1579.000000	50.502641
1578.000000	50.470649
1577.000000	50.422766
1576.000000	50.378961
1575.000000	50.343997
1574.000000	50.300358
1573.000000	50.260338
1572.000000	50.230161
1571.000000	50.178994
1570.000000	50.130233
1569.000000	50.103051
1568.000000	50.084061
1567.000000	50.054735
1566.000000	50.019088
1565.000000	49.992101
1564.000000	49.956461
1563.000000	49.928623
1562.000000	49.927343
1561.000000	49.905512
1560.000000	49.873467
1559.000000	49.854023
1558.000000	49.837218
1557.000000	49.823141
1556.000000	49.809945
1555.000000	49.784291
1554.000000	49.762981
1553.000000	49.739192
1552.000000	49.737545
1551.000000	49.712864
1550.000000	49.674367
1549.000000	49.634742
1548.000000	49.595962
1547.000000	49.551924
1546.000000	49.507744
1545.000000	49.451922
1544.000000	49.381024
1543.000000	49.327544
1542.000000	49.263986
1541.000000	49.177963
1540.000000	49.101547
1539.000000	49.027459
1538.000000	48.943672
1537.000000	48.859514
1536.000000	48.781063
1535.000000	48.689253
1534.000000	48.609916
1533.000000	48.534899
1532.000000	48.436719
1531.000000	48.347116
1530.000000	48.269038
1529.000000	48.185323
1528.000000	48.111655
1527.000000	48.048346
1526.000000	47.967555
1525.000000	47.884729
1524.000000	47.828679
1523.000000	47.758211
1522.000000	47.705279
1521.000000	47.652830
1520.000000	47.616501
1519.000000	47.561903
1518.000000	47.516608
1517.000000	47.476411
1516.000000	47.430581
1515.000000	47.385259
1514.000000	47.354901
1513.000000	47.311175
1512.000000	47.291188
1511.000000	47.273830
1510.000000	47.255350
1509.000000	47.283828
1508.000000	47.303934
1507.000000	47.295447
1506.000000	47.271516
1505.000000	47.233412
1504.000000	47.228557
1503.000000	47.200497
1502.000000	47.166372
1501.000000	47.167167
1500.000000	47.175434
1499.000000	47.175887
1498.000000	47.184950
1497.000000	47.194925
1496.000000	47.227693
1495.000000	47.231624
1494.000000	47.275072
1493.000000	47.301788
1492.000000	47.352041
1491.000000	47.399852
1490.000000	47.444314
1489.000000	47.521038
1488.000000	47.567291
1487.000000	47.626491
1486.000000	47.691623
1485.000000	47.756891
1484.000000	47.843466
1483.000000	47.914762
1482.000000	47.982760
1481.000000	48.079533
1480.000000	48.169829
1479.000000	48.246675
1478.000000	48.336962
1477.000000	48.403499
1476.000000	48.477139
1475.000000	48.560933
1474.000000	48.662413
1473.000000	48.722375
1472.000000	48.792843
1471.000000	48.865063
1470.000000	48.955460
