PE UV       SUBTECH     SPECTRUM    ASCII       PEDS        4.00        
   -1
RTVeauAl 22.Sample.asc
18/03/02
14:24:23.00
18/03/02
14:24:23.00
Administrator

200.000000
1
Lambda 750
750N8071901
PerkinElmer UV WinLab 6.0.4.0738 / 1.61.00 Lambda 900

0
0
3350/servo 860.8/2
0
0
UV/VIS
1
1
1
CommonBeamDepol,150mm sphere / downward view
0
0
0
0
Program
Program
3350/servo 860.8/2
3350/0.2 860.8/0.2
3350/0.2 860.8/0.2
0
1
 
 
 
0
 
860.8
319.2
860.8
Front
100
on
 
 
0
0
0
 
0
 
 
 
0
 
 
0
0
0
0
0
 
 
 
 
0
0


0
0
#HDR
-1
-1
#GR
nm
%R
1.0
0.0
2350.000000
-1.000000
2151
8
66.540145
16.008065
#DATA
2350.000000	30.886254
2349.000000	30.573448
2348.000000	30.276875
2347.000000	31.328348
2346.000000	31.002936
2345.000000	30.916398
2344.000000	31.024666
2343.000000	30.604275
2342.000000	30.589599
2341.000000	31.065944
2340.000000	31.076747
2339.000000	31.225421
2338.000000	31.526553
2337.000000	31.046495
2336.000000	31.287457
2335.000000	31.588955
2334.000000	31.694012
2333.000000	31.673492
2332.000000	31.841014
2331.000000	31.352908
2330.000000	31.215286
2329.000000	31.431181
2328.000000	31.284032
2327.000000	31.093316
2326.000000	31.242718
2325.000000	31.189479
2324.000000	31.064354
2323.000000	31.361956
2322.000000	31.248410
2321.000000	30.833188
2320.000000	30.906757
2319.000000	31.060801
2318.000000	31.154158
2317.000000	31.172081
2316.000000	30.692979
2315.000000	30.700421
2314.000000	30.638623
2313.000000	30.551167
2312.000000	30.665401
2311.000000	30.622555
2310.000000	30.582801
2309.000000	30.602916
2308.000000	30.373594
2307.000000	30.267834
2306.000000	30.239430
2305.000000	30.330870
2304.000000	30.309555
2303.000000	30.188870
2302.000000	30.087823
2301.000000	29.836775
2300.000000	29.768898
2299.000000	29.710667
2298.000000	29.768502
2297.000000	29.673082
2296.000000	29.533641
2295.000000	29.518998
2294.000000	29.372873
2293.000000	29.327199
2292.000000	29.178841
2291.000000	29.120138
2290.000000	29.121334
2289.000000	29.200937
2288.000000	29.240217
2287.000000	29.034397
2286.000000	28.810982
2285.000000	28.782721
2284.000000	28.855784
2283.000000	28.899776
2282.000000	28.770705
2281.000000	29.000763
2280.000000	28.900913
2279.000000	28.799744
2278.000000	28.869110
2277.000000	28.793717
2276.000000	28.651149
2275.000000	28.731691
2274.000000	28.815286
2273.000000	28.817257
2272.000000	28.992296
2271.000000	29.149697
2270.000000	29.155823
2269.000000	29.081655
2268.000000	29.280484
2267.000000	29.327498
2266.000000	29.296091
2265.000000	29.399458
2264.000000	29.544975
2263.000000	29.601256
2262.000000	29.659110
2261.000000	29.794829
2260.000000	30.024602
2259.000000	30.116997
2258.000000	30.177198
2257.000000	30.408279
2256.000000	30.528552
2255.000000	30.775343
2254.000000	30.961133
2253.000000	30.930037
2252.000000	31.130369
2251.000000	31.482983
2250.000000	31.701695
2249.000000	31.899395
2248.000000	32.029033
2247.000000	32.228861
2246.000000	32.388854
2245.000000	32.555415
2244.000000	32.743151
2243.000000	32.890529
2242.000000	33.094105
2241.000000	33.147568
2240.000000	33.253570
2239.000000	33.422315
2238.000000	33.514535
2237.000000	33.653449
2236.000000	33.769919
2235.000000	33.787980
2234.000000	33.823414
2233.000000	34.000926
2232.000000	34.071865
2231.000000	34.105764
2230.000000	34.142802
2229.000000	34.169424
2228.000000	34.279478
2227.000000	34.356880
2226.000000	34.416147
2225.000000	34.295173
2224.000000	34.161739
2223.000000	34.086155
2222.000000	34.199110
2221.000000	34.205014
2220.000000	34.123523
2219.000000	34.102284
2218.000000	34.135773
2217.000000	34.096238
2216.000000	34.037264
2215.000000	33.984035
2214.000000	33.953623
2213.000000	33.936588
2212.000000	33.993646
2211.000000	33.890348
2210.000000	33.745428
2209.000000	33.687266
2208.000000	33.658110
2207.000000	33.523453
2206.000000	33.544237
2205.000000	33.431150
2204.000000	33.491174
2203.000000	33.446583
2202.000000	33.178095
2201.000000	33.180297
2200.000000	33.032978
2199.000000	32.965447
2198.000000	33.009878
2197.000000	32.955113
2196.000000	32.939273
2195.000000	32.792888
2194.000000	32.735365
2193.000000	32.650269
2192.000000	32.571468
2191.000000	32.492330
2190.000000	32.502466
2189.000000	32.439372
2188.000000	32.251568
2187.000000	32.259538
2186.000000	32.428689
2185.000000	32.396972
2184.000000	32.311116
2183.000000	32.199921
2182.000000	32.224432
2181.000000	32.260662
2180.000000	32.159930
2179.000000	32.088753
2178.000000	32.042339
2177.000000	32.150376
2176.000000	32.205667
2175.000000	32.108098
2174.000000	32.219220
2173.000000	32.223977
2172.000000	32.157978
2171.000000	32.220111
2170.000000	32.198388
2169.000000	32.343914
2168.000000	32.435925
2167.000000	32.702238
2166.000000	32.643218
2165.000000	32.634892
2164.000000	32.745928
2163.000000	32.911023
2162.000000	33.047129
2161.000000	33.192270
2160.000000	33.357599
2159.000000	33.349198
2158.000000	33.500822
2157.000000	33.663492
2156.000000	33.767733
2155.000000	33.887567
2154.000000	34.148310
2153.000000	34.238310
2152.000000	34.410634
2151.000000	34.438769
2150.000000	34.648020
2149.000000	34.707976
2148.000000	34.749521
2147.000000	35.077008
2146.000000	35.069674
2145.000000	35.330223
2144.000000	35.445899
2143.000000	35.476570
2142.000000	35.806716
2141.000000	35.986254
2140.000000	35.979774
2139.000000	36.205784
2138.000000	36.378433
2137.000000	36.301702
2136.000000	36.539011
2135.000000	36.534081
2134.000000	36.637283
2133.000000	36.549471
2132.000000	36.890294
2131.000000	36.972153
2130.000000	37.093236
2129.000000	37.271099
2128.000000	37.076780
2127.000000	37.205724
2126.000000	37.323276
2125.000000	37.158474
2124.000000	37.428846
2123.000000	37.590020
2122.000000	37.437180
2121.000000	37.457707
2120.000000	37.567998
2119.000000	37.696992
2118.000000	37.568518
2117.000000	37.787702
2116.000000	37.849244
2115.000000	37.784799
2114.000000	37.689765
2113.000000	37.781373
2112.000000	37.979287
2111.000000	37.911217
2110.000000	37.832885
2109.000000	37.942354
2108.000000	38.082214
2107.000000	38.001159
2106.000000	38.066221
2105.000000	37.904567
2104.000000	38.038248
2103.000000	38.161279
2102.000000	38.143837
2101.000000	38.098731
2100.000000	38.143523
2099.000000	38.117305
2098.000000	38.031229
2097.000000	38.096281
2096.000000	38.087255
2095.000000	38.138404
2094.000000	38.267487
2093.000000	38.223791
2092.000000	38.161985
2091.000000	38.187210
2090.000000	38.108580
2089.000000	38.118421
2088.000000	38.180207
2087.000000	38.139163
2086.000000	38.113896
2085.000000	38.081639
2084.000000	37.874699
2083.000000	37.841479
2082.000000	37.844284
2081.000000	37.791516
2080.000000	37.707719
2079.000000	37.727179
2078.000000	37.674622
2077.000000	37.590645
2076.000000	37.532565
2075.000000	37.410532
2074.000000	37.307785
2073.000000	37.215336
2072.000000	37.120359
2071.000000	37.095388
2070.000000	36.979064
2069.000000	36.860990
2068.000000	36.654272
2067.000000	36.451549
2066.000000	36.333113
2065.000000	36.186993
2064.000000	36.116031
2063.000000	35.988330
2062.000000	35.776093
2061.000000	35.568639
2060.000000	35.424011
2059.000000	35.329382
2058.000000	35.207537
2057.000000	35.107375
2056.000000	35.003701
2055.000000	34.893000
2054.000000	34.740979
2053.000000	34.532307
2052.000000	34.428353
2051.000000	34.344538
2050.000000	34.185285
2049.000000	34.066975
2048.000000	34.021116
2047.000000	33.961250
2046.000000	33.903876
2045.000000	33.843437
2044.000000	33.746069
2043.000000	33.758197
2042.000000	33.777698
2041.000000	33.787870
2040.000000	33.778023
2039.000000	33.805216
2038.000000	33.853682
2037.000000	33.908609
2036.000000	33.951592
2035.000000	34.050084
2034.000000	34.198520
2033.000000	34.344984
2032.000000	34.466869
2031.000000	34.544728
2030.000000	34.665204
2029.000000	34.839098
2028.000000	34.983488
2027.000000	35.103581
2026.000000	35.231250
2025.000000	35.341939
2024.000000	35.457878
2023.000000	35.594897
2022.000000	35.680414
2021.000000	35.742643
2020.000000	35.857655
2019.000000	35.913036
2018.000000	35.937903
2017.000000	36.046195
2016.000000	36.092282
2015.000000	36.059967
2014.000000	36.095822
2013.000000	36.157811
2012.000000	36.113274
2011.000000	36.081215
2010.000000	36.097064
2009.000000	36.065758
2008.000000	36.048581
2007.000000	36.011401
2006.000000	35.945258
2005.000000	35.908832
2004.000000	35.839096
2003.000000	35.782792
2002.000000	35.708499
2001.000000	35.587697
2000.000000	35.561888
1999.000000	35.534050
1998.000000	35.419432
1997.000000	35.341692
1996.000000	35.256729
1995.000000	35.161449
1994.000000	35.052885
1993.000000	34.964876
1992.000000	34.885943
1991.000000	34.794298
1990.000000	34.741488
1989.000000	34.670220
1988.000000	34.553076
1987.000000	34.470315
1986.000000	34.374531
1985.000000	34.318312
1984.000000	34.199389
1983.000000	34.107033
1982.000000	34.033310
1981.000000	33.968925
1980.000000	33.874177
1979.000000	33.760665
1978.000000	33.682655
1977.000000	33.642704
1976.000000	33.527846
1975.000000	33.476934
1974.000000	33.388894
1973.000000	33.304592
1972.000000	33.257479
1971.000000	33.124988
1970.000000	33.086610
1969.000000	32.979337
1968.000000	32.898655
1967.000000	32.856846
1966.000000	32.786860
1965.000000	32.683770
1964.000000	32.602691
1963.000000	32.544880
1962.000000	32.469983
1961.000000	32.398010
1960.000000	32.332676
1959.000000	32.238179
1958.000000	32.147910
1957.000000	32.109561
1956.000000	32.046558
1955.000000	31.946574
1954.000000	31.932099
1953.000000	31.884297
1952.000000	31.815384
1951.000000	31.718059
1950.000000	31.669395
1949.000000	31.651404
1948.000000	31.569564
1947.000000	31.592069
1946.000000	31.589957
1945.000000	31.572463
1944.000000	31.516986
1943.000000	31.534673
1942.000000	31.615065
1941.000000	31.620584
1940.000000	31.672879
1939.000000	31.693845
1938.000000	31.720763
1937.000000	31.812694
1936.000000	31.899497
1935.000000	31.941231
1934.000000	32.006474
1933.000000	32.216011
1932.000000	32.349496
1931.000000	32.449566
1930.000000	32.584921
1929.000000	32.769224
1928.000000	32.896887
1927.000000	33.048255
1926.000000	33.164955
1925.000000	33.441309
1924.000000	33.648045
1923.000000	33.910223
1922.000000	34.161697
1921.000000	34.412830
1920.000000	34.602712
1919.000000	34.859666
1918.000000	35.200183
1917.000000	35.497079
1916.000000	35.675388
1915.000000	36.125797
1914.000000	36.483956
1913.000000	36.809648
1912.000000	37.101771
1911.000000	37.396529
1910.000000	37.792243
1909.000000	38.199042
1908.000000	38.554877
1907.000000	38.903830
1906.000000	39.286513
1905.000000	39.817185
1904.000000	40.239013
1903.000000	40.684982
1902.000000	41.154023
1901.000000	41.548514
1900.000000	42.029047
1899.000000	42.438494
1898.000000	42.955464
1897.000000	43.437505
1896.000000	43.822866
1895.000000	44.297733
1894.000000	44.750564
1893.000000	45.148557
1892.000000	45.620044
1891.000000	46.054311
1890.000000	46.475870
1889.000000	46.880349
1888.000000	47.260639
1887.000000	47.676285
1886.000000	48.038766
1885.000000	48.370991
1884.000000	48.762643
1883.000000	49.074638
1882.000000	49.368600
1881.000000	49.703576
1880.000000	50.019406
1879.000000	50.272582
1878.000000	50.514067
1877.000000	50.801214
1876.000000	51.028900
1875.000000	51.271728
1874.000000	51.484157
1873.000000	51.636067
1872.000000	51.856121
1871.000000	52.022989
1870.000000	52.153278
1869.000000	52.314916
1868.000000	52.397496
1867.000000	52.474667
1866.000000	52.577545
1865.000000	52.698528
1864.000000	52.792501
1863.000000	52.839963
1862.000000	52.939387
1861.000000	52.961864
1860.000000	53.032859
1859.000000	53.059894
1858.000000	53.098496
1857.000000	53.142978
1856.000000	53.176000
1855.000000	53.193448
1854.000000	53.230553
1853.000000	53.248455
1852.000000	53.226142
1851.000000	53.258992
1850.000000	53.291710
1849.000000	53.242877
1848.000000	53.242399
1847.000000	53.251105
1846.000000	53.219041
1845.000000	53.196227
1844.000000	53.182177
1843.000000	53.123141
1842.000000	53.108940
1841.000000	53.075358
1840.000000	53.038163
1839.000000	53.047923
1838.000000	53.038160
1837.000000	53.008740
1836.000000	52.963567
1835.000000	52.919457
1834.000000	52.887465
1833.000000	52.833647
1832.000000	52.786623
1831.000000	52.729662
1830.000000	52.699592
1829.000000	52.660947
1828.000000	52.608385
1827.000000	52.571364
1826.000000	52.543004
1825.000000	52.504983
1824.000000	52.501253
1823.000000	52.465316
1822.000000	52.393965
1821.000000	52.376592
1820.000000	52.341187
1819.000000	52.299143
1818.000000	52.281862
1817.000000	52.249641
1816.000000	52.201066
1815.000000	52.177112
1814.000000	52.144485
1813.000000	52.111990
1812.000000	52.075385
1811.000000	52.047091
1810.000000	52.027184
1809.000000	52.014323
1808.000000	51.990904
1807.000000	51.930493
1806.000000	51.907844
1805.000000	51.851405
1804.000000	51.807052
1803.000000	51.802251
1802.000000	51.780392
1801.000000	51.775570
1800.000000	51.747209
1799.000000	51.711322
1798.000000	51.684976
1797.000000	51.644060
1796.000000	51.613999
1795.000000	51.601169
1794.000000	51.587992
1793.000000	51.568455
1792.000000	51.531036
1791.000000	51.498308
1790.000000	51.473674
1789.000000	51.452732
1788.000000	51.438612
1787.000000	51.403024
1786.000000	51.359436
1785.000000	51.345356
1784.000000	51.316961
1783.000000	51.290896
1782.000000	51.254873
1781.000000	51.200049
1780.000000	51.159215
1779.000000	51.117399
1778.000000	51.058044
1777.000000	51.005076
1776.000000	50.944690
1775.000000	50.897230
1774.000000	50.833267
1773.000000	50.761183
1772.000000	50.699185
1771.000000	50.654378
1770.000000	50.602014
1769.000000	50.510006
1768.000000	50.457773
1767.000000	50.396578
1766.000000	50.346109
1765.000000	50.293032
1764.000000	50.236274
1763.000000	50.164062
1762.000000	50.126985
1761.000000	50.059048
1760.000000	49.966828
1759.000000	49.912828
1758.000000	49.876906
1757.000000	49.810668
1756.000000	49.745357
1755.000000	49.696211
1754.000000	49.607160
1753.000000	49.548674
1752.000000	49.498809
1751.000000	49.435103
1750.000000	49.352821
1749.000000	49.309209
1748.000000	49.244920
1747.000000	49.174015
1746.000000	49.123964
1745.000000	49.054263
1744.000000	48.982707
1743.000000	48.916686
1742.000000	48.848210
1741.000000	48.794952
1740.000000	48.746554
1739.000000	48.642759
1738.000000	48.614226
1737.000000	48.582098
1736.000000	48.545336
1735.000000	48.525992
1734.000000	48.513597
1733.000000	48.504665
1732.000000	48.483131
1731.000000	48.535790
1730.000000	48.522835
1729.000000	48.538004
1728.000000	48.599446
1727.000000	48.635972
1726.000000	48.699083
1725.000000	48.776637
1724.000000	48.863608
1723.000000	48.938653
1722.000000	49.011491
1721.000000	49.109440
1720.000000	49.270697
1719.000000	49.339545
1718.000000	49.414641
1717.000000	49.524691
1716.000000	49.628491
1715.000000	49.686377
1714.000000	49.804472
1713.000000	49.892359
1712.000000	49.976982
1711.000000	50.064832
1710.000000	50.116696
1709.000000	50.162266
1708.000000	50.209611
1707.000000	50.282789
1706.000000	50.289588
1705.000000	50.337174
1704.000000	50.362909
1703.000000	50.389446
1702.000000	50.387975
1701.000000	50.432197
1700.000000	50.447786
1699.000000	50.433404
1698.000000	50.501267
1697.000000	50.515240
1696.000000	50.569136
1695.000000	50.582524
1694.000000	50.638206
1693.000000	50.694109
1692.000000	50.720113
1691.000000	50.813384
1690.000000	50.899992
1689.000000	50.993138
1688.000000	51.089918
1687.000000	51.224017
1686.000000	51.344921
1685.000000	51.482282
1684.000000	51.666515
1683.000000	51.822263
1682.000000	51.977939
1681.000000	52.168011
1680.000000	52.339845
1679.000000	52.520116
1678.000000	52.711354
1677.000000	52.907556
1676.000000	53.100563
1675.000000	53.284832
1674.000000	53.487509
1673.000000	53.677672
1672.000000	53.860532
1671.000000	54.017044
1670.000000	54.216005
1669.000000	54.390623
1668.000000	54.520541
1667.000000	54.695412
1666.000000	54.783001
1665.000000	54.903697
1664.000000	55.011500
1663.000000	55.118668
1662.000000	55.209912
1661.000000	55.281520
1660.000000	55.369114
1659.000000	55.431787
1658.000000	55.522554
1657.000000	55.572092
1656.000000	55.602385
1655.000000	55.640307
1654.000000	55.681069
1653.000000	55.704028
1652.000000	55.743575
1651.000000	55.731344
1650.000000	55.730730
1649.000000	55.760829
1648.000000	55.753115
1647.000000	55.747400
1646.000000	55.740363
1645.000000	55.736871
1644.000000	55.711814
1643.000000	55.693948
1642.000000	55.674117
1641.000000	55.657067
1640.000000	55.639917
1639.000000	55.605661
1638.000000	55.565449
1637.000000	55.555139
1636.000000	55.516900
1635.000000	55.479956
1634.000000	55.443611
1633.000000	55.400598
1632.000000	55.353719
1631.000000	55.332342
1630.000000	55.290069
1629.000000	55.245506
1628.000000	55.201334
1627.000000	55.158423
1626.000000	55.124397
1625.000000	55.074952
1624.000000	55.030104
1623.000000	54.989445
1622.000000	54.933057
1621.000000	54.883986
1620.000000	54.839383
1619.000000	54.775634
1618.000000	54.717058
1617.000000	54.680630
1616.000000	54.624650
1615.000000	54.561202
1614.000000	54.511335
1613.000000	54.459159
1612.000000	54.398147
1611.000000	54.339670
1610.000000	54.286797
1609.000000	54.239398
1608.000000	54.165763
1607.000000	54.085257
1606.000000	54.021449
1605.000000	53.971733
1604.000000	53.921421
1603.000000	53.857421
1602.000000	53.790138
1601.000000	53.728874
1600.000000	53.671940
1599.000000	53.608587
1598.000000	53.543966
1597.000000	53.485220
1596.000000	53.426528
1595.000000	53.365346
1594.000000	53.310449
1593.000000	53.251526
1592.000000	53.191168
1591.000000	53.151558
1590.000000	53.098991
1589.000000	53.037374
1588.000000	53.002851
1587.000000	52.957017
1586.000000	52.897365
1585.000000	52.858432
1584.000000	52.811538
1583.000000	52.759426
1582.000000	52.708964
1581.000000	52.656250
1580.000000	52.614983
1579.000000	52.588951
1578.000000	52.550336
1577.000000	52.490771
1576.000000	52.446230
1575.000000	52.415677
1574.000000	52.360479
1573.000000	52.302938
1572.000000	52.271072
1571.000000	52.224341
1570.000000	52.188949
1569.000000	52.153834
1568.000000	52.121059
1567.000000	52.084859
1566.000000	52.046835
1565.000000	52.019609
1564.000000	51.997614
1563.000000	51.973745
1562.000000	51.947978
1561.000000	51.927120
1560.000000	51.895963
1559.000000	51.872180
1558.000000	51.847107
1557.000000	51.838410
1556.000000	51.819852
1555.000000	51.799638
1554.000000	51.788325
1553.000000	51.767844
1552.000000	51.737046
1551.000000	51.717752
1550.000000	51.674636
1549.000000	51.643663
1548.000000	51.603903
1547.000000	51.549943
1546.000000	51.499041
1545.000000	51.441241
1544.000000	51.381852
1543.000000	51.303504
1542.000000	51.243564
1541.000000	51.159052
1540.000000	51.068131
1539.000000	50.991473
1538.000000	50.898114
1537.000000	50.802834
1536.000000	50.714884
1535.000000	50.624806
1534.000000	50.515993
1533.000000	50.434914
1532.000000	50.340332
1531.000000	50.249299
1530.000000	50.177156
1529.000000	50.088679
1528.000000	50.004404
1527.000000	49.933578
1526.000000	49.859461
1525.000000	49.783172
1524.000000	49.699530
1523.000000	49.643326
1522.000000	49.592167
1521.000000	49.527994
1520.000000	49.485040
1519.000000	49.422760
1518.000000	49.370319
1517.000000	49.330691
1516.000000	49.276092
1515.000000	49.214105
1514.000000	49.202815
1513.000000	49.162852
1512.000000	49.146001
1511.000000	49.129177
1510.000000	49.132568
1509.000000	49.178686
1508.000000	49.154005
1507.000000	49.143575
1506.000000	49.136708
1505.000000	49.082900
1504.000000	49.076085
1503.000000	49.038916
1502.000000	49.027206
1501.000000	49.021059
1500.000000	49.028606
1499.000000	49.029162
1498.000000	49.031675
1497.000000	49.035410
1496.000000	49.066615
1495.000000	49.072449
1494.000000	49.122400
1493.000000	49.141697
1492.000000	49.199118
1491.000000	49.252797
1490.000000	49.312125
1489.000000	49.369882
1488.000000	49.413981
1487.000000	49.482594
1486.000000	49.559135
1485.000000	49.612726
1484.000000	49.701484
1483.000000	49.779881
1482.000000	49.858438
1481.000000	49.963818
1480.000000	50.039370
1479.000000	50.149235
1478.000000	50.209442
1477.000000	50.308693
1476.000000	50.392316
1475.000000	50.475978
1474.000000	50.573859
1473.000000	50.636940
1472.000000	50.752588
1471.000000	50.842285
1470.000000	50.944313
