PE UV       SUBTECH     SPECTRUM    ASCII       PEDS        4.00        
   -1
RTVeauUK 62.Sample.asc
18/03/02
12:18:14.00
18/03/02
12:18:14.00
Administrator

200.000000
1
Lambda 750
750N8071901
PerkinElmer UV WinLab 6.0.4.0738 / 1.61.00 Lambda 900

0
0
3350/servo 860.8/2
0
0
UV/VIS
1
1
1
CommonBeamDepol,150mm sphere / downward view
0
0
0
0
Program
Program
3350/servo 860.8/2
3350/0.2 860.8/0.2
3350/0.2 860.8/0.2
0
1
 
 
 
0
 
860.8
319.2
860.8
Front
100
on
 
 
0
0
0
 
0
 
 
 
0
 
 
0
0
0
0
0
 
 
 
 
0
0


0
0
#HDR
-1
-1
#GR
nm
%R
1.0
0.0
2350.000000
-1.000000
2151
8
49.901273
8.310366
#DATA
2350.000000	8.916619
2349.000000	9.352280
2348.000000	9.090753
2347.000000	9.710201
2346.000000	9.485575
2345.000000	9.205765
2344.000000	9.029928
2343.000000	8.803851
2342.000000	9.527698
2341.000000	9.170913
2340.000000	9.305020
2339.000000	9.742093
2338.000000	9.534543
2337.000000	9.612479
2336.000000	9.917025
2335.000000	10.028068
2334.000000	10.061058
2333.000000	10.283035
2332.000000	10.034262
2331.000000	10.070369
2330.000000	10.101415
2329.000000	10.026531
2328.000000	9.801197
2327.000000	9.903721
2326.000000	10.118878
2325.000000	9.730674
2324.000000	9.848207
2323.000000	9.866073
2322.000000	9.662711
2321.000000	9.739887
2320.000000	9.865764
2319.000000	9.539297
2318.000000	9.768328
2317.000000	9.692960
2316.000000	9.569527
2315.000000	9.652203
2314.000000	9.543492
2313.000000	9.610253
2312.000000	9.292333
2311.000000	9.302576
2310.000000	9.396043
2309.000000	9.262937
2308.000000	9.390799
2307.000000	9.134992
2306.000000	9.303689
2305.000000	9.330589
2304.000000	9.088869
2303.000000	9.235644
2302.000000	9.291653
2301.000000	9.014925
2300.000000	8.783733
2299.000000	8.733431
2298.000000	8.825330
2297.000000	9.037695
2296.000000	8.979313
2295.000000	8.799234
2294.000000	8.846961
2293.000000	8.688688
2292.000000	8.682001
2291.000000	8.574441
2290.000000	8.350417
2289.000000	8.506804
2288.000000	8.509435
2287.000000	8.624351
2286.000000	8.391236
2285.000000	8.415986
2284.000000	8.528496
2283.000000	8.441847
2282.000000	8.477498
2281.000000	8.448611
2280.000000	8.355262
2279.000000	8.521127
2278.000000	8.402034
2277.000000	8.310366
2276.000000	8.419252
2275.000000	8.704334
2274.000000	8.704716
2273.000000	8.675701
2272.000000	8.604491
2271.000000	8.592331
2270.000000	8.629883
2269.000000	8.805918
2268.000000	8.770385
2267.000000	8.724077
2266.000000	8.772131
2265.000000	8.806272
2264.000000	8.858878
2263.000000	8.794800
2262.000000	8.849448
2261.000000	8.987472
2260.000000	9.102825
2259.000000	9.248756
2258.000000	9.343575
2257.000000	9.520320
2256.000000	9.653190
2255.000000	9.722864
2254.000000	9.725503
2253.000000	9.715125
2252.000000	9.938581
2251.000000	10.209902
2250.000000	10.203433
2249.000000	10.228500
2248.000000	10.388251
2247.000000	10.518003
2246.000000	10.642042
2245.000000	10.662278
2244.000000	10.720329
2243.000000	10.820533
2242.000000	10.935943
2241.000000	11.090706
2240.000000	11.161061
2239.000000	11.254951
2238.000000	11.268702
2237.000000	11.432515
2236.000000	11.502182
2235.000000	11.475106
2234.000000	11.512503
2233.000000	11.555753
2232.000000	11.658338
2231.000000	11.766340
2230.000000	11.864677
2229.000000	11.817385
2228.000000	11.791193
2227.000000	11.817008
2226.000000	11.798864
2225.000000	11.766880
2224.000000	11.856711
2223.000000	11.841460
2222.000000	11.785476
2221.000000	11.673941
2220.000000	11.761055
2219.000000	11.759027
2218.000000	11.711592
2217.000000	11.733863
2216.000000	11.613351
2215.000000	11.597064
2214.000000	11.570058
2213.000000	11.605484
2212.000000	11.634125
2211.000000	11.510595
2210.000000	11.517870
2209.000000	11.445006
2208.000000	11.376494
2207.000000	11.355644
2206.000000	11.188263
2205.000000	11.142258
2204.000000	11.187862
2203.000000	11.088428
2202.000000	11.126338
2201.000000	11.111863
2200.000000	11.103492
2199.000000	11.109967
2198.000000	11.009179
2197.000000	10.931335
2196.000000	10.823540
2195.000000	10.821379
2194.000000	10.829575
2193.000000	10.686106
2192.000000	10.606947
2191.000000	10.718736
2190.000000	10.743398
2189.000000	10.633654
2188.000000	10.551956
2187.000000	10.525109
2186.000000	10.435056
2185.000000	10.440661
2184.000000	10.486810
2183.000000	10.478942
2182.000000	10.410490
2181.000000	10.389719
2180.000000	10.357545
2179.000000	10.342615
2178.000000	10.321305
2177.000000	10.318664
2176.000000	10.277459
2175.000000	10.418307
2174.000000	10.431769
2173.000000	10.437328
2172.000000	10.372274
2171.000000	10.371129
2170.000000	10.553746
2169.000000	10.591920
2168.000000	10.618841
2167.000000	10.679527
2166.000000	10.553017
2165.000000	10.668861
2164.000000	10.757943
2163.000000	10.765081
2162.000000	10.904887
2161.000000	10.682057
2160.000000	11.106241
2159.000000	11.232807
2158.000000	11.081138
2157.000000	11.240284
2156.000000	11.256788
2155.000000	11.244296
2154.000000	11.533635
2153.000000	11.739677
2152.000000	11.689591
2151.000000	11.658549
2150.000000	11.954235
2149.000000	11.947758
2148.000000	11.944848
2147.000000	12.200039
2146.000000	12.142880
2145.000000	12.206016
2144.000000	12.309713
2143.000000	12.469877
2142.000000	12.511857
2141.000000	12.534014
2140.000000	12.789067
2139.000000	12.810775
2138.000000	13.098964
2137.000000	13.136702
2136.000000	12.865032
2135.000000	13.029252
2134.000000	13.198097
2133.000000	13.125670
2132.000000	13.396930
2131.000000	13.455681
2130.000000	13.483974
2129.000000	13.595647
2128.000000	13.420231
2127.000000	13.496279
2126.000000	13.542413
2125.000000	13.557304
2124.000000	13.647406
2123.000000	13.663014
2122.000000	13.670248
2121.000000	13.723869
2120.000000	13.685239
2119.000000	13.762473
2118.000000	13.994746
2117.000000	13.926204
2116.000000	14.115844
2115.000000	13.929086
2114.000000	13.966909
2113.000000	13.918769
2112.000000	13.979175
2111.000000	14.035091
2110.000000	14.093210
2109.000000	14.177034
2108.000000	14.120557
2107.000000	14.351328
2106.000000	14.274659
2105.000000	14.097640
2104.000000	14.261673
2103.000000	14.334899
2102.000000	14.304443
2101.000000	14.363671
2100.000000	14.401699
2099.000000	14.380699
2098.000000	14.313188
2097.000000	14.264089
2096.000000	14.193943
2095.000000	14.227811
2094.000000	14.242288
2093.000000	14.329571
2092.000000	14.337060
2091.000000	14.200412
2090.000000	14.318813
2089.000000	14.298696
2088.000000	14.294605
2087.000000	14.147513
2086.000000	14.208054
2085.000000	14.142272
2084.000000	14.163547
2083.000000	14.062221
2082.000000	13.996724
2081.000000	14.008927
2080.000000	13.971646
2079.000000	13.890932
2078.000000	13.764716
2077.000000	13.800846
2076.000000	13.668797
2075.000000	13.613772
2074.000000	13.579645
2073.000000	13.559940
2072.000000	13.459098
2071.000000	13.466414
2070.000000	13.409819
2069.000000	13.210891
2068.000000	13.116689
2067.000000	13.041254
2066.000000	12.963799
2065.000000	12.807061
2064.000000	12.670751
2063.000000	12.491071
2062.000000	12.474588
2061.000000	12.417954
2060.000000	12.338089
2059.000000	12.214422
2058.000000	12.135456
2057.000000	12.006299
2056.000000	11.958730
2055.000000	11.940454
2054.000000	11.755636
2053.000000	11.689945
2052.000000	11.598496
2051.000000	11.550661
2050.000000	11.476031
2049.000000	11.340739
2048.000000	11.265725
2047.000000	11.278666
2046.000000	11.228202
2045.000000	11.144877
2044.000000	11.128514
2043.000000	11.132056
2042.000000	11.121793
2041.000000	11.119574
2040.000000	11.163892
2039.000000	11.223050
2038.000000	11.242585
2037.000000	11.261659
2036.000000	11.268812
2035.000000	11.321041
2034.000000	11.387720
2033.000000	11.433319
2032.000000	11.557716
2031.000000	11.658827
2030.000000	11.727279
2029.000000	11.832346
2028.000000	11.924500
2027.000000	12.021506
2026.000000	12.129223
2025.000000	12.200163
2024.000000	12.267427
2023.000000	12.315326
2022.000000	12.314107
2021.000000	12.402227
2020.000000	12.502531
2019.000000	12.550006
2018.000000	12.598436
2017.000000	12.590639
2016.000000	12.593383
2015.000000	12.645626
2014.000000	12.656583
2013.000000	12.632090
2012.000000	12.650223
2011.000000	12.649360
2010.000000	12.606769
2009.000000	12.585003
2008.000000	12.542803
2007.000000	12.499519
2006.000000	12.450736
2005.000000	12.432960
2004.000000	12.407305
2003.000000	12.361248
2002.000000	12.330322
2001.000000	12.298270
2000.000000	12.227470
1999.000000	12.167949
1998.000000	12.112565
1997.000000	12.062415
1996.000000	12.028583
1995.000000	11.959814
1994.000000	11.875349
1993.000000	11.790728
1992.000000	11.751459
1991.000000	11.732610
1990.000000	11.682191
1989.000000	11.578555
1988.000000	11.528067
1987.000000	11.477003
1986.000000	11.377557
1985.000000	11.350165
1984.000000	11.326630
1983.000000	11.253169
1982.000000	11.216521
1981.000000	11.187893
1980.000000	11.131730
1979.000000	11.069772
1978.000000	11.018737
1977.000000	11.019044
1976.000000	10.954072
1975.000000	10.903576
1974.000000	10.806675
1973.000000	10.783268
1972.000000	10.747475
1971.000000	10.695774
1970.000000	10.640638
1969.000000	10.607326
1968.000000	10.534875
1967.000000	10.528569
1966.000000	10.483530
1965.000000	10.412565
1964.000000	10.356105
1963.000000	10.317016
1962.000000	10.275511
1961.000000	10.259154
1960.000000	10.223029
1959.000000	10.154284
1958.000000	10.164679
1957.000000	10.119161
1956.000000	10.086210
1955.000000	10.070397
1954.000000	10.071940
1953.000000	10.009319
1952.000000	9.969094
1951.000000	10.008295
1950.000000	9.965106
1949.000000	9.918971
1948.000000	9.945015
1947.000000	9.998509
1946.000000	9.910204
1945.000000	9.970282
1944.000000	9.976696
1943.000000	10.029371
1942.000000	9.992173
1941.000000	9.934898
1940.000000	10.015702
1939.000000	10.111213
1938.000000	10.167931
1937.000000	10.195670
1936.000000	10.260188
1935.000000	10.323634
1934.000000	10.366739
1933.000000	10.459499
1932.000000	10.471977
1931.000000	10.592953
1930.000000	10.705628
1929.000000	10.787652
1928.000000	10.967689
1927.000000	11.131175
1926.000000	11.148976
1925.000000	11.308160
1924.000000	11.401842
1923.000000	11.632196
1922.000000	11.836906
1921.000000	11.998351
1920.000000	12.151380
1919.000000	12.343727
1918.000000	12.525665
1917.000000	12.804976
1916.000000	12.869241
1915.000000	13.163062
1914.000000	13.461295
1913.000000	13.822466
1912.000000	14.048919
1911.000000	14.408947
1910.000000	14.635869
1909.000000	14.881092
1908.000000	15.262523
1907.000000	15.630125
1906.000000	15.957090
1905.000000	16.326394
1904.000000	16.738602
1903.000000	17.170446
1902.000000	17.504352
1901.000000	17.889408
1900.000000	18.322466
1899.000000	18.774358
1898.000000	19.239699
1897.000000	19.634558
1896.000000	20.116976
1895.000000	20.594491
1894.000000	20.973342
1893.000000	21.477701
1892.000000	21.952261
1891.000000	22.433723
1890.000000	22.878188
1889.000000	23.254576
1888.000000	23.683648
1887.000000	24.157500
1886.000000	24.546237
1885.000000	24.911969
1884.000000	25.353275
1883.000000	25.741120
1882.000000	26.109327
1881.000000	26.437579
1880.000000	26.826598
1879.000000	27.175916
1878.000000	27.495426
1877.000000	27.791620
1876.000000	28.057918
1875.000000	28.315689
1874.000000	28.583910
1873.000000	28.827925
1872.000000	29.057842
1871.000000	29.232488
1870.000000	29.458198
1869.000000	29.620275
1868.000000	29.802505
1867.000000	29.899045
1866.000000	30.039614
1865.000000	30.138331
1864.000000	30.252743
1863.000000	30.363867
1862.000000	30.427646
1861.000000	30.457497
1860.000000	30.564044
1859.000000	30.647652
1858.000000	30.677265
1857.000000	30.693721
1856.000000	30.732563
1855.000000	30.792679
1854.000000	30.845771
1853.000000	30.853536
1852.000000	30.843988
1851.000000	30.866172
1850.000000	30.850113
1849.000000	30.862328
1848.000000	30.877177
1847.000000	30.844214
1846.000000	30.809746
1845.000000	30.801851
1844.000000	30.823042
1843.000000	30.775726
1842.000000	30.703797
1841.000000	30.664978
1840.000000	30.631770
1839.000000	30.589351
1838.000000	30.555195
1837.000000	30.485450
1836.000000	30.411760
1835.000000	30.384495
1834.000000	30.325398
1833.000000	30.274706
1832.000000	30.246154
1831.000000	30.179010
1830.000000	30.120729
1829.000000	30.063821
1828.000000	30.009221
1827.000000	29.958083
1826.000000	29.905308
1825.000000	29.852917
1824.000000	29.830223
1823.000000	29.801090
1822.000000	29.718350
1821.000000	29.671552
1820.000000	29.640966
1819.000000	29.588875
1818.000000	29.562105
1817.000000	29.521257
1816.000000	29.449925
1815.000000	29.414341
1814.000000	29.397847
1813.000000	29.364615
1812.000000	29.324718
1811.000000	29.274301
1810.000000	29.233957
1809.000000	29.210265
1808.000000	29.161666
1807.000000	29.102648
1806.000000	29.058354
1805.000000	29.003500
1804.000000	28.957330
1803.000000	28.938909
1802.000000	28.914614
1801.000000	28.880709
1800.000000	28.844632
1799.000000	28.800196
1798.000000	28.752914
1797.000000	28.745831
1796.000000	28.715044
1795.000000	28.673770
1794.000000	28.676151
1793.000000	28.653152
1792.000000	28.606657
1791.000000	28.570472
1790.000000	28.555715
1789.000000	28.524390
1788.000000	28.495251
1787.000000	28.457678
1786.000000	28.416795
1785.000000	28.385455
1784.000000	28.350856
1783.000000	28.322299
1782.000000	28.276230
1781.000000	28.234234
1780.000000	28.173543
1779.000000	28.131406
1778.000000	28.081177
1777.000000	28.013493
1776.000000	27.932055
1775.000000	27.873600
1774.000000	27.800218
1773.000000	27.736537
1772.000000	27.659866
1771.000000	27.569329
1770.000000	27.521740
1769.000000	27.414305
1768.000000	27.332520
1767.000000	27.257184
1766.000000	27.211840
1765.000000	27.150368
1764.000000	27.074043
1763.000000	26.995256
1762.000000	26.911656
1761.000000	26.827296
1760.000000	26.755265
1759.000000	26.670489
1758.000000	26.608034
1757.000000	26.545880
1756.000000	26.450236
1755.000000	26.389539
1754.000000	26.287044
1753.000000	26.225628
1752.000000	26.170448
1751.000000	26.097908
1750.000000	26.019058
1749.000000	25.961300
1748.000000	25.878762
1747.000000	25.805856
1746.000000	25.724867
1745.000000	25.639379
1744.000000	25.573097
1743.000000	25.489084
1742.000000	25.402287
1741.000000	25.330316
1740.000000	25.280049
1739.000000	25.217078
1738.000000	25.169584
1737.000000	25.116442
1736.000000	25.076091
1735.000000	25.069874
1734.000000	25.068650
1733.000000	25.029446
1732.000000	25.008673
1731.000000	25.034972
1730.000000	25.049915
1729.000000	25.112124
1728.000000	25.134388
1727.000000	25.209287
1726.000000	25.283139
1725.000000	25.349798
1724.000000	25.461690
1723.000000	25.521018
1722.000000	25.655164
1721.000000	25.771653
1720.000000	25.853420
1719.000000	25.987483
1718.000000	26.097917
1717.000000	26.189785
1716.000000	26.322032
1715.000000	26.432508
1714.000000	26.545557
1713.000000	26.639262
1712.000000	26.704009
1711.000000	26.804718
1710.000000	26.875870
1709.000000	26.922414
1708.000000	26.976866
1707.000000	27.016215
1706.000000	27.065556
1705.000000	27.092537
1704.000000	27.141561
1703.000000	27.152256
1702.000000	27.159094
1701.000000	27.179450
1700.000000	27.224031
1699.000000	27.193620
1698.000000	27.246253
1697.000000	27.292365
1696.000000	27.360956
1695.000000	27.385319
1694.000000	27.444059
1693.000000	27.515119
1692.000000	27.565948
1691.000000	27.677172
1690.000000	27.785284
1689.000000	27.873553
1688.000000	28.035200
1687.000000	28.192577
1686.000000	28.370160
1685.000000	28.564560
1684.000000	28.754556
1683.000000	28.948876
1682.000000	29.164144
1681.000000	29.394892
1680.000000	29.647831
1679.000000	29.875657
1678.000000	30.125717
1677.000000	30.380995
1676.000000	30.607448
1675.000000	30.879295
1674.000000	31.134677
1673.000000	31.383906
1672.000000	31.596712
1671.000000	31.837108
1670.000000	32.068002
1669.000000	32.329449
1668.000000	32.489054
1667.000000	32.697640
1666.000000	32.838366
1665.000000	32.976094
1664.000000	33.107366
1663.000000	33.234354
1662.000000	33.380547
1661.000000	33.479026
1660.000000	33.586364
1659.000000	33.680063
1658.000000	33.748436
1657.000000	33.817361
1656.000000	33.877567
1655.000000	33.938522
1654.000000	33.989852
1653.000000	34.008022
1652.000000	34.043910
1651.000000	34.032744
1650.000000	34.022828
1649.000000	34.030734
1648.000000	34.042797
1647.000000	34.017542
1646.000000	34.027931
1645.000000	34.006002
1644.000000	33.983944
1643.000000	33.948004
1642.000000	33.928854
1641.000000	33.893919
1640.000000	33.845407
1639.000000	33.801549
1638.000000	33.762995
1637.000000	33.715999
1636.000000	33.658133
1635.000000	33.614173
1634.000000	33.575251
1633.000000	33.517624
1632.000000	33.467778
1631.000000	33.412086
1630.000000	33.358271
1629.000000	33.304744
1628.000000	33.225033
1627.000000	33.164367
1626.000000	33.100714
1625.000000	33.039823
1624.000000	32.985047
1623.000000	32.915186
1622.000000	32.855126
1621.000000	32.788647
1620.000000	32.729431
1619.000000	32.651919
1618.000000	32.567126
1617.000000	32.508923
1616.000000	32.447209
1615.000000	32.352929
1614.000000	32.274470
1613.000000	32.199748
1612.000000	32.116719
1611.000000	32.046958
1610.000000	31.962663
1609.000000	31.870198
1608.000000	31.792742
1607.000000	31.715440
1606.000000	31.629104
1605.000000	31.535310
1604.000000	31.445168
1603.000000	31.359560
1602.000000	31.277231
1601.000000	31.208185
1600.000000	31.129470
1599.000000	31.048480
1598.000000	30.969310
1597.000000	30.880992
1596.000000	30.810189
1595.000000	30.735515
1594.000000	30.667073
1593.000000	30.594244
1592.000000	30.514516
1591.000000	30.441154
1590.000000	30.381531
1589.000000	30.316291
1588.000000	30.236542
1587.000000	30.178543
1586.000000	30.128661
1585.000000	30.058839
1584.000000	29.998855
1583.000000	29.932688
1582.000000	29.870868
1581.000000	29.823624
1580.000000	29.757725
1579.000000	29.693673
1578.000000	29.644684
1577.000000	29.584353
1576.000000	29.523203
1575.000000	29.467920
1574.000000	29.408546
1573.000000	29.344811
1572.000000	29.278291
1571.000000	29.239148
1570.000000	29.190634
1569.000000	29.130244
1568.000000	29.086192
1567.000000	29.045028
1566.000000	28.991422
1565.000000	28.938701
1564.000000	28.914301
1563.000000	28.894122
1562.000000	28.855507
1561.000000	28.816287
1560.000000	28.790891
1559.000000	28.757392
1558.000000	28.734314
1557.000000	28.710289
1556.000000	28.674258
1555.000000	28.646886
1554.000000	28.626848
1553.000000	28.588506
1552.000000	28.549228
1551.000000	28.509842
1550.000000	28.474656
1549.000000	28.425396
1548.000000	28.381329
1547.000000	28.308206
1546.000000	28.244480
1545.000000	28.165811
1544.000000	28.070655
1543.000000	27.993690
1542.000000	27.914703
1541.000000	27.808872
1540.000000	27.707409
1539.000000	27.608064
1538.000000	27.491182
1537.000000	27.384195
1536.000000	27.289129
1535.000000	27.190579
1534.000000	27.073012
1533.000000	26.966399
1532.000000	26.852774
1531.000000	26.741777
1530.000000	26.639020
1529.000000	26.531706
1528.000000	26.444220
1527.000000	26.358563
1526.000000	26.262629
1525.000000	26.182510
1524.000000	26.099101
1523.000000	26.034624
1522.000000	25.959915
1521.000000	25.901262
1520.000000	25.838090
1519.000000	25.767859
1518.000000	25.729294
1517.000000	25.675573
1516.000000	25.633359
1515.000000	25.584965
1514.000000	25.531460
1513.000000	25.518996
1512.000000	25.479257
1511.000000	25.442130
1510.000000	25.408639
1509.000000	25.387566
1508.000000	25.360793
1507.000000	25.361576
1506.000000	25.341992
1505.000000	25.325770
1504.000000	25.318212
1503.000000	25.314095
1502.000000	25.295781
1501.000000	25.280363
1500.000000	25.289354
1499.000000	25.304315
1498.000000	25.304352
1497.000000	25.341770
1496.000000	25.353693
1495.000000	25.389851
1494.000000	25.427597
1493.000000	25.471374
1492.000000	25.536348
1491.000000	25.580260
1490.000000	25.632290
1489.000000	25.693603
1488.000000	25.744801
1487.000000	25.813340
1486.000000	25.889983
1485.000000	25.962101
1484.000000	26.052000
1483.000000	26.148980
1482.000000	26.215356
1481.000000	26.335790
1480.000000	26.414133
1479.000000	26.499910
1478.000000	26.590602
1477.000000	26.666606
1476.000000	26.762405
1475.000000	26.853930
1474.000000	26.945990
1473.000000	27.045334
1472.000000	27.118508
1471.000000	27.207727
1470.000000	27.296191
1469.000000	27.382711
1468.000000	27.475773
1467.000000	27.525797
1466.000000	27.612339
1465.000000	27.671938
