PE UV       SUBTECH     SPECTRUM    ASCII       PEDS        4.00        
   -1
RTVeauAl 52.Sample.asc
18/03/02
14:56:42.00
18/03/02
14:56:42.00
Administrator

200.000000
1
Lambda 750
750N8071901
PerkinElmer UV WinLab 6.0.4.0738 / 1.61.00 Lambda 900

0
0
3350/servo 860.8/2
0
0
UV/VIS
1
1
1
CommonBeamDepol,150mm sphere / downward view
0
0
0
0
Program
Program
3350/servo 860.8/2
3350/0.2 860.8/0.2
3350/0.2 860.8/0.2
0
1
 
 
 
0
 
860.8
319.2
860.8
Front
100
on
 
 
0
0
0
 
0
 
 
 
0
 
 
0
0
0
0
0
 
 
 
 
0
0


0
0
#HDR
-1
-1
#GR
nm
%R
1.0
0.0
2350.000000
-1.000000
2151
8
60.383730
13.457730
#DATA
2350.000000	27.178470
2349.000000	26.927511
2348.000000	27.267388
2347.000000	27.810428
2346.000000	27.677755
2345.000000	27.548502
2344.000000	27.572273
2343.000000	27.209693
2342.000000	27.457756
2341.000000	27.231567
2340.000000	27.682826
2339.000000	27.513711
2338.000000	27.812010
2337.000000	27.674295
2336.000000	27.743990
2335.000000	28.190331
2334.000000	28.099034
2333.000000	28.119970
2332.000000	28.429112
2331.000000	27.949816
2330.000000	27.843034
2329.000000	27.991018
2328.000000	27.609386
2327.000000	27.974216
2326.000000	27.889582
2325.000000	27.900255
2324.000000	27.745672
2323.000000	27.747103
2322.000000	27.723943
2321.000000	27.740490
2320.000000	27.432144
2319.000000	27.437466
2318.000000	27.666831
2317.000000	27.425230
2316.000000	27.261078
2315.000000	27.369075
2314.000000	27.146324
2313.000000	27.115462
2312.000000	27.097641
2311.000000	27.072185
2310.000000	27.159987
2309.000000	27.113838
2308.000000	26.892349
2307.000000	26.954847
2306.000000	26.901294
2305.000000	26.758836
2304.000000	26.714477
2303.000000	26.857123
2302.000000	26.538425
2301.000000	26.471040
2300.000000	26.434158
2299.000000	26.170912
2298.000000	26.095752
2297.000000	26.127937
2296.000000	26.077125
2295.000000	25.930991
2294.000000	26.018362
2293.000000	25.898364
2292.000000	25.863220
2291.000000	25.856651
2290.000000	25.753654
2289.000000	25.703154
2288.000000	25.649059
2287.000000	25.701956
2286.000000	25.556015
2285.000000	25.436479
2284.000000	25.285268
2283.000000	25.307691
2282.000000	25.254382
2281.000000	25.410893
2280.000000	25.429490
2279.000000	25.565558
2278.000000	25.497683
2277.000000	25.442611
2276.000000	25.470321
2275.000000	25.392916
2274.000000	25.455657
2273.000000	25.656950
2272.000000	25.752585
2271.000000	25.779918
2270.000000	25.569096
2269.000000	25.548176
2268.000000	25.683664
2267.000000	25.781647
2266.000000	25.917196
2265.000000	25.984244
2264.000000	26.095734
2263.000000	26.164342
2262.000000	26.265367
2261.000000	26.339278
2260.000000	26.485541
2259.000000	26.624129
2258.000000	26.777276
2257.000000	26.918839
2256.000000	27.018617
2255.000000	27.273390
2254.000000	27.374584
2253.000000	27.597538
2252.000000	27.838462
2251.000000	27.919471
2250.000000	28.135785
2249.000000	28.365921
2248.000000	28.488851
2247.000000	28.569621
2246.000000	28.783664
2245.000000	28.951286
2244.000000	29.130309
2243.000000	29.296703
2242.000000	29.340542
2241.000000	29.501494
2240.000000	29.707690
2239.000000	29.801019
2238.000000	29.911802
2237.000000	30.114073
2236.000000	30.176053
2235.000000	30.157005
2234.000000	30.237145
2233.000000	30.351936
2232.000000	30.380385
2231.000000	30.499794
2230.000000	30.571842
2229.000000	30.641717
2228.000000	30.696891
2227.000000	30.534855
2226.000000	30.462767
2225.000000	30.496148
2224.000000	30.547768
2223.000000	30.563444
2222.000000	30.587348
2221.000000	30.583718
2220.000000	30.466691
2219.000000	30.461775
2218.000000	30.430245
2217.000000	30.479798
2216.000000	30.434475
2215.000000	30.372707
2214.000000	30.294905
2213.000000	30.335863
2212.000000	30.220294
2211.000000	30.091124
2210.000000	30.052337
2209.000000	30.091915
2208.000000	30.021261
2207.000000	29.975193
2206.000000	30.034553
2205.000000	29.919122
2204.000000	29.898261
2203.000000	29.694095
2202.000000	29.562220
2201.000000	29.606230
2200.000000	29.525728
2199.000000	29.411966
2198.000000	29.450258
2197.000000	29.510693
2196.000000	29.373620
2195.000000	29.233019
2194.000000	29.077747
2193.000000	29.034725
2192.000000	28.943553
2191.000000	28.895402
2190.000000	28.835382
2189.000000	28.808776
2188.000000	28.818002
2187.000000	28.778430
2186.000000	28.816637
2185.000000	28.773570
2184.000000	28.688929
2183.000000	28.707206
2182.000000	28.539199
2181.000000	28.469524
2180.000000	28.552400
2179.000000	28.607414
2178.000000	28.495889
2177.000000	28.473572
2176.000000	28.488244
2175.000000	28.480043
2174.000000	28.554017
2173.000000	28.481614
2172.000000	28.527828
2171.000000	28.733927
2170.000000	28.627039
2169.000000	28.789777
2168.000000	29.003863
2167.000000	28.900263
2166.000000	29.011245
2165.000000	29.116884
2164.000000	29.140146
2163.000000	29.252889
2162.000000	29.542134
2161.000000	29.528646
2160.000000	29.607468
2159.000000	29.745883
2158.000000	29.760063
2157.000000	29.782750
2156.000000	30.008249
2155.000000	30.303594
2154.000000	30.277437
2153.000000	30.439419
2152.000000	30.488994
2151.000000	30.539513
2150.000000	30.863938
2149.000000	30.960622
2148.000000	31.157677
2147.000000	31.336623
2146.000000	31.255140
2145.000000	31.508790
2144.000000	31.760419
2143.000000	31.645848
2142.000000	31.890278
2141.000000	32.143812
2140.000000	32.211012
2139.000000	32.114895
2138.000000	32.377833
2137.000000	32.574231
2136.000000	32.452757
2135.000000	32.648609
2134.000000	32.883477
2133.000000	32.759109
2132.000000	33.042204
2131.000000	33.111156
2130.000000	33.332730
2129.000000	33.247263
2128.000000	33.318477
2127.000000	33.292657
2126.000000	33.317487
2125.000000	33.448134
2124.000000	33.464258
2123.000000	33.580371
2122.000000	33.692687
2121.000000	33.716243
2120.000000	33.715337
2119.000000	33.768078
2118.000000	33.789435
2117.000000	33.854038
2116.000000	33.926090
2115.000000	33.940871
2114.000000	33.852606
2113.000000	33.871026
2112.000000	34.139342
2111.000000	34.002699
2110.000000	33.959548
2109.000000	33.968914
2108.000000	34.263975
2107.000000	34.182643
2106.000000	34.155895
2105.000000	34.195531
2104.000000	34.200488
2103.000000	34.237542
2102.000000	34.275999
2101.000000	34.303990
2100.000000	34.304383
2099.000000	34.384394
2098.000000	34.351281
2097.000000	34.355625
2096.000000	34.317211
2095.000000	34.231779
2094.000000	34.426900
2093.000000	34.354362
2092.000000	34.440863
2091.000000	34.356338
2090.000000	34.237494
2089.000000	34.332897
2088.000000	34.440732
2087.000000	34.304742
2086.000000	34.285060
2085.000000	34.216702
2084.000000	34.100470
2083.000000	34.073727
2082.000000	34.046704
2081.000000	34.027016
2080.000000	34.004759
2079.000000	33.965957
2078.000000	33.841759
2077.000000	33.883262
2076.000000	33.769959
2075.000000	33.563913
2074.000000	33.449221
2073.000000	33.433337
2072.000000	33.319915
2071.000000	33.245757
2070.000000	33.218723
2069.000000	33.101372
2068.000000	32.872038
2067.000000	32.750802
2066.000000	32.590436
2065.000000	32.491134
2064.000000	32.462175
2063.000000	32.234090
2062.000000	32.067917
2061.000000	31.966398
2060.000000	31.793668
2059.000000	31.665967
2058.000000	31.569008
2057.000000	31.398951
2056.000000	31.326126
2055.000000	31.219744
2054.000000	31.082466
2053.000000	30.997504
2052.000000	30.839197
2051.000000	30.700323
2050.000000	30.563354
2049.000000	30.473174
2048.000000	30.402124
2047.000000	30.353619
2046.000000	30.282580
2045.000000	30.285537
2044.000000	30.248439
2043.000000	30.200433
2042.000000	30.238136
2041.000000	30.227487
2040.000000	30.252879
2039.000000	30.304507
2038.000000	30.340925
2037.000000	30.381378
2036.000000	30.436767
2035.000000	30.494479
2034.000000	30.595154
2033.000000	30.716768
2032.000000	30.833690
2031.000000	30.954420
2030.000000	31.068748
2029.000000	31.191102
2028.000000	31.284635
2027.000000	31.411898
2026.000000	31.615532
2025.000000	31.747913
2024.000000	31.852095
2023.000000	31.927351
2022.000000	32.004694
2021.000000	32.090344
2020.000000	32.173797
2019.000000	32.250007
2018.000000	32.271443
2017.000000	32.315778
2016.000000	32.353173
2015.000000	32.384300
2014.000000	32.430088
2013.000000	32.449616
2012.000000	32.415238
2011.000000	32.392813
2010.000000	32.413180
2009.000000	32.380993
2008.000000	32.306845
2007.000000	32.278416
2006.000000	32.230092
2005.000000	32.197696
2004.000000	32.122473
2003.000000	32.064913
2002.000000	32.015781
2001.000000	31.930390
2000.000000	31.863410
1999.000000	31.802162
1998.000000	31.716437
1997.000000	31.658570
1996.000000	31.573025
1995.000000	31.476493
1994.000000	31.387413
1993.000000	31.294513
1992.000000	31.222104
1991.000000	31.114519
1990.000000	31.050277
1989.000000	30.973975
1988.000000	30.876318
1987.000000	30.801287
1986.000000	30.716469
1985.000000	30.659794
1984.000000	30.590780
1983.000000	30.509369
1982.000000	30.441550
1981.000000	30.353884
1980.000000	30.268486
1979.000000	30.183810
1978.000000	30.099687
1977.000000	30.022998
1976.000000	29.933116
1975.000000	29.849225
1974.000000	29.774478
1973.000000	29.684147
1972.000000	29.649523
1971.000000	29.573660
1970.000000	29.484759
1969.000000	29.388383
1968.000000	29.338276
1967.000000	29.294892
1966.000000	29.215472
1965.000000	29.141078
1964.000000	29.100570
1963.000000	29.038898
1962.000000	28.934559
1961.000000	28.825467
1960.000000	28.785783
1959.000000	28.675752
1958.000000	28.579285
1957.000000	28.571819
1956.000000	28.500478
1955.000000	28.414879
1954.000000	28.415711
1953.000000	28.363811
1952.000000	28.292896
1951.000000	28.248111
1950.000000	28.166914
1949.000000	28.126550
1948.000000	28.105907
1947.000000	28.089558
1946.000000	28.060544
1945.000000	28.074141
1944.000000	28.031863
1943.000000	28.084603
1942.000000	28.125326
1941.000000	28.120904
1940.000000	28.139419
1939.000000	28.152996
1938.000000	28.206741
1937.000000	28.329908
1936.000000	28.367852
1935.000000	28.459594
1934.000000	28.451166
1933.000000	28.670875
1932.000000	28.734070
1931.000000	28.861474
1930.000000	29.012690
1929.000000	29.224292
1928.000000	29.340295
1927.000000	29.543784
1926.000000	29.692794
1925.000000	29.946760
1924.000000	30.098699
1923.000000	30.310845
1922.000000	30.508084
1921.000000	30.827033
1920.000000	31.066650
1919.000000	31.278812
1918.000000	31.537387
1917.000000	31.816606
1916.000000	32.054847
1915.000000	32.423879
1914.000000	32.762791
1913.000000	33.105518
1912.000000	33.509295
1911.000000	33.698826
1910.000000	34.106442
1909.000000	34.427945
1908.000000	34.767990
1907.000000	35.210045
1906.000000	35.612629
1905.000000	35.986234
1904.000000	36.370451
1903.000000	36.827230
1902.000000	37.242885
1901.000000	37.661495
1900.000000	38.166456
1899.000000	38.533058
1898.000000	39.007421
1897.000000	39.401803
1896.000000	39.821639
1895.000000	40.237893
1894.000000	40.631412
1893.000000	41.080865
1892.000000	41.508718
1891.000000	41.926533
1890.000000	42.298575
1889.000000	42.705530
1888.000000	43.087710
1887.000000	43.415854
1886.000000	43.799858
1885.000000	44.155589
1884.000000	44.497399
1883.000000	44.791108
1882.000000	45.031489
1881.000000	45.363675
1880.000000	45.692567
1879.000000	45.939061
1878.000000	46.165366
1877.000000	46.413493
1876.000000	46.632291
1875.000000	46.843511
1874.000000	47.075601
1873.000000	47.259814
1872.000000	47.412503
1871.000000	47.561474
1870.000000	47.737563
1869.000000	47.904104
1868.000000	48.015190
1867.000000	48.059356
1866.000000	48.154438
1865.000000	48.232023
1864.000000	48.303719
1863.000000	48.361529
1862.000000	48.434187
1861.000000	48.464077
1860.000000	48.533733
1859.000000	48.562910
1858.000000	48.603392
1857.000000	48.619843
1856.000000	48.673609
1855.000000	48.716223
1854.000000	48.772146
1853.000000	48.785399
1852.000000	48.771181
1851.000000	48.754636
1850.000000	48.742346
1849.000000	48.739852
1848.000000	48.734205
1847.000000	48.751519
1846.000000	48.760111
1845.000000	48.753126
1844.000000	48.713605
1843.000000	48.664108
1842.000000	48.639671
1841.000000	48.647299
1840.000000	48.613138
1839.000000	48.584568
1838.000000	48.583978
1837.000000	48.523232
1836.000000	48.486825
1835.000000	48.477546
1834.000000	48.438426
1833.000000	48.411824
1832.000000	48.386346
1831.000000	48.331266
1830.000000	48.289555
1829.000000	48.238429
1828.000000	48.202164
1827.000000	48.170856
1826.000000	48.151053
1825.000000	48.128867
1824.000000	48.097367
1823.000000	48.088598
1822.000000	48.048152
1821.000000	47.999011
1820.000000	47.951075
1819.000000	47.925642
1818.000000	47.909483
1817.000000	47.888276
1816.000000	47.856887
1815.000000	47.822078
1814.000000	47.794399
1813.000000	47.758313
1812.000000	47.712569
1811.000000	47.670804
1810.000000	47.650550
1809.000000	47.639043
1808.000000	47.607103
1807.000000	47.552262
1806.000000	47.529460
1805.000000	47.503888
1804.000000	47.462222
1803.000000	47.446473
1802.000000	47.422328
1801.000000	47.387853
1800.000000	47.362813
1799.000000	47.340963
1798.000000	47.328382
1797.000000	47.298733
1796.000000	47.264511
1795.000000	47.255464
1794.000000	47.239143
1793.000000	47.208931
1792.000000	47.199204
1791.000000	47.193824
1790.000000	47.161526
1789.000000	47.130438
1788.000000	47.104516
1787.000000	47.069439
1786.000000	47.026601
1785.000000	47.005468
1784.000000	46.999280
1783.000000	46.977495
1782.000000	46.930312
1781.000000	46.878147
1780.000000	46.810066
1779.000000	46.793645
1778.000000	46.748380
1777.000000	46.676673
1776.000000	46.632497
1775.000000	46.574093
1774.000000	46.515409
1773.000000	46.476632
1772.000000	46.428506
1771.000000	46.348382
1770.000000	46.278023
1769.000000	46.246970
1768.000000	46.193100
1767.000000	46.122197
1766.000000	46.057016
1765.000000	46.027408
1764.000000	45.990139
1763.000000	45.912850
1762.000000	45.863490
1761.000000	45.792860
1760.000000	45.701492
1759.000000	45.651312
1758.000000	45.595155
1757.000000	45.544935
1756.000000	45.514116
1755.000000	45.452803
1754.000000	45.363494
1753.000000	45.342082
1752.000000	45.282297
1751.000000	45.212649
1750.000000	45.158755
1749.000000	45.123588
1748.000000	45.047958
1747.000000	44.962767
1746.000000	44.912985
1745.000000	44.854516
1744.000000	44.779744
1743.000000	44.741128
1742.000000	44.662679
1741.000000	44.608981
1740.000000	44.553662
1739.000000	44.480744
1738.000000	44.451632
1737.000000	44.388245
1736.000000	44.372355
1735.000000	44.344735
1734.000000	44.350694
1733.000000	44.339710
1732.000000	44.322438
1731.000000	44.332727
1730.000000	44.329666
1729.000000	44.378455
1728.000000	44.439520
1727.000000	44.457583
1726.000000	44.515357
1725.000000	44.574312
1724.000000	44.632585
1723.000000	44.724393
1722.000000	44.814130
1721.000000	44.911309
1720.000000	45.001983
1719.000000	45.124558
1718.000000	45.187035
1717.000000	45.265215
1716.000000	45.377329
1715.000000	45.467262
1714.000000	45.517867
1713.000000	45.626979
1712.000000	45.687580
1711.000000	45.770592
1710.000000	45.831179
1709.000000	45.885471
1708.000000	45.922817
1707.000000	45.998666
1706.000000	46.012837
1705.000000	46.059544
1704.000000	46.145681
1703.000000	46.127944
1702.000000	46.144582
1701.000000	46.185559
1700.000000	46.155710
1699.000000	46.188974
1698.000000	46.243059
1697.000000	46.252724
1696.000000	46.312299
1695.000000	46.293284
1694.000000	46.378061
1693.000000	46.407703
1692.000000	46.461365
1691.000000	46.545805
1690.000000	46.620710
1689.000000	46.695877
1688.000000	46.795826
1687.000000	46.910129
1686.000000	47.034260
1685.000000	47.167664
1684.000000	47.322020
1683.000000	47.464484
1682.000000	47.611329
1681.000000	47.786570
1680.000000	47.944626
1679.000000	48.116439
1678.000000	48.286397
1677.000000	48.483420
1676.000000	48.667162
1675.000000	48.822103
1674.000000	49.017958
1673.000000	49.185201
1672.000000	49.342311
1671.000000	49.496577
1670.000000	49.661367
1669.000000	49.835684
1668.000000	49.963376
1667.000000	50.143025
1666.000000	50.229412
1665.000000	50.314084
1664.000000	50.421990
1663.000000	50.529930
1662.000000	50.618146
1661.000000	50.689400
1660.000000	50.755713
1659.000000	50.834296
1658.000000	50.899914
1657.000000	50.953065
1656.000000	50.980968
1655.000000	51.007279
1654.000000	51.049719
1653.000000	51.079231
1652.000000	51.112683
1651.000000	51.109168
1650.000000	51.110647
1649.000000	51.132711
1648.000000	51.128637
1647.000000	51.142690
1646.000000	51.128415
1645.000000	51.118071
1644.000000	51.102610
1643.000000	51.082521
1642.000000	51.058898
1641.000000	51.043478
1640.000000	51.029667
1639.000000	50.991410
1638.000000	50.963273
1637.000000	50.957751
1636.000000	50.921814
1635.000000	50.899734
1634.000000	50.870789
1633.000000	50.820786
1632.000000	50.785439
1631.000000	50.764123
1630.000000	50.719510
1629.000000	50.677223
1628.000000	50.637578
1627.000000	50.593217
1626.000000	50.560585
1625.000000	50.522001
1624.000000	50.476077
1623.000000	50.444884
1622.000000	50.398962
1621.000000	50.339747
1620.000000	50.310151
1619.000000	50.250827
1618.000000	50.196603
1617.000000	50.165733
1616.000000	50.123950
1615.000000	50.066755
1614.000000	50.006584
1613.000000	49.953201
1612.000000	49.907216
1611.000000	49.859605
1610.000000	49.799330
1609.000000	49.750945
1608.000000	49.693488
1607.000000	49.626725
1606.000000	49.556436
1605.000000	49.495273
1604.000000	49.449535
1603.000000	49.384952
1602.000000	49.323555
1601.000000	49.266705
1600.000000	49.216643
1599.000000	49.168597
1598.000000	49.107172
1597.000000	49.055121
1596.000000	49.000813
1595.000000	48.943142
1594.000000	48.892904
1593.000000	48.841711
1592.000000	48.786441
1591.000000	48.749842
1590.000000	48.694538
1589.000000	48.635055
1588.000000	48.598102
1587.000000	48.555887
1586.000000	48.501761
1585.000000	48.468511
1584.000000	48.425194
1583.000000	48.371467
1582.000000	48.331337
1581.000000	48.293908
1580.000000	48.255041
1579.000000	48.216935
1578.000000	48.179590
1577.000000	48.138441
1576.000000	48.102767
1575.000000	48.064592
1574.000000	48.028858
1573.000000	47.974465
1572.000000	47.933211
1571.000000	47.883410
1570.000000	47.853685
1569.000000	47.822872
1568.000000	47.790627
1567.000000	47.753112
1566.000000	47.720771
1565.000000	47.693612
1564.000000	47.666632
1563.000000	47.645376
1562.000000	47.630963
1561.000000	47.607228
1560.000000	47.591426
1559.000000	47.574292
1558.000000	47.546422
1557.000000	47.526053
1556.000000	47.507311
1555.000000	47.491725
1554.000000	47.470142
1553.000000	47.454895
1552.000000	47.442071
1551.000000	47.409804
1550.000000	47.387187
1549.000000	47.345702
1548.000000	47.309618
1547.000000	47.267706
1546.000000	47.221519
1545.000000	47.162824
1544.000000	47.092295
1543.000000	47.037324
1542.000000	46.977225
1541.000000	46.894785
1540.000000	46.825877
1539.000000	46.737442
1538.000000	46.653163
1537.000000	46.574089
1536.000000	46.481753
1535.000000	46.403289
1534.000000	46.312037
1533.000000	46.231152
1532.000000	46.130112
1531.000000	46.045629
1530.000000	45.979073
1529.000000	45.897590
1528.000000	45.810490
1527.000000	45.742104
1526.000000	45.670030
1525.000000	45.604470
1524.000000	45.533850
1523.000000	45.467219
1522.000000	45.419973
1521.000000	45.365901
1520.000000	45.335083
1519.000000	45.268533
1518.000000	45.210072
1517.000000	45.170357
1516.000000	45.132399
1515.000000	45.090698
1514.000000	45.065107
1513.000000	45.008753
1512.000000	44.989961
1511.000000	44.974516
1510.000000	44.965854
1509.000000	45.003130
1508.000000	45.011119
1507.000000	44.999261
1506.000000	45.014595
1505.000000	44.967921
1504.000000	44.920541
1503.000000	44.892803
1502.000000	44.874074
1501.000000	44.866028
1500.000000	44.880563
1499.000000	44.885165
1498.000000	44.901557
1497.000000	44.918667
1496.000000	44.925699
1495.000000	44.948968
1494.000000	44.976011
1493.000000	45.010989
1492.000000	45.069923
1491.000000	45.099973
1490.000000	45.164527
1489.000000	45.206388
1488.000000	45.278796
1487.000000	45.330283
1486.000000	45.409309
1485.000000	45.476173
1484.000000	45.552632
1483.000000	45.647771
1482.000000	45.691962
1481.000000	45.799627
1480.000000	45.874197
1479.000000	45.945648
1478.000000	46.017664
1477.000000	46.114716
1476.000000	46.186091
1475.000000	46.270448
1474.000000	46.334895
1473.000000	46.422955
1472.000000	46.494702
1471.000000	46.553600
1470.000000	46.664304
