PE UV       SUBTECH     SPECTRUM    ASCII       PEDS        4.00        
   -1
RTVeauAl 62.Sample.asc
18/03/02
15:07:00.00
18/03/02
15:07:00.00
Administrator

200.000000
1
Lambda 750
750N8071901
PerkinElmer UV WinLab 6.0.4.0738 / 1.61.00 Lambda 900

0
0
3350/servo 860.8/2
0
0
UV/VIS
1
1
1
CommonBeamDepol,150mm sphere / downward view
0
0
0
0
Program
Program
3350/servo 860.8/2
3350/0.2 860.8/0.2
3350/0.2 860.8/0.2
0
1
 
 
 
0
 
860.8
319.2
860.8
Front
100
on
 
 
0
0
0
 
0
 
 
 
0
 
 
0
0
0
0
0
 
 
 
 
0
0


0
0
#HDR
-1
-1
#GR
nm
%R
1.0
0.0
2350.000000
-1.000000
2151
8
65.573605
15.819039
#DATA
2350.000000	30.064563
2349.000000	29.845583
2348.000000	29.989336
2347.000000	30.622948
2346.000000	29.998377
2345.000000	30.084958
2344.000000	30.132853
2343.000000	29.618093
2342.000000	30.267943
2341.000000	29.808831
2340.000000	30.133671
2339.000000	30.190288
2338.000000	30.346547
2337.000000	30.136748
2336.000000	30.565839
2335.000000	30.494862
2334.000000	30.528821
2333.000000	30.674747
2332.000000	30.766253
2331.000000	30.591180
2330.000000	30.205645
2329.000000	30.679383
2328.000000	30.484784
2327.000000	30.369732
2326.000000	30.541714
2325.000000	30.364195
2324.000000	30.317072
2323.000000	30.247446
2322.000000	29.965693
2321.000000	30.104011
2320.000000	30.216328
2319.000000	30.179199
2318.000000	30.195547
2317.000000	30.142867
2316.000000	30.162429
2315.000000	30.192990
2314.000000	29.855450
2313.000000	29.564040
2312.000000	29.669042
2311.000000	29.686237
2310.000000	29.594388
2309.000000	29.543377
2308.000000	29.599715
2307.000000	29.405839
2306.000000	29.385577
2305.000000	29.442929
2304.000000	29.233660
2303.000000	29.093015
2302.000000	29.183227
2301.000000	29.011467
2300.000000	29.012621
2299.000000	28.873694
2298.000000	28.705893
2297.000000	28.729226
2296.000000	28.651964
2295.000000	28.540396
2294.000000	28.545759
2293.000000	28.441340
2292.000000	28.243280
2291.000000	28.204310
2290.000000	28.191452
2289.000000	28.165455
2288.000000	28.212236
2287.000000	28.237720
2286.000000	28.021734
2285.000000	27.888271
2284.000000	27.963534
2283.000000	27.964873
2282.000000	27.817895
2281.000000	28.076703
2280.000000	28.033841
2279.000000	27.922220
2278.000000	27.873794
2277.000000	27.931372
2276.000000	27.951504
2275.000000	27.976635
2274.000000	28.080484
2273.000000	28.201957
2272.000000	28.260729
2271.000000	28.202300
2270.000000	28.161800
2269.000000	28.245391
2268.000000	28.247486
2267.000000	28.316145
2266.000000	28.389635
2265.000000	28.617726
2264.000000	28.672712
2263.000000	28.682833
2262.000000	28.761595
2261.000000	28.941854
2260.000000	29.177582
2259.000000	29.218578
2258.000000	29.383866
2257.000000	29.536120
2256.000000	29.628784
2255.000000	29.757086
2254.000000	29.865571
2253.000000	30.033599
2252.000000	30.306254
2251.000000	30.460243
2250.000000	30.634731
2249.000000	30.866184
2248.000000	30.909963
2247.000000	31.138255
2246.000000	31.478125
2245.000000	31.630909
2244.000000	31.847317
2243.000000	31.979292
2242.000000	31.971341
2241.000000	32.134713
2240.000000	32.354317
2239.000000	32.460565
2238.000000	32.656010
2237.000000	32.761957
2236.000000	32.817406
2235.000000	32.893782
2234.000000	32.918868
2233.000000	33.037427
2232.000000	33.095791
2231.000000	33.185093
2230.000000	33.148597
2229.000000	33.147868
2228.000000	33.319057
2227.000000	33.327706
2226.000000	33.295873
2225.000000	33.261944
2224.000000	33.135829
2223.000000	33.091028
2222.000000	33.109153
2221.000000	33.111049
2220.000000	33.188280
2219.000000	33.228784
2218.000000	33.149122
2217.000000	33.165355
2216.000000	33.191295
2215.000000	33.235774
2214.000000	33.102467
2213.000000	32.965195
2212.000000	32.929041
2211.000000	32.910210
2210.000000	32.864187
2209.000000	32.769222
2208.000000	32.644307
2207.000000	32.643632
2206.000000	32.665501
2205.000000	32.457926
2204.000000	32.309641
2203.000000	32.284446
2202.000000	32.255752
2201.000000	32.314964
2200.000000	32.174066
2199.000000	32.024294
2198.000000	32.145144
2197.000000	32.156382
2196.000000	31.970783
2195.000000	31.829378
2194.000000	31.698589
2193.000000	31.705878
2192.000000	31.695033
2191.000000	31.611503
2190.000000	31.542592
2189.000000	31.366559
2188.000000	31.322928
2187.000000	31.432355
2186.000000	31.309165
2185.000000	31.219043
2184.000000	31.175215
2183.000000	31.308746
2182.000000	31.293467
2181.000000	31.104532
2180.000000	31.046857
2179.000000	31.066940
2178.000000	31.126190
2177.000000	31.144342
2176.000000	31.068115
2175.000000	31.267522
2174.000000	31.297042
2173.000000	31.259708
2172.000000	31.269138
2171.000000	31.278177
2170.000000	31.385135
2169.000000	31.322807
2168.000000	31.460487
2167.000000	31.489366
2166.000000	31.518674
2165.000000	31.766967
2164.000000	31.804260
2163.000000	31.885718
2162.000000	32.038974
2161.000000	31.990408
2160.000000	32.175853
2159.000000	32.468468
2158.000000	32.389980
2157.000000	32.642783
2156.000000	32.823341
2155.000000	32.903690
2154.000000	32.984254
2153.000000	33.257877
2152.000000	33.398731
2151.000000	33.528956
2150.000000	33.709298
2149.000000	33.659859
2148.000000	33.760821
2147.000000	34.045136
2146.000000	34.063847
2145.000000	34.222423
2144.000000	34.282259
2143.000000	34.405471
2142.000000	34.639750
2141.000000	35.036226
2140.000000	35.032033
2139.000000	35.019935
2138.000000	35.369148
2137.000000	35.387162
2136.000000	35.336681
2135.000000	35.499545
2134.000000	35.533701
2133.000000	35.654175
2132.000000	35.894908
2131.000000	35.836524
2130.000000	35.982275
2129.000000	35.995840
2128.000000	36.051514
2127.000000	36.223452
2126.000000	36.129557
2125.000000	36.252094
2124.000000	36.450030
2123.000000	36.504437
2122.000000	36.468182
2121.000000	36.439567
2120.000000	36.517446
2119.000000	36.572345
2118.000000	36.656215
2117.000000	36.738175
2116.000000	36.660915
2115.000000	36.730004
2114.000000	36.694671
2113.000000	36.649039
2112.000000	36.822353
2111.000000	36.807393
2110.000000	36.886562
2109.000000	36.983540
2108.000000	36.983665
2107.000000	37.073385
2106.000000	37.059729
2105.000000	36.983959
2104.000000	36.968604
2103.000000	37.065924
2102.000000	37.035831
2101.000000	36.997737
2100.000000	37.077919
2099.000000	37.068227
2098.000000	37.073433
2097.000000	37.173958
2096.000000	37.135872
2095.000000	37.093230
2094.000000	37.091086
2093.000000	37.045091
2092.000000	37.182253
2091.000000	37.178189
2090.000000	37.087444
2089.000000	37.091597
2088.000000	37.095021
2087.000000	37.054948
2086.000000	37.078888
2085.000000	37.027849
2084.000000	36.899197
2083.000000	36.829055
2082.000000	36.851439
2081.000000	36.784571
2080.000000	36.827570
2079.000000	36.689224
2078.000000	36.588812
2077.000000	36.578587
2076.000000	36.414424
2075.000000	36.326123
2074.000000	36.237278
2073.000000	36.140789
2072.000000	36.074253
2071.000000	35.968900
2070.000000	35.937672
2069.000000	35.755879
2068.000000	35.605374
2067.000000	35.480170
2066.000000	35.368127
2065.000000	35.217018
2064.000000	35.126649
2063.000000	34.925901
2062.000000	34.764809
2061.000000	34.600865
2060.000000	34.479333
2059.000000	34.369172
2058.000000	34.253244
2057.000000	34.083979
2056.000000	33.960971
2055.000000	33.805379
2054.000000	33.660907
2053.000000	33.535682
2052.000000	33.421700
2051.000000	33.264524
2050.000000	33.172816
2049.000000	33.153778
2048.000000	33.044293
2047.000000	32.978297
2046.000000	32.874979
2045.000000	32.824239
2044.000000	32.816580
2043.000000	32.771944
2042.000000	32.763984
2041.000000	32.781328
2040.000000	32.811778
2039.000000	32.816001
2038.000000	32.859278
2037.000000	32.910658
2036.000000	32.958351
2035.000000	33.063348
2034.000000	33.180406
2033.000000	33.298864
2032.000000	33.428283
2031.000000	33.531924
2030.000000	33.647652
2029.000000	33.783429
2028.000000	33.931755
2027.000000	34.082533
2026.000000	34.202754
2025.000000	34.297546
2024.000000	34.389049
2023.000000	34.490860
2022.000000	34.627506
2021.000000	34.722479
2020.000000	34.796815
2019.000000	34.862453
2018.000000	34.921398
2017.000000	34.961023
2016.000000	34.975982
2015.000000	35.000951
2014.000000	35.046389
2013.000000	35.055558
2012.000000	35.033808
2011.000000	35.050292
2010.000000	35.041779
2009.000000	34.994489
2008.000000	34.966355
2007.000000	34.959655
2006.000000	34.894308
2005.000000	34.854220
2004.000000	34.760945
2003.000000	34.720324
2002.000000	34.645452
2001.000000	34.568808
2000.000000	34.524324
1999.000000	34.448612
1998.000000	34.364182
1997.000000	34.270318
1996.000000	34.199815
1995.000000	34.117458
1994.000000	34.001369
1993.000000	33.902584
1992.000000	33.811823
1991.000000	33.747172
1990.000000	33.687044
1989.000000	33.554667
1988.000000	33.458641
1987.000000	33.398851
1986.000000	33.281471
1985.000000	33.231007
1984.000000	33.206884
1983.000000	33.082154
1982.000000	32.999913
1981.000000	32.921855
1980.000000	32.790868
1979.000000	32.685155
1978.000000	32.609954
1977.000000	32.513300
1976.000000	32.431992
1975.000000	32.370086
1974.000000	32.297811
1973.000000	32.224426
1972.000000	32.176228
1971.000000	32.067827
1970.000000	32.023726
1969.000000	31.906204
1968.000000	31.838425
1967.000000	31.729321
1966.000000	31.670244
1965.000000	31.588412
1964.000000	31.470668
1963.000000	31.427161
1962.000000	31.321305
1961.000000	31.281438
1960.000000	31.206353
1959.000000	31.124749
1958.000000	31.033075
1957.000000	30.993419
1956.000000	30.940771
1955.000000	30.878984
1954.000000	30.786878
1953.000000	30.736729
1952.000000	30.695425
1951.000000	30.632201
1950.000000	30.557403
1949.000000	30.504528
1948.000000	30.519422
1947.000000	30.446168
1946.000000	30.475384
1945.000000	30.417559
1944.000000	30.413396
1943.000000	30.503133
1942.000000	30.534561
1941.000000	30.460299
1940.000000	30.524213
1939.000000	30.577935
1938.000000	30.618162
1937.000000	30.770500
1936.000000	30.785257
1935.000000	30.829457
1934.000000	30.926104
1933.000000	31.104522
1932.000000	31.146680
1931.000000	31.322567
1930.000000	31.457194
1929.000000	31.634328
1928.000000	31.872816
1927.000000	32.013620
1926.000000	32.195524
1925.000000	32.334053
1924.000000	32.615379
1923.000000	32.759105
1922.000000	32.991559
1921.000000	33.299833
1920.000000	33.495413
1919.000000	33.816709
1918.000000	34.135117
1917.000000	34.419165
1916.000000	34.584323
1915.000000	34.956297
1914.000000	35.317590
1913.000000	35.726006
1912.000000	36.062395
1911.000000	36.309659
1910.000000	36.720882
1909.000000	37.115528
1908.000000	37.396975
1907.000000	37.772361
1906.000000	38.189549
1905.000000	38.706596
1904.000000	39.136210
1903.000000	39.541221
1902.000000	40.029731
1901.000000	40.457595
1900.000000	40.919464
1899.000000	41.350862
1898.000000	41.865793
1897.000000	42.325555
1896.000000	42.755109
1895.000000	43.164773
1894.000000	43.603223
1893.000000	44.096133
1892.000000	44.512934
1891.000000	44.941424
1890.000000	45.396663
1889.000000	45.798003
1888.000000	46.216370
1887.000000	46.610621
1886.000000	46.964366
1885.000000	47.322958
1884.000000	47.669447
1883.000000	48.023049
1882.000000	48.330216
1881.000000	48.672967
1880.000000	48.976558
1879.000000	49.211357
1878.000000	49.506144
1877.000000	49.805181
1876.000000	50.055121
1875.000000	50.258528
1874.000000	50.480232
1873.000000	50.680701
1872.000000	50.912375
1871.000000	51.046569
1870.000000	51.176810
1869.000000	51.305383
1868.000000	51.507757
1867.000000	51.572070
1866.000000	51.624836
1865.000000	51.735638
1864.000000	51.834142
1863.000000	51.890614
1862.000000	51.963331
1861.000000	52.035599
1860.000000	52.111382
1859.000000	52.180656
1858.000000	52.171232
1857.000000	52.223817
1856.000000	52.295210
1855.000000	52.259434
1854.000000	52.321706
1853.000000	52.360210
1852.000000	52.336444
1851.000000	52.341786
1850.000000	52.342645
1849.000000	52.329015
1848.000000	52.336455
1847.000000	52.328948
1846.000000	52.314335
1845.000000	52.309992
1844.000000	52.270168
1843.000000	52.226587
1842.000000	52.230341
1841.000000	52.220749
1840.000000	52.182805
1839.000000	52.159981
1838.000000	52.126459
1837.000000	52.084218
1836.000000	52.037181
1835.000000	52.003123
1834.000000	51.960515
1833.000000	51.951164
1832.000000	51.926398
1831.000000	51.852148
1830.000000	51.800386
1829.000000	51.769665
1828.000000	51.716599
1827.000000	51.685981
1826.000000	51.666274
1825.000000	51.612511
1824.000000	51.592793
1823.000000	51.581829
1822.000000	51.532419
1821.000000	51.489244
1820.000000	51.451843
1819.000000	51.408202
1818.000000	51.391179
1817.000000	51.361641
1816.000000	51.304105
1815.000000	51.277569
1814.000000	51.252880
1813.000000	51.223563
1812.000000	51.191231
1811.000000	51.155681
1810.000000	51.128995
1809.000000	51.114598
1808.000000	51.080666
1807.000000	51.030637
1806.000000	51.000332
1805.000000	50.954897
1804.000000	50.908087
1803.000000	50.907006
1802.000000	50.884542
1801.000000	50.837084
1800.000000	50.818500
1799.000000	50.784491
1798.000000	50.747104
1797.000000	50.734884
1796.000000	50.714049
1795.000000	50.696718
1794.000000	50.684205
1793.000000	50.653447
1792.000000	50.623470
1791.000000	50.599414
1790.000000	50.553395
1789.000000	50.525961
1788.000000	50.524579
1787.000000	50.504090
1786.000000	50.453585
1785.000000	50.409505
1784.000000	50.376130
1783.000000	50.348918
1782.000000	50.315011
1781.000000	50.275710
1780.000000	50.226914
1779.000000	50.186259
1778.000000	50.154061
1777.000000	50.100350
1776.000000	50.055230
1775.000000	49.982857
1774.000000	49.899594
1773.000000	49.847926
1772.000000	49.803928
1771.000000	49.753746
1770.000000	49.677820
1769.000000	49.625103
1768.000000	49.567580
1767.000000	49.507079
1766.000000	49.444684
1765.000000	49.378695
1764.000000	49.329424
1763.000000	49.224115
1762.000000	49.192281
1761.000000	49.144713
1760.000000	49.070182
1759.000000	49.016569
1758.000000	48.971684
1757.000000	48.894488
1756.000000	48.845278
1755.000000	48.759182
1754.000000	48.696347
1753.000000	48.632333
1752.000000	48.600682
1751.000000	48.543924
1750.000000	48.444286
1749.000000	48.416724
1748.000000	48.339311
1747.000000	48.254642
1746.000000	48.184832
1745.000000	48.130588
1744.000000	48.061778
1743.000000	47.998272
1742.000000	47.944305
1741.000000	47.864466
1740.000000	47.803960
1739.000000	47.759800
1738.000000	47.714203
1737.000000	47.656561
1736.000000	47.637963
1735.000000	47.624150
1734.000000	47.584069
1733.000000	47.563675
1732.000000	47.547685
1731.000000	47.599004
1730.000000	47.596393
1729.000000	47.621095
1728.000000	47.686806
1727.000000	47.725166
1726.000000	47.782381
1725.000000	47.834754
1724.000000	47.903749
1723.000000	48.024017
1722.000000	48.092533
1721.000000	48.218018
1720.000000	48.312120
1719.000000	48.422168
1718.000000	48.513129
1717.000000	48.606014
1716.000000	48.690694
1715.000000	48.771051
1714.000000	48.858112
1713.000000	48.961161
1712.000000	49.043904
1711.000000	49.157281
1710.000000	49.183837
1709.000000	49.223940
1708.000000	49.302546
1707.000000	49.366385
1706.000000	49.378702
1705.000000	49.415166
1704.000000	49.446689
1703.000000	49.470227
1702.000000	49.483275
1701.000000	49.500983
1700.000000	49.526571
1699.000000	49.514290
1698.000000	49.570002
1697.000000	49.597377
1696.000000	49.645601
1695.000000	49.641871
1694.000000	49.708146
1693.000000	49.763088
1692.000000	49.804324
1691.000000	49.892725
1690.000000	49.973791
1689.000000	50.058748
1688.000000	50.158526
1687.000000	50.292104
1686.000000	50.418029
1685.000000	50.556736
1684.000000	50.723576
1683.000000	50.880618
1682.000000	51.061699
1681.000000	51.232252
1680.000000	51.393871
1679.000000	51.558643
1678.000000	51.782938
1677.000000	51.983212
1676.000000	52.144734
1675.000000	52.359342
1674.000000	52.558642
1673.000000	52.757785
1672.000000	52.901747
1671.000000	53.101822
1670.000000	53.289568
1669.000000	53.465124
1668.000000	53.599626
1667.000000	53.762176
1666.000000	53.854206
1665.000000	53.986018
1664.000000	54.106222
1663.000000	54.225301
1662.000000	54.299057
1661.000000	54.391160
1660.000000	54.453788
1659.000000	54.540960
1658.000000	54.607693
1657.000000	54.642937
1656.000000	54.702316
1655.000000	54.742089
1654.000000	54.786940
1653.000000	54.792258
1652.000000	54.833548
1651.000000	54.828346
1650.000000	54.841442
1649.000000	54.858226
1648.000000	54.841958
1647.000000	54.841943
1646.000000	54.836536
1645.000000	54.836294
1644.000000	54.808066
1643.000000	54.794397
1642.000000	54.784973
1641.000000	54.755421
1640.000000	54.742163
1639.000000	54.713489
1638.000000	54.663814
1637.000000	54.656044
1636.000000	54.616564
1635.000000	54.582451
1634.000000	54.553320
1633.000000	54.491990
1632.000000	54.461052
1631.000000	54.443847
1630.000000	54.401509
1629.000000	54.342912
1628.000000	54.306921
1627.000000	54.261936
1626.000000	54.230581
1625.000000	54.171554
1624.000000	54.120291
1623.000000	54.083572
1622.000000	54.040420
1621.000000	53.976070
1620.000000	53.933496
1619.000000	53.884166
1618.000000	53.817808
1617.000000	53.771633
1616.000000	53.722605
1615.000000	53.670294
1614.000000	53.625377
1613.000000	53.549621
1612.000000	53.487826
1611.000000	53.439362
1610.000000	53.383935
1609.000000	53.327566
1608.000000	53.267095
1607.000000	53.190735
1606.000000	53.111330
1605.000000	53.061836
1604.000000	53.004841
1603.000000	52.948624
1602.000000	52.892770
1601.000000	52.821043
1600.000000	52.750815
1599.000000	52.695285
1598.000000	52.628348
1597.000000	52.562979
1596.000000	52.509539
1595.000000	52.455908
1594.000000	52.400564
1593.000000	52.347725
1592.000000	52.291850
1591.000000	52.238594
1590.000000	52.179383
1589.000000	52.113705
1588.000000	52.075748
1587.000000	52.036691
1586.000000	51.971266
1585.000000	51.913944
1584.000000	51.869328
1583.000000	51.825725
1582.000000	51.781788
1581.000000	51.739205
1580.000000	51.693215
1579.000000	51.651316
1578.000000	51.605493
1577.000000	51.554295
1576.000000	51.507538
1575.000000	51.469115
1574.000000	51.432614
1573.000000	51.381196
1572.000000	51.339491
1571.000000	51.291545
1570.000000	51.250278
1569.000000	51.225416
1568.000000	51.177151
1567.000000	51.144887
1566.000000	51.117362
1565.000000	51.080183
1564.000000	51.034094
1563.000000	51.015778
1562.000000	51.005204
1561.000000	50.976979
1560.000000	50.951247
1559.000000	50.936875
1558.000000	50.918313
1557.000000	50.898674
1556.000000	50.870082
1555.000000	50.861471
1554.000000	50.844501
1553.000000	50.815936
1552.000000	50.804580
1551.000000	50.770285
1550.000000	50.744153
1549.000000	50.694983
1548.000000	50.663813
1547.000000	50.608436
1546.000000	50.565557
1545.000000	50.499987
1544.000000	50.428257
1543.000000	50.363159
1542.000000	50.294578
1541.000000	50.210774
1540.000000	50.138952
1539.000000	50.043737
1538.000000	49.932635
1537.000000	49.865789
1536.000000	49.775909
1535.000000	49.675906
1534.000000	49.572165
1533.000000	49.510216
1532.000000	49.410948
1531.000000	49.316275
1530.000000	49.212923
1529.000000	49.138216
1528.000000	49.065572
1527.000000	48.977141
1526.000000	48.907787
1525.000000	48.825344
1524.000000	48.756411
1523.000000	48.680622
1522.000000	48.648520
1521.000000	48.580034
1520.000000	48.537555
1519.000000	48.478461
1518.000000	48.439667
1517.000000	48.386744
1516.000000	48.312028
1515.000000	48.269410
1514.000000	48.255873
1513.000000	48.211550
1512.000000	48.182903
1511.000000	48.171686
1510.000000	48.159180
1509.000000	48.219304
1508.000000	48.217678
1507.000000	48.201893
1506.000000	48.152172
1505.000000	48.127480
1504.000000	48.122395
1503.000000	48.082643
1502.000000	48.069399
1501.000000	48.079279
1500.000000	48.068553
1499.000000	48.069412
1498.000000	48.085628
1497.000000	48.091071
1496.000000	48.114750
1495.000000	48.118221
1494.000000	48.162644
1493.000000	48.180693
1492.000000	48.233462
1491.000000	48.284305
1490.000000	48.343289
1489.000000	48.393524
1488.000000	48.424679
1487.000000	48.478660
1486.000000	48.546731
1485.000000	48.642594
1484.000000	48.724587
1483.000000	48.831985
1482.000000	48.903998
1481.000000	48.989593
1480.000000	49.072112
1479.000000	49.150690
1478.000000	49.231809
1477.000000	49.308325
1476.000000	49.408819
1475.000000	49.499431
1474.000000	49.584130
1473.000000	49.649045
1472.000000	49.723029
1471.000000	49.837534
1470.000000	49.951962
