PE UV       SUBTECH     SPECTRUM    ASCII       PEDS        4.00        
   -1
RTVeauUK 12.Sample.asc
18/03/02
11:25:15.00
18/03/02
11:25:15.00
Administrator

200.000000
1
Lambda 750
750N8071901
PerkinElmer UV WinLab 6.0.4.0738 / 1.61.00 Lambda 900

0
0
3350/servo 860.8/2
0
0
UV/VIS
1
1
1
CommonBeamDepol,150mm sphere / downward view
0
0
0
0
Program
Program
3350/servo 860.8/2
3350/0.2 860.8/0.2
3350/0.2 860.8/0.2
0
1
 
 
 
0
 
860.8
319.2
860.8
Front
100
on
 
 
0
0
0
 
0
 
 
 
0
 
 
0
0
0
0
0
 
 
 
 
0
0


0
0
#HDR
-1
-1
#GR
nm
%R
1.0
0.0
2350.000000
-1.000000
2151
8
56.171374
9.375914
#DATA
2350.000000	10.646714
2349.000000	10.961532
2348.000000	10.304635
2347.000000	11.362887
2346.000000	10.881196
2345.000000	10.376173
2344.000000	10.622885
2343.000000	10.363045
2342.000000	10.566480
2341.000000	10.635326
2340.000000	10.735576
2339.000000	11.392265
2338.000000	11.233376
2337.000000	11.239372
2336.000000	11.049812
2335.000000	11.465583
2334.000000	11.526555
2333.000000	11.511379
2332.000000	11.564319
2331.000000	11.588229
2330.000000	11.652219
2329.000000	11.339920
2328.000000	11.482761
2327.000000	11.366573
2326.000000	11.108705
2325.000000	10.967329
2324.000000	11.134722
2323.000000	11.410491
2322.000000	11.067324
2321.000000	11.338242
2320.000000	11.403036
2319.000000	11.225408
2318.000000	11.222048
2317.000000	10.909165
2316.000000	10.870658
2315.000000	11.069398
2314.000000	10.927373
2313.000000	10.900845
2312.000000	10.624356
2311.000000	10.774443
2310.000000	10.945228
2309.000000	10.889329
2308.000000	10.810461
2307.000000	10.793852
2306.000000	10.800397
2305.000000	10.600783
2304.000000	10.391510
2303.000000	10.477049
2302.000000	10.533429
2301.000000	10.482708
2300.000000	10.271670
2299.000000	10.295712
2298.000000	10.108618
2297.000000	10.104953
2296.000000	10.117466
2295.000000	10.010621
2294.000000	9.995745
2293.000000	10.176617
2292.000000	9.906801
2291.000000	9.802953
2290.000000	9.863492
2289.000000	9.804185
2288.000000	9.746607
2287.000000	9.710225
2286.000000	9.683104
2285.000000	9.456914
2284.000000	9.386188
2283.000000	9.488513
2282.000000	9.375914
2281.000000	9.654876
2280.000000	9.796016
2279.000000	9.901160
2278.000000	9.940348
2277.000000	9.689704
2276.000000	9.670965
2275.000000	9.635723
2274.000000	9.705863
2273.000000	9.819392
2272.000000	9.776851
2271.000000	9.786687
2270.000000	9.862348
2269.000000	9.985826
2268.000000	9.972527
2267.000000	9.908958
2266.000000	10.025350
2265.000000	10.019140
2264.000000	10.134949
2263.000000	10.256338
2262.000000	10.212945
2261.000000	10.353506
2260.000000	10.509152
2259.000000	10.710783
2258.000000	10.816988
2257.000000	10.923248
2256.000000	10.963166
2255.000000	10.986828
2254.000000	11.014834
2253.000000	11.134753
2252.000000	11.406180
2251.000000	11.532275
2250.000000	11.653616
2249.000000	11.773280
2248.000000	11.825138
2247.000000	12.045679
2246.000000	12.218473
2245.000000	12.246660
2244.000000	12.359799
2243.000000	12.509653
2242.000000	12.600660
2241.000000	12.701472
2240.000000	12.783466
2239.000000	12.857693
2238.000000	12.864402
2237.000000	12.944458
2236.000000	13.140032
2235.000000	13.269407
2234.000000	13.388908
2233.000000	13.304097
2232.000000	13.366628
2231.000000	13.418688
2230.000000	13.385381
2229.000000	13.546256
2228.000000	13.627527
2227.000000	13.545912
2226.000000	13.542524
2225.000000	13.621653
2224.000000	13.503530
2223.000000	13.468083
2222.000000	13.519816
2221.000000	13.435728
2220.000000	13.489410
2219.000000	13.383737
2218.000000	13.297832
2217.000000	13.344259
2216.000000	13.402694
2215.000000	13.270761
2214.000000	13.268580
2213.000000	13.305880
2212.000000	13.225850
2211.000000	13.187281
2210.000000	13.172298
2209.000000	13.167528
2208.000000	12.952793
2207.000000	12.866074
2206.000000	12.818264
2205.000000	12.775068
2204.000000	12.734396
2203.000000	12.707933
2202.000000	12.718239
2201.000000	12.698550
2200.000000	12.658747
2199.000000	12.550756
2198.000000	12.612260
2197.000000	12.592578
2196.000000	12.468902
2195.000000	12.338479
2194.000000	12.181440
2193.000000	12.180951
2192.000000	12.268264
2191.000000	12.150649
2190.000000	12.203265
2189.000000	12.205287
2188.000000	12.047279
2187.000000	11.959769
2186.000000	11.918131
2185.000000	11.916162
2184.000000	11.996904
2183.000000	12.123524
2182.000000	12.067021
2181.000000	11.893371
2180.000000	11.857467
2179.000000	11.737775
2178.000000	11.791746
2177.000000	11.891588
2176.000000	11.630168
2175.000000	11.755315
2174.000000	11.896442
2173.000000	11.892095
2172.000000	11.839597
2171.000000	11.954626
2170.000000	11.856442
2169.000000	11.937920
2168.000000	12.224294
2167.000000	12.219991
2166.000000	12.054834
2165.000000	11.956055
2164.000000	12.358364
2163.000000	12.301785
2162.000000	12.291388
2161.000000	12.401092
2160.000000	12.600589
2159.000000	12.778450
2158.000000	12.814205
2157.000000	12.770635
2156.000000	13.068828
2155.000000	13.016587
2154.000000	13.223542
2153.000000	13.412272
2152.000000	13.490109
2151.000000	13.316123
2150.000000	13.488830
2149.000000	13.687459
2148.000000	13.757555
2147.000000	13.877071
2146.000000	13.871499
2145.000000	14.028696
2144.000000	14.188523
2143.000000	14.052843
2142.000000	14.382654
2141.000000	14.539915
2140.000000	14.560942
2139.000000	14.497366
2138.000000	14.634146
2137.000000	14.941743
2136.000000	14.836722
2135.000000	14.832637
2134.000000	15.082261
2133.000000	15.040109
2132.000000	15.113071
2131.000000	15.337643
2130.000000	15.426304
2129.000000	15.387184
2128.000000	15.422959
2127.000000	15.597299
2126.000000	15.501288
2125.000000	15.460620
2124.000000	15.803431
2123.000000	15.623040
2122.000000	15.622218
2121.000000	15.738425
2120.000000	15.708724
2119.000000	15.783496
2118.000000	15.816165
2117.000000	15.946855
2116.000000	16.044822
2115.000000	16.174626
2114.000000	15.950429
2113.000000	15.983432
2112.000000	15.977624
2111.000000	15.962057
2110.000000	16.087085
2109.000000	16.180233
2108.000000	16.203825
2107.000000	16.262630
2106.000000	16.310538
2105.000000	16.221374
2104.000000	16.323946
2103.000000	16.269057
2102.000000	16.222349
2101.000000	16.232096
2100.000000	16.226826
2099.000000	16.209776
2098.000000	16.349252
2097.000000	16.393820
2096.000000	16.329466
2095.000000	16.356746
2094.000000	16.336345
2093.000000	16.272653
2092.000000	16.325507
2091.000000	16.300149
2090.000000	16.247084
2089.000000	16.252300
2088.000000	16.291559
2087.000000	16.164785
2086.000000	16.184576
2085.000000	16.255940
2084.000000	16.119627
2083.000000	16.145838
2082.000000	16.100837
2081.000000	16.009048
2080.000000	15.803106
2079.000000	15.925523
2078.000000	15.947757
2077.000000	15.774675
2076.000000	15.610871
2075.000000	15.593968
2074.000000	15.555993
2073.000000	15.402076
2072.000000	15.246314
2071.000000	15.280076
2070.000000	15.258321
2069.000000	15.079638
2068.000000	14.946201
2067.000000	14.897011
2066.000000	14.814703
2065.000000	14.700551
2064.000000	14.563665
2063.000000	14.388768
2062.000000	14.302514
2061.000000	14.214102
2060.000000	14.147486
2059.000000	14.016626
2058.000000	13.846584
2057.000000	13.676926
2056.000000	13.631877
2055.000000	13.606216
2054.000000	13.413635
2053.000000	13.292980
2052.000000	13.248020
2051.000000	13.199066
2050.000000	13.172222
2049.000000	13.034216
2048.000000	12.902212
2047.000000	12.893050
2046.000000	12.865022
2045.000000	12.826820
2044.000000	12.780431
2043.000000	12.723447
2042.000000	12.727357
2041.000000	12.747100
2040.000000	12.814861
2039.000000	12.892662
2038.000000	12.867715
2037.000000	12.854588
2036.000000	12.887572
2035.000000	12.977248
2034.000000	13.098457
2033.000000	13.158265
2032.000000	13.214804
2031.000000	13.271487
2030.000000	13.384497
2029.000000	13.538696
2028.000000	13.641656
2027.000000	13.764529
2026.000000	13.854017
2025.000000	13.880092
2024.000000	13.930367
2023.000000	14.037568
2022.000000	14.131932
2021.000000	14.224819
2020.000000	14.290747
2019.000000	14.313616
2018.000000	14.329275
2017.000000	14.360117
2016.000000	14.386650
2015.000000	14.405554
2014.000000	14.425173
2013.000000	14.429972
2012.000000	14.433436
2011.000000	14.433211
2010.000000	14.399802
2009.000000	14.342864
2008.000000	14.329043
2007.000000	14.274781
2006.000000	14.206923
2005.000000	14.163387
2004.000000	14.098782
2003.000000	14.106776
2002.000000	14.069929
2001.000000	14.000842
2000.000000	13.931346
1999.000000	13.808023
1998.000000	13.771921
1997.000000	13.759234
1996.000000	13.660873
1995.000000	13.565856
1994.000000	13.504293
1993.000000	13.447882
1992.000000	13.394747
1991.000000	13.330548
1990.000000	13.272394
1989.000000	13.205963
1988.000000	13.119045
1987.000000	13.073596
1986.000000	12.977040
1985.000000	12.925416
1984.000000	12.913203
1983.000000	12.847619
1982.000000	12.755205
1981.000000	12.740442
1980.000000	12.699714
1979.000000	12.610443
1978.000000	12.522939
1977.000000	12.430189
1976.000000	12.414101
1975.000000	12.352264
1974.000000	12.268726
1973.000000	12.205030
1972.000000	12.152652
1971.000000	12.144188
1970.000000	12.110971
1969.000000	12.023835
1968.000000	11.991190
1967.000000	11.964577
1966.000000	11.934738
1965.000000	11.818025
1964.000000	11.774029
1963.000000	11.716695
1962.000000	11.697297
1961.000000	11.656262
1960.000000	11.630713
1959.000000	11.572265
1958.000000	11.493780
1957.000000	11.492646
1956.000000	11.462004
1955.000000	11.439503
1954.000000	11.382531
1953.000000	11.352710
1952.000000	11.318796
1951.000000	11.309258
1950.000000	11.267177
1949.000000	11.265796
1948.000000	11.224067
1947.000000	11.204173
1946.000000	11.224650
1945.000000	11.305602
1944.000000	11.275160
1943.000000	11.307980
1942.000000	11.299895
1941.000000	11.312034
1940.000000	11.373356
1939.000000	11.471284
1938.000000	11.495491
1937.000000	11.558280
1936.000000	11.630698
1935.000000	11.677241
1934.000000	11.775054
1933.000000	11.827757
1932.000000	11.958528
1931.000000	12.001223
1930.000000	12.161377
1929.000000	12.253501
1928.000000	12.371259
1927.000000	12.521825
1926.000000	12.742743
1925.000000	12.862541
1924.000000	13.099808
1923.000000	13.181591
1922.000000	13.480494
1921.000000	13.674862
1920.000000	13.866501
1919.000000	14.114974
1918.000000	14.260866
1917.000000	14.598463
1916.000000	14.699592
1915.000000	14.986953
1914.000000	15.355313
1913.000000	15.711565
1912.000000	15.987815
1911.000000	16.299140
1910.000000	16.570190
1909.000000	16.912265
1908.000000	17.332811
1907.000000	17.683321
1906.000000	18.094887
1905.000000	18.588448
1904.000000	18.969807
1903.000000	19.418394
1902.000000	19.854561
1901.000000	20.361816
1900.000000	20.857646
1899.000000	21.342915
1898.000000	21.883580
1897.000000	22.265595
1896.000000	22.877980
1895.000000	23.373208
1894.000000	23.859783
1893.000000	24.355451
1892.000000	24.860840
1891.000000	25.371556
1890.000000	25.872936
1889.000000	26.384046
1888.000000	26.878400
1887.000000	27.360458
1886.000000	27.845946
1885.000000	28.272401
1884.000000	28.732002
1883.000000	29.132439
1882.000000	29.501688
1881.000000	29.954324
1880.000000	30.333681
1879.000000	30.674881
1878.000000	31.071697
1877.000000	31.400479
1876.000000	31.695828
1875.000000	32.022789
1874.000000	32.358867
1873.000000	32.603414
1872.000000	32.871996
1871.000000	33.098739
1870.000000	33.282018
1869.000000	33.469563
1868.000000	33.660567
1867.000000	33.810121
1866.000000	33.937652
1865.000000	34.067458
1864.000000	34.230126
1863.000000	34.311611
1862.000000	34.401013
1861.000000	34.478341
1860.000000	34.603421
1859.000000	34.661843
1858.000000	34.631339
1857.000000	34.695365
1856.000000	34.745802
1855.000000	34.816955
1854.000000	34.849070
1853.000000	34.852515
1852.000000	34.886241
1851.000000	34.902433
1850.000000	34.889300
1849.000000	34.888391
1848.000000	34.902336
1847.000000	34.886463
1846.000000	34.843645
1845.000000	34.818045
1844.000000	34.804309
1843.000000	34.762746
1842.000000	34.719553
1841.000000	34.665031
1840.000000	34.638547
1839.000000	34.606472
1838.000000	34.533799
1837.000000	34.475079
1836.000000	34.411545
1835.000000	34.347910
1834.000000	34.295208
1833.000000	34.231052
1832.000000	34.175159
1831.000000	34.121492
1830.000000	34.064217
1829.000000	34.027040
1828.000000	33.962935
1827.000000	33.909489
1826.000000	33.866742
1825.000000	33.815736
1824.000000	33.760200
1823.000000	33.703383
1822.000000	33.644239
1821.000000	33.612136
1820.000000	33.573595
1819.000000	33.498019
1818.000000	33.434885
1817.000000	33.384753
1816.000000	33.335023
1815.000000	33.276858
1814.000000	33.235973
1813.000000	33.201636
1812.000000	33.135805
1811.000000	33.077026
1810.000000	33.042108
1809.000000	32.998748
1808.000000	32.936426
1807.000000	32.891284
1806.000000	32.849915
1805.000000	32.799168
1804.000000	32.743876
1803.000000	32.693947
1802.000000	32.647031
1801.000000	32.610698
1800.000000	32.555039
1799.000000	32.522094
1798.000000	32.497662
1797.000000	32.461860
1796.000000	32.424077
1795.000000	32.382547
1794.000000	32.368744
1793.000000	32.314116
1792.000000	32.278466
1791.000000	32.253471
1790.000000	32.196920
1789.000000	32.161310
1788.000000	32.139569
1787.000000	32.093029
1786.000000	32.059821
1785.000000	32.015920
1784.000000	31.978406
1783.000000	31.927232
1782.000000	31.874119
1781.000000	31.802170
1780.000000	31.751466
1779.000000	31.710273
1778.000000	31.632997
1777.000000	31.557065
1776.000000	31.496550
1775.000000	31.413609
1774.000000	31.321513
1773.000000	31.248135
1772.000000	31.153667
1771.000000	31.092105
1770.000000	31.022868
1769.000000	30.919223
1768.000000	30.828536
1767.000000	30.775772
1766.000000	30.678885
1765.000000	30.586939
1764.000000	30.524836
1763.000000	30.465399
1762.000000	30.350760
1761.000000	30.240386
1760.000000	30.165584
1759.000000	30.083616
1758.000000	30.005206
1757.000000	29.917585
1756.000000	29.841187
1755.000000	29.756961
1754.000000	29.666276
1753.000000	29.571815
1752.000000	29.524981
1751.000000	29.411944
1750.000000	29.329517
1749.000000	29.258666
1748.000000	29.162393
1747.000000	29.058704
1746.000000	28.965258
1745.000000	28.902967
1744.000000	28.824850
1743.000000	28.728265
1742.000000	28.621901
1741.000000	28.562009
1740.000000	28.486117
1739.000000	28.397036
1738.000000	28.359503
1737.000000	28.316261
1736.000000	28.293225
1735.000000	28.260212
1734.000000	28.248467
1733.000000	28.230463
1732.000000	28.229414
1731.000000	28.251874
1730.000000	28.296012
1729.000000	28.315507
1728.000000	28.381823
1727.000000	28.442110
1726.000000	28.534009
1725.000000	28.614240
1724.000000	28.725855
1723.000000	28.822305
1722.000000	28.934942
1721.000000	29.068558
1720.000000	29.184718
1719.000000	29.324966
1718.000000	29.481263
1717.000000	29.586418
1716.000000	29.713085
1715.000000	29.822444
1714.000000	29.925178
1713.000000	30.052340
1712.000000	30.111976
1711.000000	30.246729
1710.000000	30.306308
1709.000000	30.380232
1708.000000	30.408421
1707.000000	30.518297
1706.000000	30.551393
1705.000000	30.580961
1704.000000	30.639156
1703.000000	30.644888
1702.000000	30.655634
1701.000000	30.675901
1700.000000	30.667722
1699.000000	30.685683
1698.000000	30.741417
1697.000000	30.800685
1696.000000	30.870077
1695.000000	30.891746
1694.000000	30.955692
1693.000000	31.034353
1692.000000	31.122197
1691.000000	31.225437
1690.000000	31.372680
1689.000000	31.490519
1688.000000	31.649855
1687.000000	31.822921
1686.000000	32.017244
1685.000000	32.242470
1684.000000	32.450139
1683.000000	32.697970
1682.000000	32.916120
1681.000000	33.195254
1680.000000	33.442575
1679.000000	33.724444
1678.000000	34.021223
1677.000000	34.278991
1676.000000	34.556233
1675.000000	34.829666
1674.000000	35.136470
1673.000000	35.398971
1672.000000	35.669045
1671.000000	35.932531
1670.000000	36.194775
1669.000000	36.441179
1668.000000	36.648206
1667.000000	36.873140
1666.000000	37.053310
1665.000000	37.207204
1664.000000	37.354018
1663.000000	37.520194
1662.000000	37.658092
1661.000000	37.776000
1660.000000	37.887543
1659.000000	37.992706
1658.000000	38.073415
1657.000000	38.143508
1656.000000	38.205854
1655.000000	38.278446
1654.000000	38.314823
1653.000000	38.363350
1652.000000	38.402678
1651.000000	38.385422
1650.000000	38.379331
1649.000000	38.389191
1648.000000	38.367294
1647.000000	38.355932
1646.000000	38.359445
1645.000000	38.354489
1644.000000	38.314096
1643.000000	38.273306
1642.000000	38.258870
1641.000000	38.220664
1640.000000	38.190293
1639.000000	38.134481
1638.000000	38.077986
1637.000000	38.045364
1636.000000	37.977595
1635.000000	37.928748
1634.000000	37.876753
1633.000000	37.810838
1632.000000	37.742480
1631.000000	37.674889
1630.000000	37.617061
1629.000000	37.553985
1628.000000	37.471869
1627.000000	37.407573
1626.000000	37.337927
1625.000000	37.268858
1624.000000	37.200664
1623.000000	37.127537
1622.000000	37.054588
1621.000000	36.975108
1620.000000	36.904842
1619.000000	36.812681
1618.000000	36.723217
1617.000000	36.637089
1616.000000	36.561844
1615.000000	36.464261
1614.000000	36.374656
1613.000000	36.300118
1612.000000	36.216838
1611.000000	36.112370
1610.000000	36.015378
1609.000000	35.919369
1608.000000	35.842077
1607.000000	35.739905
1606.000000	35.627373
1605.000000	35.535789
1604.000000	35.434448
1603.000000	35.332919
1602.000000	35.239003
1601.000000	35.142693
1600.000000	35.052104
1599.000000	34.960245
1598.000000	34.864774
1597.000000	34.769073
1596.000000	34.681857
1595.000000	34.593023
1594.000000	34.511949
1593.000000	34.427354
1592.000000	34.332644
1591.000000	34.258194
1590.000000	34.192285
1589.000000	34.105941
1588.000000	34.020342
1587.000000	33.945438
1586.000000	33.879627
1585.000000	33.819450
1584.000000	33.748787
1583.000000	33.667242
1582.000000	33.594846
1581.000000	33.538303
1580.000000	33.474477
1579.000000	33.402874
1578.000000	33.349750
1577.000000	33.282562
1576.000000	33.206611
1575.000000	33.133283
1574.000000	33.071744
1573.000000	33.012811
1572.000000	32.946730
1571.000000	32.888303
1570.000000	32.823894
1569.000000	32.763569
1568.000000	32.713048
1567.000000	32.649717
1566.000000	32.603749
1565.000000	32.558901
1564.000000	32.520597
1563.000000	32.485836
1562.000000	32.451211
1561.000000	32.415751
1560.000000	32.378923
1559.000000	32.342832
1558.000000	32.305663
1557.000000	32.283762
1556.000000	32.263543
1555.000000	32.236296
1554.000000	32.198024
1553.000000	32.162981
1552.000000	32.120516
1551.000000	32.081690
1550.000000	32.037672
1549.000000	31.983293
1548.000000	31.938063
1547.000000	31.863233
1546.000000	31.778598
1545.000000	31.692552
1544.000000	31.585084
1543.000000	31.491179
1542.000000	31.409246
1541.000000	31.317352
1540.000000	31.208382
1539.000000	31.065998
1538.000000	30.951537
1537.000000	30.836432
1536.000000	30.712540
1535.000000	30.574866
1534.000000	30.446313
1533.000000	30.330538
1532.000000	30.200557
1531.000000	30.075776
1530.000000	29.958794
1529.000000	29.851777
1528.000000	29.740085
1527.000000	29.649571
1526.000000	29.566317
1525.000000	29.464253
1524.000000	29.360918
1523.000000	29.279707
1522.000000	29.204993
1521.000000	29.128608
1520.000000	29.057097
1519.000000	28.997150
1518.000000	28.942339
1517.000000	28.877205
1516.000000	28.821002
1515.000000	28.776145
1514.000000	28.730453
1513.000000	28.699154
1512.000000	28.650256
1511.000000	28.605157
1510.000000	28.570155
1509.000000	28.523050
1508.000000	28.517425
1507.000000	28.494082
1506.000000	28.466862
1505.000000	28.456001
1504.000000	28.434248
1503.000000	28.431532
1502.000000	28.430441
1501.000000	28.404229
1500.000000	28.423630
1499.000000	28.436332
1498.000000	28.447586
1497.000000	28.502194
1496.000000	28.527654
1495.000000	28.570169
1494.000000	28.577509
1493.000000	28.620285
1492.000000	28.657966
1491.000000	28.716858
1490.000000	28.783150
1489.000000	28.836044
1488.000000	28.910875
1487.000000	28.993225
1486.000000	29.062766
1485.000000	29.161892
1484.000000	29.213954
1483.000000	29.317243
1482.000000	29.442222
1481.000000	29.529834
1480.000000	29.650373
1479.000000	29.743625
1478.000000	29.850619
1477.000000	29.964112
1476.000000	30.066152
1475.000000	30.163275
1474.000000	30.277936
1473.000000	30.370908
1472.000000	30.462501
1471.000000	30.578433
1470.000000	30.686512
1469.000000	30.764571
1468.000000	30.847852
