PE UV       SUBTECH     SPECTRUM    ASCII       PEDS        4.00        
   -1
RDms1482152.Sample.asc
18/03/22
10:20:45.00
18/03/22
10:20:45.00
Administrator

200.000000
1
Lambda 750
750N8071901
PerkinElmer UV WinLab 6.0.4.0738 / 1.61.00 Lambda 900

0
0
3350/servo 860.8/2
0
0
UV/VIS
1
1
1
CommonBeamDepol,150mm sphere / downward view
0
0
0
0
Program
Program
3350/servo 860.8/2
3350/0.2 860.8/0.2
3350/0.2 860.8/0.2
0
1
 
 
 
0
 
860.8
319.2
860.8
Front
100
on
 
 
0
0
0
 
0
 
 
 
0
 
 
0
0
0
0
0
 
 
 
 
0
0


0
0
#HDR
-1
-1
#GR
nm
%R
1.0
0.0
2350.000000
-1.000000
2151
8
84.265825
24.835258
#DATA
2350.000000	44.331558
2349.000000	44.288302
2348.000000	44.138742
2347.000000	44.851595
2346.000000	44.501673
2345.000000	44.527766
2344.000000	44.645905
2343.000000	43.854242
2342.000000	44.631031
2341.000000	44.649606
2340.000000	44.401357
2339.000000	44.880164
2338.000000	44.680104
2337.000000	44.979622
2336.000000	44.934203
2335.000000	45.243214
2334.000000	45.084856
2333.000000	45.387521
2332.000000	45.548464
2331.000000	45.107465
2330.000000	45.085059
2329.000000	44.714702
2328.000000	45.083213
2327.000000	45.020862
2326.000000	45.317919
2325.000000	44.959944
2324.000000	45.044622
2323.000000	44.814274
2322.000000	44.604121
2321.000000	44.606590
2320.000000	44.821288
2319.000000	44.675440
2318.000000	44.833883
2317.000000	45.049113
2316.000000	44.575430
2315.000000	44.592299
2314.000000	44.479609
2313.000000	44.355620
2312.000000	44.309743
2311.000000	44.221334
2310.000000	44.003309
2309.000000	43.993333
2308.000000	43.995476
2307.000000	43.963416
2306.000000	43.938668
2305.000000	43.939051
2304.000000	43.745427
2303.000000	43.883923
2302.000000	43.631324
2301.000000	43.574679
2300.000000	43.442003
2299.000000	43.199741
2298.000000	43.207485
2297.000000	43.076742
2296.000000	43.138352
2295.000000	43.102884
2294.000000	42.818686
2293.000000	42.717619
2292.000000	42.777286
2291.000000	42.825772
2290.000000	42.711062
2289.000000	42.605300
2288.000000	42.726723
2287.000000	42.661554
2286.000000	42.355431
2285.000000	42.184827
2284.000000	42.260807
2283.000000	42.174549
2282.000000	42.338457
2281.000000	42.640511
2280.000000	42.530929
2279.000000	42.406055
2278.000000	42.376670
2277.000000	42.345308
2276.000000	42.503149
2275.000000	42.542610
2274.000000	42.491816
2273.000000	42.497465
2272.000000	42.626833
2271.000000	42.729094
2270.000000	42.917075
2269.000000	42.830780
2268.000000	42.791975
2267.000000	42.899967
2266.000000	43.127732
2265.000000	43.292850
2264.000000	43.332707
2263.000000	43.461083
2262.000000	43.643478
2261.000000	43.778409
2260.000000	43.973974
2259.000000	44.150357
2258.000000	44.400111
2257.000000	44.590977
2256.000000	44.579138
2255.000000	44.669859
2254.000000	44.940604
2253.000000	45.167387
2252.000000	45.532377
2251.000000	45.826802
2250.000000	45.908349
2249.000000	46.042478
2248.000000	46.262385
2247.000000	46.549356
2246.000000	46.710673
2245.000000	46.752198
2244.000000	46.900649
2243.000000	47.261602
2242.000000	47.497025
2241.000000	47.528436
2240.000000	47.761377
2239.000000	47.920392
2238.000000	47.973138
2237.000000	48.087457
2236.000000	48.207743
2235.000000	48.390062
2234.000000	48.486002
2233.000000	48.401817
2232.000000	48.384729
2231.000000	48.546160
2230.000000	48.663878
2229.000000	48.750022
2228.000000	48.851254
2227.000000	48.805172
2226.000000	48.682042
2225.000000	48.684908
2224.000000	48.712407
2223.000000	48.715007
2222.000000	48.714212
2221.000000	48.700374
2220.000000	48.617167
2219.000000	48.631478
2218.000000	48.611935
2217.000000	48.435318
2216.000000	48.389892
2215.000000	48.494123
2214.000000	48.478423
2213.000000	48.423388
2212.000000	48.303414
2211.000000	48.212521
2210.000000	48.279289
2209.000000	48.209873
2208.000000	48.194750
2207.000000	47.983672
2206.000000	47.979248
2205.000000	47.841632
2204.000000	47.856583
2203.000000	47.691516
2202.000000	47.811119
2201.000000	47.766813
2200.000000	47.613310
2199.000000	47.480144
2198.000000	47.571349
2197.000000	47.399088
2196.000000	47.126901
2195.000000	47.127644
2194.000000	47.213954
2193.000000	47.098011
2192.000000	47.120659
2191.000000	46.913683
2190.000000	46.980060
2189.000000	47.015325
2188.000000	46.846598
2187.000000	46.725200
2186.000000	46.765297
2185.000000	46.626832
2184.000000	46.815182
2183.000000	46.794324
2182.000000	46.667288
2181.000000	46.662022
2180.000000	46.597399
2179.000000	46.601903
2178.000000	46.590123
2177.000000	46.611993
2176.000000	46.700882
2175.000000	46.726469
2174.000000	46.734745
2173.000000	46.712020
2172.000000	46.765751
2171.000000	46.994816
2170.000000	46.858413
2169.000000	47.083076
2168.000000	47.136900
2167.000000	47.310009
2166.000000	47.243581
2165.000000	47.369722
2164.000000	47.522312
2163.000000	47.619731
2162.000000	47.762662
2161.000000	47.952882
2160.000000	48.038670
2159.000000	48.291197
2158.000000	48.276214
2157.000000	48.346832
2156.000000	48.558959
2155.000000	48.727936
2154.000000	48.966199
2153.000000	49.379272
2152.000000	49.440016
2151.000000	49.370570
2150.000000	49.530836
2149.000000	49.761483
2148.000000	50.087313
2147.000000	50.163146
2146.000000	50.159909
2145.000000	50.175903
2144.000000	50.497370
2143.000000	50.604711
2142.000000	50.744942
2141.000000	51.037649
2140.000000	51.057221
2139.000000	51.227530
2138.000000	51.570592
2137.000000	51.547373
2136.000000	51.488353
2135.000000	51.679314
2134.000000	51.881122
2133.000000	51.838580
2132.000000	51.990252
2131.000000	52.234950
2130.000000	52.205907
2129.000000	52.399433
2128.000000	52.318293
2127.000000	52.211283
2126.000000	52.275439
2125.000000	52.430004
2124.000000	52.500088
2123.000000	52.553866
2122.000000	52.553473
2121.000000	52.753283
2120.000000	52.689163
2119.000000	52.858919
2118.000000	52.947483
2117.000000	52.886234
2116.000000	52.994268
2115.000000	52.991883
2114.000000	52.916811
2113.000000	53.022113
2112.000000	52.883476
2111.000000	53.033818
2110.000000	52.901726
2109.000000	52.888398
2108.000000	52.938623
2107.000000	53.024303
2106.000000	53.213409
2105.000000	52.981564
2104.000000	53.158142
2103.000000	53.123701
2102.000000	53.312660
2101.000000	53.190609
2100.000000	53.237923
2099.000000	53.260790
2098.000000	53.139828
2097.000000	53.135162
2096.000000	53.179987
2095.000000	53.047392
2094.000000	53.122786
2093.000000	53.220880
2092.000000	53.212454
2091.000000	53.174384
2090.000000	53.050964
2089.000000	53.002809
2088.000000	53.015474
2087.000000	52.983918
2086.000000	52.994813
2085.000000	53.042576
2084.000000	52.979428
2083.000000	52.866469
2082.000000	52.849936
2081.000000	52.773234
2080.000000	52.682756
2079.000000	52.632592
2078.000000	52.547263
2077.000000	52.486495
2076.000000	52.338086
2075.000000	52.219836
2074.000000	52.164679
2073.000000	52.082586
2072.000000	52.001787
2071.000000	51.813577
2070.000000	51.669158
2069.000000	51.527423
2068.000000	51.325380
2067.000000	51.274962
2066.000000	51.168228
2065.000000	51.027612
2064.000000	50.920771
2063.000000	50.723260
2062.000000	50.598517
2061.000000	50.409227
2060.000000	50.164825
2059.000000	50.075976
2058.000000	49.972481
2057.000000	49.805580
2056.000000	49.727093
2055.000000	49.607933
2054.000000	49.426845
2053.000000	49.196371
2052.000000	49.074777
2051.000000	48.926317
2050.000000	48.813651
2049.000000	48.771705
2048.000000	48.688953
2047.000000	48.589673
2046.000000	48.487619
2045.000000	48.411690
2044.000000	48.416011
2043.000000	48.445903
2042.000000	48.451112
2041.000000	48.437755
2040.000000	48.453120
2039.000000	48.474694
2038.000000	48.509303
2037.000000	48.604505
2036.000000	48.670956
2035.000000	48.753955
2034.000000	48.867542
2033.000000	48.930361
2032.000000	49.054337
2031.000000	49.184558
2030.000000	49.278132
2029.000000	49.356264
2028.000000	49.453868
2027.000000	49.612542
2026.000000	49.751595
2025.000000	49.808851
2024.000000	49.844042
2023.000000	49.942594
2022.000000	50.019445
2021.000000	50.000812
2020.000000	50.086709
2019.000000	50.135449
2018.000000	50.130599
2017.000000	50.167979
2016.000000	50.160709
2015.000000	50.153190
2014.000000	50.140412
2013.000000	50.113540
2012.000000	50.048036
2011.000000	49.990605
2010.000000	49.957283
2009.000000	49.905296
2008.000000	49.779293
2007.000000	49.665986
2006.000000	49.576586
2005.000000	49.493599
2004.000000	49.399527
2003.000000	49.336629
2002.000000	49.243570
2001.000000	49.078114
2000.000000	48.969951
1999.000000	48.906114
1998.000000	48.816163
1997.000000	48.683658
1996.000000	48.591886
1995.000000	48.471032
1994.000000	48.355104
1993.000000	48.260373
1992.000000	48.150886
1991.000000	48.019680
1990.000000	47.908825
1989.000000	47.774498
1988.000000	47.664709
1987.000000	47.553874
1986.000000	47.418090
1985.000000	47.289983
1984.000000	47.198259
1983.000000	47.076152
1982.000000	47.041884
1981.000000	46.920795
1980.000000	46.809002
1979.000000	46.675221
1978.000000	46.558503
1977.000000	46.436525
1976.000000	46.318316
1975.000000	46.245115
1974.000000	46.097839
1973.000000	46.048367
1972.000000	45.979570
1971.000000	45.849123
1970.000000	45.721979
1969.000000	45.682160
1968.000000	45.563445
1967.000000	45.520306
1966.000000	45.420340
1965.000000	45.347610
1964.000000	45.215612
1963.000000	45.120007
1962.000000	45.026622
1961.000000	44.880103
1960.000000	44.850793
1959.000000	44.747438
1958.000000	44.669410
1957.000000	44.623399
1956.000000	44.549969
1955.000000	44.464557
1954.000000	44.416223
1953.000000	44.288418
1952.000000	44.223788
1951.000000	44.266755
1950.000000	44.230697
1949.000000	44.159386
1948.000000	44.149169
1947.000000	44.139101
1946.000000	44.054799
1945.000000	44.092624
1944.000000	44.135003
1943.000000	44.148300
1942.000000	44.167174
1941.000000	44.230576
1940.000000	44.256516
1939.000000	44.248788
1938.000000	44.302294
1937.000000	44.422666
1936.000000	44.638328
1935.000000	44.741422
1934.000000	44.838225
1933.000000	44.912553
1932.000000	45.100199
1931.000000	45.280525
1930.000000	45.501749
1929.000000	45.697438
1928.000000	45.826426
1927.000000	46.130361
1926.000000	46.330217
1925.000000	46.570908
1924.000000	46.913565
1923.000000	47.177359
1922.000000	47.448647
1921.000000	47.698570
1920.000000	47.926628
1919.000000	48.273601
1918.000000	48.684573
1917.000000	49.002374
1916.000000	49.224451
1915.000000	49.715736
1914.000000	50.059969
1913.000000	50.562954
1912.000000	50.904945
1911.000000	51.320664
1910.000000	51.716139
1909.000000	52.138471
1908.000000	52.583187
1907.000000	53.017121
1906.000000	53.535706
1905.000000	54.042662
1904.000000	54.573217
1903.000000	55.013938
1902.000000	55.493937
1901.000000	56.064757
1900.000000	56.574251
1899.000000	57.107344
1898.000000	57.618694
1897.000000	58.034623
1896.000000	58.598736
1895.000000	59.122675
1894.000000	59.511704
1893.000000	60.053705
1892.000000	60.563151
1891.000000	60.963494
1890.000000	61.435258
1889.000000	61.950617
1888.000000	62.365738
1887.000000	62.741070
1886.000000	63.149662
1885.000000	63.523851
1884.000000	63.961639
1883.000000	64.289511
1882.000000	64.609704
1881.000000	64.974285
1880.000000	65.292123
1879.000000	65.546343
1878.000000	65.870243
1877.000000	66.100465
1876.000000	66.353650
1875.000000	66.659738
1874.000000	66.932683
1873.000000	67.121982
1872.000000	67.339761
1871.000000	67.505074
1870.000000	67.689912
1869.000000	67.851714
1868.000000	67.999680
1867.000000	68.104614
1866.000000	68.221163
1865.000000	68.352985
1864.000000	68.367525
1863.000000	68.463914
1862.000000	68.580446
1861.000000	68.622703
1860.000000	68.699797
1859.000000	68.791715
1858.000000	68.795492
1857.000000	68.864272
1856.000000	68.914187
1855.000000	68.936109
1854.000000	68.985002
1853.000000	68.981754
1852.000000	69.019760
1851.000000	69.067845
1850.000000	69.015681
1849.000000	69.029493
1848.000000	69.029769
1847.000000	69.038710
1846.000000	69.051661
1845.000000	69.037311
1844.000000	69.014033
1843.000000	68.981408
1842.000000	68.944948
1841.000000	68.943724
1840.000000	68.919752
1839.000000	68.912559
1838.000000	68.902530
1837.000000	68.867947
1836.000000	68.795437
1835.000000	68.767614
1834.000000	68.714605
1833.000000	68.658773
1832.000000	68.632886
1831.000000	68.604403
1830.000000	68.554202
1829.000000	68.536718
1828.000000	68.485515
1827.000000	68.459316
1826.000000	68.458368
1825.000000	68.424190
1824.000000	68.370329
1823.000000	68.336013
1822.000000	68.292566
1821.000000	68.283447
1820.000000	68.263666
1819.000000	68.211770
1818.000000	68.177831
1817.000000	68.159418
1816.000000	68.113219
1815.000000	68.042660
1814.000000	68.027099
1813.000000	68.031712
1812.000000	67.987572
1811.000000	67.948361
1810.000000	67.927623
1809.000000	67.895010
1808.000000	67.889919
1807.000000	67.846793
1806.000000	67.813944
1805.000000	67.794186
1804.000000	67.750243
1803.000000	67.714916
1802.000000	67.673325
1801.000000	67.653411
1800.000000	67.662411
1799.000000	67.626193
1798.000000	67.584935
1797.000000	67.576421
1796.000000	67.558776
1795.000000	67.532355
1794.000000	67.511301
1793.000000	67.486072
1792.000000	67.444892
1791.000000	67.444329
1790.000000	67.404931
1789.000000	67.367821
1788.000000	67.363644
1787.000000	67.372374
1786.000000	67.340185
1785.000000	67.321957
1784.000000	67.302129
1783.000000	67.265570
1782.000000	67.247563
1781.000000	67.227744
1780.000000	67.171454
1779.000000	67.128040
1778.000000	67.086211
1777.000000	67.062715
1776.000000	67.026151
1775.000000	66.965253
1774.000000	66.911778
1773.000000	66.880024
1772.000000	66.848977
1771.000000	66.797898
1770.000000	66.748529
1769.000000	66.712805
1768.000000	66.651199
1767.000000	66.615550
1766.000000	66.542078
1765.000000	66.493853
1764.000000	66.480707
1763.000000	66.419873
1762.000000	66.363565
1761.000000	66.317661
1760.000000	66.289017
1759.000000	66.235496
1758.000000	66.197394
1757.000000	66.122145
1756.000000	66.071369
1755.000000	66.057363
1754.000000	66.008547
1753.000000	65.956676
1752.000000	65.924674
1751.000000	65.890257
1750.000000	65.823084
1749.000000	65.791801
1748.000000	65.723223
1747.000000	65.657166
1746.000000	65.630571
1745.000000	65.574604
1744.000000	65.531530
1743.000000	65.499121
1742.000000	65.430363
1741.000000	65.413225
1740.000000	65.342672
1739.000000	65.267835
1738.000000	65.287483
1737.000000	65.274485
1736.000000	65.242951
1735.000000	65.220696
1734.000000	65.179965
1733.000000	65.224635
1732.000000	65.212858
1731.000000	65.222703
1730.000000	65.251078
1729.000000	65.296865
1728.000000	65.333134
1727.000000	65.347106
1726.000000	65.456749
1725.000000	65.536723
1724.000000	65.580990
1723.000000	65.643773
1722.000000	65.786957
1721.000000	65.855778
1720.000000	65.971376
1719.000000	66.105927
1718.000000	66.190749
1717.000000	66.267426
1716.000000	66.339844
1715.000000	66.429421
1714.000000	66.538171
1713.000000	66.608023
1712.000000	66.675518
1711.000000	66.741235
1710.000000	66.828339
1709.000000	66.889940
1708.000000	66.960980
1707.000000	66.990592
1706.000000	67.031081
1705.000000	67.072954
1704.000000	67.096919
1703.000000	67.111169
1702.000000	67.121653
1701.000000	67.164038
1700.000000	67.150302
1699.000000	67.183708
1698.000000	67.228611
1697.000000	67.231899
1696.000000	67.268641
1695.000000	67.287954
1694.000000	67.357778
1693.000000	67.403502
1692.000000	67.455769
1691.000000	67.521701
1690.000000	67.601815
1689.000000	67.697371
1688.000000	67.762594
1687.000000	67.878523
1686.000000	67.992077
1685.000000	68.128684
1684.000000	68.278766
1683.000000	68.420447
1682.000000	68.572771
1681.000000	68.718326
1680.000000	68.854225
1679.000000	69.047026
1678.000000	69.192009
1677.000000	69.381198
1676.000000	69.543143
1675.000000	69.712997
1674.000000	69.897625
1673.000000	70.069475
1672.000000	70.184032
1671.000000	70.363869
1670.000000	70.512681
1669.000000	70.654130
1668.000000	70.770995
1667.000000	70.919832
1666.000000	70.985632
1665.000000	71.086627
1664.000000	71.169236
1663.000000	71.272111
1662.000000	71.361065
1661.000000	71.450066
1660.000000	71.502736
1659.000000	71.548691
1658.000000	71.604120
1657.000000	71.644541
1656.000000	71.697664
1655.000000	71.721502
1654.000000	71.734505
1653.000000	71.762736
1652.000000	71.820699
1651.000000	71.795977
1650.000000	71.809402
1649.000000	71.809890
1648.000000	71.781919
1647.000000	71.779585
1646.000000	71.780598
1645.000000	71.772568
1644.000000	71.747337
1643.000000	71.725804
1642.000000	71.693712
1641.000000	71.679298
1640.000000	71.678310
1639.000000	71.658598
1638.000000	71.619867
1637.000000	71.606114
1636.000000	71.564480
1635.000000	71.542524
1634.000000	71.513353
1633.000000	71.463619
1632.000000	71.412959
1631.000000	71.352473
1630.000000	71.316802
1629.000000	71.299019
1628.000000	71.243299
1627.000000	71.225842
1626.000000	71.188786
1625.000000	71.137012
1624.000000	71.104105
1623.000000	71.055010
1622.000000	71.014114
1621.000000	70.959855
1620.000000	70.916596
1619.000000	70.880041
1618.000000	70.799304
1617.000000	70.750530
1616.000000	70.697066
1615.000000	70.637476
1614.000000	70.594944
1613.000000	70.538921
1612.000000	70.490653
1611.000000	70.430084
1610.000000	70.378673
1609.000000	70.346641
1608.000000	70.293291
1607.000000	70.213761
1606.000000	70.131492
1605.000000	70.082738
1604.000000	70.015533
1603.000000	69.949550
1602.000000	69.899237
1601.000000	69.852299
1600.000000	69.792193
1599.000000	69.726732
1598.000000	69.670054
1597.000000	69.622011
1596.000000	69.573292
1595.000000	69.511932
1594.000000	69.452177
1593.000000	69.414899
1592.000000	69.364631
1591.000000	69.296057
1590.000000	69.257584
1589.000000	69.212166
1588.000000	69.145643
1587.000000	69.109878
1586.000000	69.078507
1585.000000	69.024142
1584.000000	68.976836
1583.000000	68.948919
1582.000000	68.911383
1581.000000	68.870124
1580.000000	68.832184
1579.000000	68.789533
1578.000000	68.768743
1577.000000	68.712396
1576.000000	68.672545
1575.000000	68.625725
1574.000000	68.564480
1573.000000	68.535384
1572.000000	68.504461
1571.000000	68.472718
1570.000000	68.432625
1569.000000	68.373983
1568.000000	68.342142
1567.000000	68.305277
1566.000000	68.268230
1565.000000	68.257468
1564.000000	68.234029
1563.000000	68.205109
1562.000000	68.180160
1561.000000	68.150640
1560.000000	68.135577
1559.000000	68.125072
1558.000000	68.101697
1557.000000	68.095628
1556.000000	68.071671
1555.000000	68.054744
1554.000000	68.033407
1553.000000	68.010464
1552.000000	67.950270
1551.000000	67.936293
1550.000000	67.901231
1549.000000	67.857019
1548.000000	67.848192
1547.000000	67.800709
1546.000000	67.740949
1545.000000	67.667185
1544.000000	67.590927
1543.000000	67.530529
1542.000000	67.481321
1541.000000	67.397795
1540.000000	67.323952
1539.000000	67.240915
1538.000000	67.160887
1537.000000	67.064572
1536.000000	66.982323
1535.000000	66.894728
1534.000000	66.834346
1533.000000	66.769203
1532.000000	66.686485
1531.000000	66.610258
1530.000000	66.543528
1529.000000	66.449841
1528.000000	66.399193
1527.000000	66.341598
1526.000000	66.281317
1525.000000	66.238266
1524.000000	66.156115
1523.000000	66.116564
1522.000000	66.059515
1521.000000	66.021136
1520.000000	65.980565
1519.000000	65.959601
1518.000000	65.914819
1517.000000	65.893525
1516.000000	65.872719
1515.000000	65.828441
1514.000000	65.783962
1513.000000	65.791871
1512.000000	65.777949
1511.000000	65.752585
1510.000000	65.728798
1509.000000	65.730089
1508.000000	65.733365
1507.000000	65.702387
1506.000000	65.685397
1505.000000	65.696728
1504.000000	65.696899
1503.000000	65.712720
1502.000000	65.684914
1501.000000	65.682551
1500.000000	65.684688
1499.000000	65.693119
1498.000000	65.714111
1497.000000	65.700236
1496.000000	65.720941
1495.000000	65.739341
1494.000000	65.772597
1493.000000	65.801055
1492.000000	65.811052
1491.000000	65.853344
1490.000000	65.892515
1489.000000	65.912544
1488.000000	65.980875
1487.000000	65.991825
1486.000000	66.033782
1485.000000	66.085680
1484.000000	66.124589
1483.000000	66.172862
1482.000000	66.231412
1481.000000	66.303670
1480.000000	66.349882
1479.000000	66.364625
1478.000000	66.428282
1477.000000	66.482622
1476.000000	66.541757
1475.000000	66.601873
1474.000000	66.625243
1473.000000	66.661451
1472.000000	66.747715
1471.000000	66.768721
1470.000000	66.803996
