PE UV       SUBTECH     SPECTRUM    ASCII       PEDS        4.00        
   -1
RDms499172.Sample.asc
18/03/22
12:26:11.00
18/03/22
12:26:11.00
Administrator

200.000000
1
Lambda 750
750N8071901
PerkinElmer UV WinLab 6.0.4.0738 / 1.61.00 Lambda 900

0
0
3350/servo 860.8/2
0
0
UV/VIS
1
1
1
CommonBeamDepol,150mm sphere / downward view
0
0
0
0
Program
Program
3350/servo 860.8/2
3350/0.2 860.8/0.2
3350/0.2 860.8/0.2
0
1
 
 
 
0
 
860.8
319.2
860.8
Front
100
on
 
 
0
0
0
 
0
 
 
 
0
 
 
0
0
0
0
0
 
 
 
 
0
0


0
0
#HDR
-1
-1
#GR
nm
%R
1.0
0.0
2350.000000
-1.000000
2151
8
55.909143
6.958098
#DATA
2350.000000	32.092609
2349.000000	32.257344
2348.000000	31.827112
2347.000000	32.532984
2346.000000	32.359396
2345.000000	32.196605
2344.000000	32.372675
2343.000000	32.157217
2342.000000	32.217559
2341.000000	32.717543
2340.000000	32.153524
2339.000000	32.849677
2338.000000	32.828682
2337.000000	32.642523
2336.000000	33.050879
2335.000000	32.853727
2334.000000	32.855632
2333.000000	33.210539
2332.000000	33.193859
2331.000000	33.201362
2330.000000	33.250004
2329.000000	33.020782
2328.000000	32.835418
2327.000000	32.650086
2326.000000	32.947559
2325.000000	32.882094
2324.000000	33.207081
2323.000000	32.917600
2322.000000	32.675282
2321.000000	32.715965
2320.000000	32.659301
2319.000000	32.417951
2318.000000	32.426442
2317.000000	32.467655
2316.000000	32.180407
2315.000000	32.014110
2314.000000	32.200361
2313.000000	32.077066
2312.000000	31.956744
2311.000000	32.194259
2310.000000	32.186820
2309.000000	32.068660
2308.000000	31.817979
2307.000000	31.955352
2306.000000	32.005171
2305.000000	31.893644
2304.000000	31.798102
2303.000000	31.705958
2302.000000	31.782164
2301.000000	31.681631
2300.000000	31.824947
2299.000000	31.516919
2298.000000	31.354345
2297.000000	31.362542
2296.000000	31.261180
2295.000000	31.464198
2294.000000	31.220454
2293.000000	31.133232
2292.000000	31.056111
2291.000000	31.071476
2290.000000	31.307340
2289.000000	31.155793
2288.000000	31.266444
2287.000000	31.449900
2286.000000	31.116710
2285.000000	31.134047
2284.000000	31.112776
2283.000000	30.973125
2282.000000	30.981349
2281.000000	31.036548
2280.000000	31.162314
2279.000000	31.075145
2278.000000	31.143941
2277.000000	31.173182
2276.000000	31.130965
2275.000000	31.126440
2274.000000	31.426810
2273.000000	31.506545
2272.000000	31.531665
2271.000000	31.403784
2270.000000	31.403636
2269.000000	31.509283
2268.000000	31.625493
2267.000000	31.659052
2266.000000	31.901107
2265.000000	32.068213
2264.000000	32.192658
2263.000000	32.271798
2262.000000	32.275552
2261.000000	32.368087
2260.000000	32.560694
2259.000000	32.798983
2258.000000	32.982418
2257.000000	33.006814
2256.000000	33.192047
2255.000000	33.342600
2254.000000	33.598964
2253.000000	33.793887
2252.000000	33.977987
2251.000000	34.187429
2250.000000	34.351620
2249.000000	34.498175
2248.000000	34.571789
2247.000000	34.828142
2246.000000	35.086357
2245.000000	35.307080
2244.000000	35.434158
2243.000000	35.517005
2242.000000	35.754630
2241.000000	35.939757
2240.000000	36.040299
2239.000000	36.037236
2238.000000	36.109318
2237.000000	36.283048
2236.000000	36.400570
2235.000000	36.516820
2234.000000	36.528250
2233.000000	36.546070
2232.000000	36.585571
2231.000000	36.788322
2230.000000	36.766345
2229.000000	36.897920
2228.000000	37.085801
2227.000000	37.085917
2226.000000	36.903844
2225.000000	36.889509
2224.000000	36.986810
2223.000000	36.927865
2222.000000	36.768156
2221.000000	36.846758
2220.000000	36.930033
2219.000000	36.943095
2218.000000	36.900472
2217.000000	36.816570
2216.000000	36.754122
2215.000000	36.715220
2214.000000	36.710855
2213.000000	36.724384
2212.000000	36.539573
2211.000000	36.515989
2210.000000	36.491472
2209.000000	36.450303
2208.000000	36.143372
2207.000000	36.202001
2206.000000	36.354347
2205.000000	36.376682
2204.000000	36.165718
2203.000000	36.001611
2202.000000	35.928840
2201.000000	35.909100
2200.000000	35.971970
2199.000000	35.846181
2198.000000	35.841230
2197.000000	35.843265
2196.000000	35.696568
2195.000000	35.689253
2194.000000	35.737153
2193.000000	35.642923
2192.000000	35.542075
2191.000000	35.304378
2190.000000	35.307904
2189.000000	35.318489
2188.000000	35.227654
2187.000000	35.144902
2186.000000	35.173620
2185.000000	35.113556
2184.000000	35.163557
2183.000000	35.260053
2182.000000	35.148483
2181.000000	35.045283
2180.000000	34.951263
2179.000000	34.966477
2178.000000	34.887691
2177.000000	34.873703
2176.000000	34.841109
2175.000000	34.934556
2174.000000	34.993124
2173.000000	35.152270
2172.000000	35.189383
2171.000000	35.236031
2170.000000	35.233731
2169.000000	35.203475
2168.000000	35.285562
2167.000000	35.271910
2166.000000	35.541373
2165.000000	35.491744
2164.000000	35.473273
2163.000000	35.653697
2162.000000	35.814490
2161.000000	35.843474
2160.000000	35.986625
2159.000000	36.061839
2158.000000	36.080996
2157.000000	36.308871
2156.000000	36.427921
2155.000000	36.603957
2154.000000	36.826258
2153.000000	37.069324
2152.000000	36.936301
2151.000000	37.014404
2150.000000	37.009024
2149.000000	37.317650
2148.000000	37.159092
2147.000000	37.335767
2146.000000	37.632339
2145.000000	37.737635
2144.000000	37.908406
2143.000000	37.889929
2142.000000	37.967630
2141.000000	37.901663
2140.000000	38.002955
2139.000000	38.206760
2138.000000	38.372288
2137.000000	38.460041
2136.000000	38.441448
2135.000000	38.632911
2134.000000	38.503639
2133.000000	38.503927
2132.000000	38.739616
2131.000000	38.911423
2130.000000	38.959662
2129.000000	38.937958
2128.000000	38.789918
2127.000000	38.835493
2126.000000	38.688613
2125.000000	39.022328
2124.000000	39.157857
2123.000000	38.991607
2122.000000	39.103842
2121.000000	39.171022
2120.000000	39.236471
2119.000000	39.310025
2118.000000	39.243050
2117.000000	39.426068
2116.000000	39.366356
2115.000000	39.508243
2114.000000	39.325236
2113.000000	39.476771
2112.000000	39.288378
2111.000000	39.409976
2110.000000	39.299249
2109.000000	39.432101
2108.000000	39.583721
2107.000000	39.345630
2106.000000	39.559141
2105.000000	39.565084
2104.000000	39.463096
2103.000000	39.603324
2102.000000	39.532371
2101.000000	39.518607
2100.000000	39.542106
2099.000000	39.563062
2098.000000	39.550108
2097.000000	39.396707
2096.000000	39.488320
2095.000000	39.476263
2094.000000	39.471063
2093.000000	39.465955
2092.000000	39.469408
2091.000000	39.499414
2090.000000	39.497124
2089.000000	39.422773
2088.000000	39.393728
2087.000000	39.465930
2086.000000	39.371524
2085.000000	39.324344
2084.000000	39.405359
2083.000000	39.292625
2082.000000	39.245752
2081.000000	39.100215
2080.000000	39.059640
2079.000000	39.090032
2078.000000	39.024988
2077.000000	39.050895
2076.000000	38.911790
2075.000000	38.881176
2074.000000	38.821688
2073.000000	38.669378
2072.000000	38.657281
2071.000000	38.556916
2070.000000	38.506994
2069.000000	38.349654
2068.000000	38.276110
2067.000000	38.198594
2066.000000	38.076149
2065.000000	37.982650
2064.000000	37.853823
2063.000000	37.742075
2062.000000	37.665696
2061.000000	37.428508
2060.000000	37.307186
2059.000000	37.244317
2058.000000	37.197453
2057.000000	37.050756
2056.000000	36.949779
2055.000000	36.853688
2054.000000	36.691115
2053.000000	36.584508
2052.000000	36.507761
2051.000000	36.410539
2050.000000	36.335615
2049.000000	36.326317
2048.000000	36.247955
2047.000000	36.189136
2046.000000	36.117013
2045.000000	36.064607
2044.000000	36.086300
2043.000000	36.060278
2042.000000	36.001918
2041.000000	36.063287
2040.000000	36.097354
2039.000000	36.092818
2038.000000	36.117495
2037.000000	36.167993
2036.000000	36.230625
2035.000000	36.274430
2034.000000	36.363276
2033.000000	36.463160
2032.000000	36.539016
2031.000000	36.635670
2030.000000	36.728302
2029.000000	36.790295
2028.000000	36.857685
2027.000000	36.962153
2026.000000	37.065089
2025.000000	37.156580
2024.000000	37.221643
2023.000000	37.301098
2022.000000	37.319907
2021.000000	37.300564
2020.000000	37.370570
2019.000000	37.382929
2018.000000	37.353045
2017.000000	37.359544
2016.000000	37.338441
2015.000000	37.329737
2014.000000	37.292391
2013.000000	37.299222
2012.000000	37.303920
2011.000000	37.234698
2010.000000	37.160791
2009.000000	37.127815
2008.000000	37.050116
2007.000000	36.970187
2006.000000	36.858921
2005.000000	36.762696
2004.000000	36.696626
2003.000000	36.599293
2002.000000	36.547374
2001.000000	36.445541
2000.000000	36.315611
1999.000000	36.201934
1998.000000	36.109372
1997.000000	36.031979
1996.000000	35.987834
1995.000000	35.924853
1994.000000	35.780022
1993.000000	35.660971
1992.000000	35.532638
1991.000000	35.451761
1990.000000	35.354863
1989.000000	35.209840
1988.000000	35.107721
1987.000000	35.050798
1986.000000	34.927560
1985.000000	34.791826
1984.000000	34.734102
1983.000000	34.665587
1982.000000	34.606515
1981.000000	34.492813
1980.000000	34.361678
1979.000000	34.238269
1978.000000	34.150747
1977.000000	34.040022
1976.000000	33.908551
1975.000000	33.806222
1974.000000	33.713142
1973.000000	33.668393
1972.000000	33.544037
1971.000000	33.376760
1970.000000	33.334893
1969.000000	33.283360
1968.000000	33.180615
1967.000000	33.128444
1966.000000	33.068530
1965.000000	32.916926
1964.000000	32.818375
1963.000000	32.738339
1962.000000	32.646988
1961.000000	32.541137
1960.000000	32.505920
1959.000000	32.436391
1958.000000	32.325614
1957.000000	32.187702
1956.000000	32.116264
1955.000000	32.067652
1954.000000	32.061235
1953.000000	31.943526
1952.000000	31.889742
1951.000000	31.865149
1950.000000	31.847037
1949.000000	31.760817
1948.000000	31.775842
1947.000000	31.704121
1946.000000	31.663397
1945.000000	31.634559
1944.000000	31.658830
1943.000000	31.692105
1942.000000	31.707768
1941.000000	31.736175
1940.000000	31.713843
1939.000000	31.742699
1938.000000	31.716143
1937.000000	31.832896
1936.000000	31.922900
1935.000000	31.977203
1934.000000	32.091023
1933.000000	32.198276
1932.000000	32.295595
1931.000000	32.470789
1930.000000	32.608018
1929.000000	32.746491
1928.000000	32.878035
1927.000000	32.966097
1926.000000	33.241857
1925.000000	33.441408
1924.000000	33.613245
1923.000000	33.842875
1922.000000	34.047121
1921.000000	34.370109
1920.000000	34.554842
1919.000000	34.801620
1918.000000	35.130375
1917.000000	35.423829
1916.000000	35.653353
1915.000000	36.005379
1914.000000	36.366902
1913.000000	36.695493
1912.000000	36.961408
1911.000000	37.304530
1910.000000	37.661345
1909.000000	38.051820
1908.000000	38.435535
1907.000000	38.725196
1906.000000	39.260885
1905.000000	39.599414
1904.000000	40.054395
1903.000000	40.446327
1902.000000	40.824527
1901.000000	41.196173
1900.000000	41.696273
1899.000000	42.059307
1898.000000	42.494220
1897.000000	42.897447
1896.000000	43.330033
1895.000000	43.784881
1894.000000	44.127518
1893.000000	44.481469
1892.000000	44.849680
1891.000000	45.207156
1890.000000	45.585967
1889.000000	45.942783
1888.000000	46.253044
1887.000000	46.592692
1886.000000	46.941607
1885.000000	47.194810
1884.000000	47.511151
1883.000000	47.758598
1882.000000	47.986711
1881.000000	48.302275
1880.000000	48.540832
1879.000000	48.712182
1878.000000	48.869953
1877.000000	49.114099
1876.000000	49.268090
1875.000000	49.443885
1874.000000	49.618921
1873.000000	49.689226
1872.000000	49.804527
1871.000000	49.920003
1870.000000	50.045446
1869.000000	50.198927
1868.000000	50.304925
1867.000000	50.342813
1866.000000	50.357061
1865.000000	50.436669
1864.000000	50.497214
1863.000000	50.567989
1862.000000	50.627052
1861.000000	50.699819
1860.000000	50.739130
1859.000000	50.746387
1858.000000	50.769950
1857.000000	50.843080
1856.000000	50.857781
1855.000000	50.851966
1854.000000	50.895920
1853.000000	50.940683
1852.000000	50.943381
1851.000000	50.949477
1850.000000	50.948847
1849.000000	50.948541
1848.000000	50.962017
1847.000000	50.937520
1846.000000	50.896883
1845.000000	50.897901
1844.000000	50.897071
1843.000000	50.905350
1842.000000	50.875164
1841.000000	50.832429
1840.000000	50.832957
1839.000000	50.805209
1838.000000	50.754884
1837.000000	50.733580
1836.000000	50.677588
1835.000000	50.616482
1834.000000	50.579556
1833.000000	50.567847
1832.000000	50.534581
1831.000000	50.519301
1830.000000	50.505786
1829.000000	50.458706
1828.000000	50.397229
1827.000000	50.386344
1826.000000	50.378415
1825.000000	50.358367
1824.000000	50.361523
1823.000000	50.327548
1822.000000	50.293345
1821.000000	50.279364
1820.000000	50.248416
1819.000000	50.211888
1818.000000	50.190712
1817.000000	50.172909
1816.000000	50.121376
1815.000000	50.100328
1814.000000	50.078178
1813.000000	50.068329
1812.000000	50.052256
1811.000000	50.033245
1810.000000	50.038236
1809.000000	50.018456
1808.000000	49.982914
1807.000000	49.960989
1806.000000	49.940544
1805.000000	49.912003
1804.000000	49.912743
1803.000000	49.901660
1802.000000	49.880216
1801.000000	49.855488
1800.000000	49.841470
1799.000000	49.835664
1798.000000	49.815597
1797.000000	49.801158
1796.000000	49.781763
1795.000000	49.770799
1794.000000	49.762485
1793.000000	49.765911
1792.000000	49.760377
1791.000000	49.740536
1790.000000	49.732996
1789.000000	49.705116
1788.000000	49.680987
1787.000000	49.699466
1786.000000	49.697629
1785.000000	49.681448
1784.000000	49.667153
1783.000000	49.669892
1782.000000	49.637682
1781.000000	49.600001
1780.000000	49.573409
1779.000000	49.541645
1778.000000	49.502398
1777.000000	49.493456
1776.000000	49.478788
1775.000000	49.416479
1774.000000	49.391868
1773.000000	49.381703
1772.000000	49.326004
1771.000000	49.282180
1770.000000	49.243394
1769.000000	49.228031
1768.000000	49.189293
1767.000000	49.153674
1766.000000	49.112493
1765.000000	49.082375
1764.000000	49.072863
1763.000000	49.012011
1762.000000	49.001088
1761.000000	48.978578
1760.000000	48.950769
1759.000000	48.885083
1758.000000	48.879251
1757.000000	48.877076
1756.000000	48.825195
1755.000000	48.794200
1754.000000	48.773748
1753.000000	48.706015
1752.000000	48.672613
1751.000000	48.649636
1750.000000	48.659069
1749.000000	48.634984
1748.000000	48.576897
1747.000000	48.507116
1746.000000	48.499687
1745.000000	48.454800
1744.000000	48.404750
1743.000000	48.363669
1742.000000	48.327948
1741.000000	48.313767
1740.000000	48.271886
1739.000000	48.230969
1738.000000	48.165006
1737.000000	48.154838
1736.000000	48.140957
1735.000000	48.129644
1734.000000	48.094571
1733.000000	48.115069
1732.000000	48.065731
1731.000000	48.100119
1730.000000	48.112600
1729.000000	48.110304
1728.000000	48.170895
1727.000000	48.203499
1726.000000	48.279982
1725.000000	48.277813
1724.000000	48.340603
1723.000000	48.405189
1722.000000	48.460186
1721.000000	48.551388
1720.000000	48.606332
1719.000000	48.708115
1718.000000	48.758995
1717.000000	48.798768
1716.000000	48.863732
1715.000000	48.948112
1714.000000	49.016191
1713.000000	49.076136
1712.000000	49.093079
1711.000000	49.174459
1710.000000	49.264231
1709.000000	49.284850
1708.000000	49.318260
1707.000000	49.329667
1706.000000	49.369004
1705.000000	49.413407
1704.000000	49.437576
1703.000000	49.478085
1702.000000	49.473247
1701.000000	49.484654
1700.000000	49.533336
1699.000000	49.512184
1698.000000	49.589754
1697.000000	49.607175
1696.000000	49.654808
1695.000000	49.637777
1694.000000	49.638863
1693.000000	49.691671
1692.000000	49.752004
1691.000000	49.807404
1690.000000	49.820393
1689.000000	49.883045
1688.000000	49.970646
1687.000000	50.004884
1686.000000	50.086371
1685.000000	50.179666
1684.000000	50.269582
1683.000000	50.363156
1682.000000	50.418020
1681.000000	50.558656
1680.000000	50.624753
1679.000000	50.710893
1678.000000	50.778163
1677.000000	50.904940
1676.000000	51.013638
1675.000000	51.113532
1674.000000	51.224049
1673.000000	51.295271
1672.000000	51.386905
1671.000000	51.473987
1670.000000	51.551148
1669.000000	51.665321
1668.000000	51.688185
1667.000000	51.811498
1666.000000	51.809288
1665.000000	51.868081
1664.000000	51.918635
1663.000000	51.965439
1662.000000	52.010004
1661.000000	52.068067
1660.000000	52.073153
1659.000000	52.106473
1658.000000	52.138748
1657.000000	52.162746
1656.000000	52.174169
1655.000000	52.218949
1654.000000	52.194344
1653.000000	52.227334
1652.000000	52.228706
1651.000000	52.240066
1650.000000	52.247491
1649.000000	52.220531
1648.000000	52.214461
1647.000000	52.226349
1646.000000	52.202666
1645.000000	52.162602
1644.000000	52.131161
1643.000000	52.135992
1642.000000	52.124534
1641.000000	52.114512
1640.000000	52.109669
1639.000000	52.078458
1638.000000	52.074486
1637.000000	52.047357
1636.000000	51.985832
1635.000000	51.987414
1634.000000	51.977111
1633.000000	51.941034
1632.000000	51.902946
1631.000000	51.873957
1630.000000	51.864981
1629.000000	51.854303
1628.000000	51.801145
1627.000000	51.797368
1626.000000	51.753681
1625.000000	51.702849
1624.000000	51.664637
1623.000000	51.654753
1622.000000	51.651555
1621.000000	51.599893
1620.000000	51.553247
1619.000000	51.529499
1618.000000	51.479710
1617.000000	51.464237
1616.000000	51.430770
1615.000000	51.409830
1614.000000	51.373064
1613.000000	51.334672
1612.000000	51.315851
1611.000000	51.269615
1610.000000	51.223103
1609.000000	51.189392
1608.000000	51.173348
1607.000000	51.128578
1606.000000	51.071139
1605.000000	51.061550
1604.000000	51.024921
1603.000000	50.973572
1602.000000	50.942059
1601.000000	50.902176
1600.000000	50.866718
1599.000000	50.839018
1598.000000	50.799831
1597.000000	50.756304
1596.000000	50.733645
1595.000000	50.701059
1594.000000	50.663853
1593.000000	50.651157
1592.000000	50.624836
1591.000000	50.585958
1590.000000	50.556642
1589.000000	50.509036
1588.000000	50.468442
1587.000000	50.465326
1586.000000	50.450530
1585.000000	50.418704
1584.000000	50.391687
1583.000000	50.351268
1582.000000	50.330161
1581.000000	50.296715
1580.000000	50.266963
1579.000000	50.256397
1578.000000	50.235740
1577.000000	50.201723
1576.000000	50.175342
1575.000000	50.135436
1574.000000	50.074648
1573.000000	50.045840
1572.000000	50.035373
1571.000000	50.040711
1570.000000	50.006302
1569.000000	49.963664
1568.000000	49.935869
1567.000000	49.917885
1566.000000	49.904164
1565.000000	49.869014
1564.000000	49.837048
1563.000000	49.841969
1562.000000	49.829412
1561.000000	49.790281
1560.000000	49.774485
1559.000000	49.749343
1558.000000	49.732342
1557.000000	49.715746
1556.000000	49.695153
1555.000000	49.695579
1554.000000	49.664430
1553.000000	49.646029
1552.000000	49.617368
1551.000000	49.586462
1550.000000	49.563823
1549.000000	49.526894
1548.000000	49.514381
1547.000000	49.475556
1546.000000	49.448920
1545.000000	49.395177
1544.000000	49.337186
1543.000000	49.303152
1542.000000	49.249242
1541.000000	49.187338
1540.000000	49.142355
1539.000000	49.094525
1538.000000	49.057131
1537.000000	48.987135
1536.000000	48.933645
1535.000000	48.871260
1534.000000	48.820636
1533.000000	48.798879
1532.000000	48.731427
1531.000000	48.664949
1530.000000	48.616037
1529.000000	48.558096
1528.000000	48.517526
1527.000000	48.478495
1526.000000	48.453060
1525.000000	48.397514
1524.000000	48.355580
1523.000000	48.316662
1522.000000	48.281746
1521.000000	48.251031
1520.000000	48.238927
1519.000000	48.204249
1518.000000	48.176846
1517.000000	48.177434
1516.000000	48.125081
1515.000000	48.101010
1514.000000	48.070648
1513.000000	48.073260
1512.000000	48.030189
1511.000000	48.032636
1510.000000	48.019447
1509.000000	48.009993
1508.000000	48.007750
1507.000000	47.995149
1506.000000	47.977613
1505.000000	47.970224
1504.000000	47.972190
1503.000000	47.967992
1502.000000	47.939163
1501.000000	47.938174
1500.000000	47.936798
1499.000000	47.935329
1498.000000	47.944376
1497.000000	47.925876
1496.000000	47.929619
1495.000000	47.950163
1494.000000	47.962703
1493.000000	47.987439
1492.000000	47.978417
1491.000000	47.969759
1490.000000	47.997085
1489.000000	48.014127
1488.000000	48.030485
1487.000000	48.023849
1486.000000	48.039766
1485.000000	48.072938
1484.000000	48.087635
1483.000000	48.087188
1482.000000	48.104859
1481.000000	48.158624
1480.000000	48.183629
1479.000000	48.168546
1478.000000	48.201649
1477.000000	48.234473
1476.000000	48.251024
1475.000000	48.249924
1474.000000	48.273297
1473.000000	48.294824
1472.000000	48.308341
1471.000000	48.287362
1470.000000	48.328534
