PE UV       SUBTECH     SPECTRUM    ASCII       PEDS        4.00        
   -1
RDms1482162.Sample.asc
18/03/22
11:29:15.00
18/03/22
11:29:15.00
Administrator

200.000000
1
Lambda 750
750N8071901
PerkinElmer UV WinLab 6.0.4.0738 / 1.61.00 Lambda 900

0
0
3350/servo 860.8/2
0
0
UV/VIS
1
1
1
CommonBeamDepol,150mm sphere / downward view
0
0
0
0
Program
Program
3350/servo 860.8/2
3350/0.2 860.8/0.2
3350/0.2 860.8/0.2
0
1
 
 
 
0
 
860.8
319.2
860.8
Front
100
on
 
 
0
0
0
 
0
 
 
 
0
 
 
0
0
0
0
0
 
 
 
 
0
0


0
0
#HDR
-1
-1
#GR
nm
%R
1.0
0.0
2350.000000
-1.000000
2151
8
73.266432
14.328794
#DATA
2350.000000	42.273938
2349.000000	42.548408
2348.000000	42.144537
2347.000000	42.643616
2346.000000	42.405294
2345.000000	42.549875
2344.000000	42.534463
2343.000000	42.208502
2342.000000	42.452401
2341.000000	42.583092
2340.000000	42.442761
2339.000000	42.524426
2338.000000	42.514116
2337.000000	42.809899
2336.000000	43.017538
2335.000000	42.953905
2334.000000	42.956912
2333.000000	43.137207
2332.000000	43.257969
2331.000000	43.249496
2330.000000	43.034794
2329.000000	42.824316
2328.000000	42.993728
2327.000000	43.088793
2326.000000	42.894651
2325.000000	42.881628
2324.000000	42.938661
2323.000000	42.717081
2322.000000	42.718431
2321.000000	42.698038
2320.000000	42.891580
2319.000000	42.761381
2318.000000	42.348024
2317.000000	42.506333
2316.000000	42.425422
2315.000000	42.273814
2314.000000	42.146218
2313.000000	42.339216
2312.000000	42.264076
2311.000000	42.299558
2310.000000	42.301349
2309.000000	42.023640
2308.000000	42.002327
2307.000000	41.883646
2306.000000	41.798748
2305.000000	41.749438
2304.000000	41.622563
2303.000000	41.703882
2302.000000	41.511352
2301.000000	41.450772
2300.000000	41.201772
2299.000000	41.048957
2298.000000	40.924973
2297.000000	40.804367
2296.000000	40.997602
2295.000000	40.901415
2294.000000	41.010319
2293.000000	40.795908
2292.000000	40.637879
2291.000000	40.348310
2290.000000	40.668765
2289.000000	40.367955
2288.000000	40.478274
2287.000000	40.476391
2286.000000	40.165486
2285.000000	40.141083
2284.000000	40.295928
2283.000000	40.211100
2282.000000	40.195340
2281.000000	40.258029
2280.000000	40.114530
2279.000000	40.227437
2278.000000	40.324458
2277.000000	40.280688
2276.000000	40.376958
2275.000000	40.322858
2274.000000	40.392909
2273.000000	40.635926
2272.000000	40.713887
2271.000000	40.662944
2270.000000	40.647450
2269.000000	40.581313
2268.000000	40.617961
2267.000000	40.726711
2266.000000	40.987161
2265.000000	41.059574
2264.000000	41.223320
2263.000000	41.448070
2262.000000	41.423677
2261.000000	41.469806
2260.000000	41.718241
2259.000000	41.994483
2258.000000	42.164964
2257.000000	42.365060
2256.000000	42.438138
2255.000000	42.692870
2254.000000	42.869296
2253.000000	42.961683
2252.000000	43.285030
2251.000000	43.611560
2250.000000	43.732976
2249.000000	43.948905
2248.000000	44.067889
2247.000000	44.308462
2246.000000	44.653944
2245.000000	44.737519
2244.000000	44.950247
2243.000000	45.225556
2242.000000	45.389074
2241.000000	45.545863
2240.000000	45.668306
2239.000000	45.676177
2238.000000	45.689326
2237.000000	45.843580
2236.000000	46.096728
2235.000000	46.207798
2234.000000	46.336439
2233.000000	46.376576
2232.000000	46.334275
2231.000000	46.453912
2230.000000	46.612044
2229.000000	46.718737
2228.000000	46.727547
2227.000000	46.624137
2226.000000	46.637816
2225.000000	46.514047
2224.000000	46.473763
2223.000000	46.515886
2222.000000	46.573025
2221.000000	46.631803
2220.000000	46.432388
2219.000000	46.338819
2218.000000	46.327168
2217.000000	46.323344
2216.000000	46.330040
2215.000000	46.342087
2214.000000	46.242633
2213.000000	46.270463
2212.000000	46.136489
2211.000000	46.138019
2210.000000	46.105279
2209.000000	45.869634
2208.000000	45.724440
2207.000000	45.673920
2206.000000	45.844688
2205.000000	45.739538
2204.000000	45.563791
2203.000000	45.492280
2202.000000	45.498222
2201.000000	45.411744
2200.000000	45.355777
2199.000000	45.385980
2198.000000	45.352030
2197.000000	45.234931
2196.000000	44.960889
2195.000000	44.908255
2194.000000	44.928103
2193.000000	44.762723
2192.000000	44.798496
2191.000000	44.805764
2190.000000	44.678067
2189.000000	44.549383
2188.000000	44.626935
2187.000000	44.638115
2186.000000	44.578433
2185.000000	44.341547
2184.000000	44.390916
2183.000000	44.493328
2182.000000	44.460056
2181.000000	44.307973
2180.000000	44.217770
2179.000000	44.319273
2178.000000	44.338168
2177.000000	44.288226
2176.000000	44.290736
2175.000000	44.520847
2174.000000	44.360069
2173.000000	44.338026
2172.000000	44.490118
2171.000000	44.677965
2170.000000	44.640020
2169.000000	44.882195
2168.000000	45.009511
2167.000000	45.132180
2166.000000	44.992010
2165.000000	45.321260
2164.000000	45.318722
2163.000000	45.253954
2162.000000	45.508895
2161.000000	45.618599
2160.000000	45.651091
2159.000000	45.843162
2158.000000	45.965666
2157.000000	46.007874
2156.000000	46.191408
2155.000000	46.384513
2154.000000	46.597905
2153.000000	46.903031
2152.000000	47.012576
2151.000000	47.034737
2150.000000	47.010417
2149.000000	47.425339
2148.000000	47.476803
2147.000000	47.806930
2146.000000	47.731863
2145.000000	48.078812
2144.000000	48.113167
2143.000000	48.165379
2142.000000	48.223027
2141.000000	48.474520
2140.000000	48.601988
2139.000000	48.734163
2138.000000	48.821274
2137.000000	49.142108
2136.000000	48.950947
2135.000000	49.311465
2134.000000	49.412783
2133.000000	49.278667
2132.000000	49.344077
2131.000000	49.841237
2130.000000	49.821235
2129.000000	49.649077
2128.000000	49.677198
2127.000000	49.664403
2126.000000	49.894227
2125.000000	49.948592
2124.000000	50.092263
2123.000000	49.898977
2122.000000	49.924518
2121.000000	50.233907
2120.000000	50.181778
2119.000000	50.280150
2118.000000	50.250023
2117.000000	50.327710
2116.000000	50.384855
2115.000000	50.376929
2114.000000	50.361311
2113.000000	50.353950
2112.000000	50.432974
2111.000000	50.490050
2110.000000	50.436162
2109.000000	50.460050
2108.000000	50.467423
2107.000000	50.558153
2106.000000	50.582328
2105.000000	50.505720
2104.000000	50.446004
2103.000000	50.629251
2102.000000	50.560507
2101.000000	50.599263
2100.000000	50.647099
2099.000000	50.625919
2098.000000	50.674079
2097.000000	50.571138
2096.000000	50.677035
2095.000000	50.571225
2094.000000	50.579126
2093.000000	50.605447
2092.000000	50.500676
2091.000000	50.570390
2090.000000	50.450214
2089.000000	50.529949
2088.000000	50.374202
2087.000000	50.396439
2086.000000	50.521622
2085.000000	50.435377
2084.000000	50.283381
2083.000000	50.167841
2082.000000	50.248096
2081.000000	50.129374
2080.000000	50.100641
2079.000000	50.007243
2078.000000	49.910319
2077.000000	49.798666
2076.000000	49.678633
2075.000000	49.631977
2074.000000	49.529629
2073.000000	49.404686
2072.000000	49.329360
2071.000000	49.139013
2070.000000	49.061719
2069.000000	48.927259
2068.000000	48.793244
2067.000000	48.652371
2066.000000	48.459365
2065.000000	48.290893
2064.000000	48.145188
2063.000000	47.974527
2062.000000	47.893050
2061.000000	47.754441
2060.000000	47.608042
2059.000000	47.500000
2058.000000	47.337319
2057.000000	47.183674
2056.000000	47.071159
2055.000000	46.938004
2054.000000	46.800656
2053.000000	46.645455
2052.000000	46.568287
2051.000000	46.401608
2050.000000	46.213021
2049.000000	46.199246
2048.000000	46.120737
2047.000000	46.006169
2046.000000	45.897616
2045.000000	45.861332
2044.000000	45.890265
2043.000000	45.871762
2042.000000	45.852550
2041.000000	45.890267
2040.000000	45.925034
2039.000000	45.828571
2038.000000	45.849823
2037.000000	46.004906
2036.000000	46.062885
2035.000000	46.110246
2034.000000	46.247989
2033.000000	46.311355
2032.000000	46.392884
2031.000000	46.547655
2030.000000	46.677559
2029.000000	46.748759
2028.000000	46.855646
2027.000000	46.975983
2026.000000	47.084722
2025.000000	47.191255
2024.000000	47.242035
2023.000000	47.251590
2022.000000	47.273209
2021.000000	47.313313
2020.000000	47.376480
2019.000000	47.427381
2018.000000	47.449088
2017.000000	47.451983
2016.000000	47.413377
2015.000000	47.401869
2014.000000	47.386409
2013.000000	47.365011
2012.000000	47.324191
2011.000000	47.258495
2010.000000	47.178498
2009.000000	47.130742
2008.000000	47.054109
2007.000000	46.955770
2006.000000	46.835497
2005.000000	46.782464
2004.000000	46.652083
2003.000000	46.502622
2002.000000	46.431170
2001.000000	46.303921
2000.000000	46.161769
1999.000000	46.106399
1998.000000	46.031046
1997.000000	45.896081
1996.000000	45.787044
1995.000000	45.667754
1994.000000	45.570605
1993.000000	45.447603
1992.000000	45.322686
1991.000000	45.178480
1990.000000	45.078094
1989.000000	44.986939
1988.000000	44.879567
1987.000000	44.738384
1986.000000	44.652066
1985.000000	44.535583
1984.000000	44.447664
1983.000000	44.266806
1982.000000	44.185947
1981.000000	44.098135
1980.000000	43.997824
1979.000000	43.862403
1978.000000	43.749085
1977.000000	43.630246
1976.000000	43.511407
1975.000000	43.421107
1974.000000	43.331900
1973.000000	43.261540
1972.000000	43.150427
1971.000000	43.017629
1970.000000	42.913319
1969.000000	42.816314
1968.000000	42.751480
1967.000000	42.652980
1966.000000	42.550515
1965.000000	42.397465
1964.000000	42.330928
1963.000000	42.241394
1962.000000	42.145477
1961.000000	42.016690
1960.000000	41.974785
1959.000000	41.905551
1958.000000	41.815054
1957.000000	41.758285
1956.000000	41.667971
1955.000000	41.559045
1954.000000	41.499218
1953.000000	41.449265
1952.000000	41.389810
1951.000000	41.403689
1950.000000	41.333673
1949.000000	41.235955
1948.000000	41.192752
1947.000000	41.166491
1946.000000	41.188512
1945.000000	41.215896
1944.000000	41.159831
1943.000000	41.166074
1942.000000	41.175515
1941.000000	41.244260
1940.000000	41.340135
1939.000000	41.372675
1938.000000	41.432379
1937.000000	41.501811
1936.000000	41.604917
1935.000000	41.752853
1934.000000	41.926694
1933.000000	42.005730
1932.000000	42.158034
1931.000000	42.288422
1930.000000	42.465314
1929.000000	42.647665
1928.000000	42.850877
1927.000000	43.060784
1926.000000	43.341737
1925.000000	43.541008
1924.000000	43.792636
1923.000000	44.051306
1922.000000	44.365048
1921.000000	44.577789
1920.000000	44.838388
1919.000000	45.212184
1918.000000	45.558916
1917.000000	45.896260
1916.000000	46.154314
1915.000000	46.596336
1914.000000	46.984189
1913.000000	47.417415
1912.000000	47.756352
1911.000000	48.090186
1910.000000	48.603049
1909.000000	48.896207
1908.000000	49.333551
1907.000000	49.786635
1906.000000	50.211142
1905.000000	50.747761
1904.000000	51.326162
1903.000000	51.752962
1902.000000	52.207826
1901.000000	52.730595
1900.000000	53.164952
1899.000000	53.819764
1898.000000	54.194214
1897.000000	54.646542
1896.000000	55.059122
1895.000000	55.587559
1894.000000	56.032885
1893.000000	56.487619
1892.000000	56.960929
1891.000000	57.352981
1890.000000	57.802077
1889.000000	58.219973
1888.000000	58.592685
1887.000000	58.959052
1886.000000	59.309985
1885.000000	59.683861
1884.000000	60.056019
1883.000000	60.357902
1882.000000	60.634034
1881.000000	60.925958
1880.000000	61.260909
1879.000000	61.493323
1878.000000	61.748435
1877.000000	62.012151
1876.000000	62.244597
1875.000000	62.524409
1874.000000	62.648906
1873.000000	62.828715
1872.000000	62.969632
1871.000000	63.192122
1870.000000	63.350434
1869.000000	63.451514
1868.000000	63.604345
1867.000000	63.695854
1866.000000	63.740159
1865.000000	63.861791
1864.000000	63.925335
1863.000000	64.011453
1862.000000	64.075668
1861.000000	64.134855
1860.000000	64.161545
1859.000000	64.225769
1858.000000	64.259328
1857.000000	64.323021
1856.000000	64.329314
1855.000000	64.397731
1854.000000	64.396637
1853.000000	64.426965
1852.000000	64.432480
1851.000000	64.477554
1850.000000	64.452757
1849.000000	64.461567
1848.000000	64.492118
1847.000000	64.469452
1846.000000	64.490478
1845.000000	64.478455
1844.000000	64.398467
1843.000000	64.365515
1842.000000	64.330126
1841.000000	64.321414
1840.000000	64.315477
1839.000000	64.321126
1838.000000	64.293300
1837.000000	64.260526
1836.000000	64.225496
1835.000000	64.225772
1834.000000	64.197992
1833.000000	64.140456
1832.000000	64.078647
1831.000000	64.053108
1830.000000	64.032481
1829.000000	64.005693
1828.000000	63.952657
1827.000000	63.933051
1826.000000	63.919312
1825.000000	63.888361
1824.000000	63.873205
1823.000000	63.849896
1822.000000	63.780088
1821.000000	63.754281
1820.000000	63.733330
1819.000000	63.702374
1818.000000	63.689360
1817.000000	63.643756
1816.000000	63.604814
1815.000000	63.592959
1814.000000	63.570062
1813.000000	63.537383
1812.000000	63.501888
1811.000000	63.469480
1810.000000	63.444395
1809.000000	63.425973
1808.000000	63.392218
1807.000000	63.361507
1806.000000	63.316654
1805.000000	63.307032
1804.000000	63.317503
1803.000000	63.270734
1802.000000	63.224082
1801.000000	63.207873
1800.000000	63.209542
1799.000000	63.183725
1798.000000	63.150511
1797.000000	63.131690
1796.000000	63.117728
1795.000000	63.120406
1794.000000	63.100072
1793.000000	63.070176
1792.000000	63.057595
1791.000000	63.031662
1790.000000	63.020526
1789.000000	63.015182
1788.000000	62.985286
1787.000000	62.975370
1786.000000	62.945044
1785.000000	62.909972
1784.000000	62.909977
1783.000000	62.911566
1782.000000	62.879696
1781.000000	62.824192
1780.000000	62.791682
1779.000000	62.785111
1778.000000	62.746118
1777.000000	62.716022
1776.000000	62.685264
1775.000000	62.625453
1774.000000	62.565815
1773.000000	62.559072
1772.000000	62.511997
1771.000000	62.475102
1770.000000	62.430461
1769.000000	62.367284
1768.000000	62.325256
1767.000000	62.309432
1766.000000	62.273213
1765.000000	62.221675
1764.000000	62.204409
1763.000000	62.147746
1762.000000	62.129778
1761.000000	62.064154
1760.000000	62.003235
1759.000000	61.993194
1758.000000	61.988900
1757.000000	61.920152
1756.000000	61.854346
1755.000000	61.840042
1754.000000	61.816585
1753.000000	61.740682
1752.000000	61.692866
1751.000000	61.650515
1750.000000	61.622569
1749.000000	61.617421
1748.000000	61.530485
1747.000000	61.468402
1746.000000	61.433276
1745.000000	61.376304
1744.000000	61.356629
1743.000000	61.324776
1742.000000	61.238230
1741.000000	61.193293
1740.000000	61.172647
1739.000000	61.146521
1738.000000	61.096204
1737.000000	61.072905
1736.000000	61.065319
1735.000000	61.079578
1734.000000	61.049110
1733.000000	61.066480
1732.000000	61.032512
1731.000000	61.019394
1730.000000	61.073816
1729.000000	61.055719
1728.000000	61.166276
1727.000000	61.186862
1726.000000	61.267619
1725.000000	61.333750
1724.000000	61.377070
1723.000000	61.406880
1722.000000	61.521543
1721.000000	61.597746
1720.000000	61.683755
1719.000000	61.788858
1718.000000	61.863639
1717.000000	61.884872
1716.000000	61.991111
1715.000000	62.103450
1714.000000	62.194861
1713.000000	62.231844
1712.000000	62.291633
1711.000000	62.377924
1710.000000	62.454231
1709.000000	62.466461
1708.000000	62.525525
1707.000000	62.540084
1706.000000	62.573579
1705.000000	62.602271
1704.000000	62.627535
1703.000000	62.635999
1702.000000	62.637081
1701.000000	62.715372
1700.000000	62.691587
1699.000000	62.687279
1698.000000	62.727700
1697.000000	62.763544
1696.000000	62.804446
1695.000000	62.812488
1694.000000	62.839291
1693.000000	62.901388
1692.000000	62.958365
1691.000000	62.957378
1690.000000	63.020954
1689.000000	63.113888
1688.000000	63.195129
1687.000000	63.262459
1686.000000	63.388052
1685.000000	63.487274
1684.000000	63.579599
1683.000000	63.754665
1682.000000	63.837178
1681.000000	63.976262
1680.000000	64.102585
1679.000000	64.223510
1678.000000	64.373889
1677.000000	64.513986
1676.000000	64.644476
1675.000000	64.771764
1674.000000	64.923690
1673.000000	65.061263
1672.000000	65.155547
1671.000000	65.318094
1670.000000	65.435319
1669.000000	65.556385
1668.000000	65.645838
1667.000000	65.761409
1666.000000	65.794762
1665.000000	65.908684
1664.000000	65.961686
1663.000000	66.040429
1662.000000	66.085065
1661.000000	66.133299
1660.000000	66.206892
1659.000000	66.242349
1658.000000	66.290169
1657.000000	66.329697
1656.000000	66.370588
1655.000000	66.411378
1654.000000	66.400990
1653.000000	66.410262
1652.000000	66.450187
1651.000000	66.440399
1650.000000	66.423069
1649.000000	66.443663
1648.000000	66.420096
1647.000000	66.422621
1646.000000	66.439415
1645.000000	66.379052
1644.000000	66.372080
1643.000000	66.366379
1642.000000	66.345630
1641.000000	66.337690
1640.000000	66.339550
1639.000000	66.320122
1638.000000	66.295409
1637.000000	66.275309
1636.000000	66.224026
1635.000000	66.200495
1634.000000	66.189169
1633.000000	66.158439
1632.000000	66.122711
1631.000000	66.063024
1630.000000	66.031316
1629.000000	66.009826
1628.000000	65.981339
1627.000000	65.950607
1626.000000	65.898922
1625.000000	65.870841
1624.000000	65.857053
1623.000000	65.808375
1622.000000	65.773244
1621.000000	65.735827
1620.000000	65.694271
1619.000000	65.645340
1618.000000	65.602528
1617.000000	65.561703
1616.000000	65.508516
1615.000000	65.453241
1614.000000	65.406085
1613.000000	65.383415
1612.000000	65.353934
1611.000000	65.291645
1610.000000	65.251422
1609.000000	65.204878
1608.000000	65.161611
1607.000000	65.108222
1606.000000	65.050378
1605.000000	64.997565
1604.000000	64.929358
1603.000000	64.873459
1602.000000	64.823482
1601.000000	64.777869
1600.000000	64.751594
1599.000000	64.701367
1598.000000	64.645477
1597.000000	64.592491
1596.000000	64.539736
1595.000000	64.490475
1594.000000	64.449418
1593.000000	64.423291
1592.000000	64.373771
1591.000000	64.328934
1590.000000	64.299910
1589.000000	64.244508
1588.000000	64.211577
1587.000000	64.187131
1586.000000	64.140770
1585.000000	64.101347
1584.000000	64.052134
1583.000000	64.021608
1582.000000	63.995357
1581.000000	63.964008
1580.000000	63.927550
1579.000000	63.896193
1578.000000	63.878785
1577.000000	63.813908
1576.000000	63.760429
1575.000000	63.723387
1574.000000	63.693739
1573.000000	63.662680
1572.000000	63.623011
1571.000000	63.582739
1570.000000	63.555275
1569.000000	63.510702
1568.000000	63.481584
1567.000000	63.449507
1566.000000	63.412929
1565.000000	63.391981
1564.000000	63.384487
1563.000000	63.369554
1562.000000	63.325132
1561.000000	63.326033
1560.000000	63.306883
1559.000000	63.272834
1558.000000	63.258851
1557.000000	63.248772
1556.000000	63.219725
1555.000000	63.208702
1554.000000	63.188265
1553.000000	63.166859
1552.000000	63.121313
1551.000000	63.112139
1550.000000	63.077581
1549.000000	63.044463
1548.000000	63.035193
1547.000000	62.967005
1546.000000	62.897483
1545.000000	62.854719
1544.000000	62.775241
1543.000000	62.734391
1542.000000	62.675801
1541.000000	62.619379
1540.000000	62.525796
1539.000000	62.474074
1538.000000	62.400666
1537.000000	62.312876
1536.000000	62.243419
1535.000000	62.173009
1534.000000	62.103276
1533.000000	62.065528
1532.000000	61.968006
1531.000000	61.905386
1530.000000	61.829233
1529.000000	61.753516
1528.000000	61.726646
1527.000000	61.659284
1526.000000	61.619507
1525.000000	61.551714
1524.000000	61.475166
1523.000000	61.437713
1522.000000	61.408160
1521.000000	61.385779
1520.000000	61.350907
1519.000000	61.335755
1518.000000	61.295810
1517.000000	61.273783
1516.000000	61.238839
1515.000000	61.203381
1514.000000	61.158882
1513.000000	61.178428
1512.000000	61.137056
1511.000000	61.124850
1510.000000	61.122129
1509.000000	61.098361
1508.000000	61.102945
1507.000000	61.093237
1506.000000	61.090800
1505.000000	61.079078
1504.000000	61.073813
1503.000000	61.081115
1502.000000	61.063318
1501.000000	61.048664
1500.000000	61.048709
1499.000000	61.064193
1498.000000	61.065119
1497.000000	61.073566
1496.000000	61.074539
1495.000000	61.105289
1494.000000	61.096547
1493.000000	61.142608
1492.000000	61.146095
1491.000000	61.186832
1490.000000	61.219657
1489.000000	61.238204
1488.000000	61.267332
1487.000000	61.281216
1486.000000	61.331659
1485.000000	61.360585
1484.000000	61.385521
1483.000000	61.442680
1482.000000	61.464069
1481.000000	61.532129
1480.000000	61.548834
1479.000000	61.567713
1478.000000	61.625297
1477.000000	61.675991
1476.000000	61.699838
1475.000000	61.737406
1474.000000	61.767145
1473.000000	61.825689
1472.000000	61.843135
1471.000000	61.877239
1470.000000	61.917938
