PE UV       SUBTECH     SPECTRUM    ASCII       PEDS        4.00        
   -1
RTms499172.Sample.asc
18/03/22
12:16:35.00
18/03/22
12:16:35.00
Administrator

200.000000
1
Lambda 750
750N8071901
PerkinElmer UV WinLab 6.0.4.0738 / 1.61.00 Lambda 900

0
0
3350/servo 860.8/2
0
0
UV/VIS
1
1
1
CommonBeamDepol,150mm sphere / downward view
0
0
0
0
Program
Program
3350/servo 860.8/2
3350/0.2 860.8/0.2
3350/0.2 860.8/0.2
0
1
 
 
 
0
 
860.8
319.2
860.8
Front
100
on
 
 
0
0
0
 
0
 
 
 
0
 
 
0
0
0
0
0
 
 
 
 
0
0


0
0
#HDR
-1
-1
#GR
nm
%R
1.0
0.0
2350.000000
-1.000000
2151
8
55.392540
7.166816
#DATA
2350.000000	31.985839
2349.000000	31.903421
2348.000000	31.796218
2347.000000	32.621461
2346.000000	32.119480
2345.000000	32.188093
2344.000000	32.123655
2343.000000	32.080013
2342.000000	32.289242
2341.000000	32.510993
2340.000000	32.665378
2339.000000	32.881151
2338.000000	32.456395
2337.000000	32.505082
2336.000000	32.719488
2335.000000	32.759048
2334.000000	32.873752
2333.000000	32.966775
2332.000000	32.959445
2331.000000	32.772514
2330.000000	32.984816
2329.000000	32.945907
2328.000000	33.053494
2327.000000	32.683258
2326.000000	32.851132
2325.000000	32.634480
2324.000000	32.588033
2323.000000	32.457609
2322.000000	32.373753
2321.000000	32.574392
2320.000000	32.459515
2319.000000	32.243430
2318.000000	32.269728
2317.000000	32.259458
2316.000000	32.322065
2315.000000	32.233507
2314.000000	31.980484
2313.000000	31.908398
2312.000000	31.761639
2311.000000	31.994332
2310.000000	31.670650
2309.000000	31.929685
2308.000000	31.911798
2307.000000	31.645778
2306.000000	31.675774
2305.000000	31.670260
2304.000000	31.593711
2303.000000	31.512091
2302.000000	31.375486
2301.000000	31.344414
2300.000000	31.349309
2299.000000	31.287181
2298.000000	31.363878
2297.000000	31.366802
2296.000000	31.355395
2295.000000	31.309868
2294.000000	31.289585
2293.000000	31.078094
2292.000000	30.961745
2291.000000	30.948385
2290.000000	30.886724
2289.000000	30.819785
2288.000000	30.965175
2287.000000	31.120149
2286.000000	31.003404
2285.000000	30.895157
2284.000000	30.814658
2283.000000	30.771618
2282.000000	30.767575
2281.000000	30.871492
2280.000000	30.955342
2279.000000	30.987014
2278.000000	30.909530
2277.000000	30.954075
2276.000000	31.007022
2275.000000	31.062249
2274.000000	30.976631
2273.000000	31.044555
2272.000000	31.320434
2271.000000	31.270089
2270.000000	31.355128
2269.000000	31.461094
2268.000000	31.463805
2267.000000	31.569881
2266.000000	31.739041
2265.000000	31.936049
2264.000000	32.000813
2263.000000	32.047318
2262.000000	32.034201
2261.000000	32.194541
2260.000000	32.306992
2259.000000	32.477560
2258.000000	32.599444
2257.000000	32.861747
2256.000000	33.106443
2255.000000	33.238606
2254.000000	33.546887
2253.000000	33.541670
2252.000000	33.668053
2251.000000	33.989103
2250.000000	34.165087
2249.000000	34.378954
2248.000000	34.444991
2247.000000	34.653293
2246.000000	34.980920
2245.000000	35.118125
2244.000000	35.238368
2243.000000	35.447520
2242.000000	35.639473
2241.000000	35.762506
2240.000000	35.718624
2239.000000	35.731263
2238.000000	35.930946
2237.000000	36.038646
2236.000000	36.086937
2235.000000	36.235172
2234.000000	36.426678
2233.000000	36.533284
2232.000000	36.532244
2231.000000	36.604906
2230.000000	36.635792
2229.000000	36.672356
2228.000000	36.751131
2227.000000	36.705423
2226.000000	36.694468
2225.000000	36.657308
2224.000000	36.663567
2223.000000	36.708551
2222.000000	36.693871
2221.000000	36.664987
2220.000000	36.668543
2219.000000	36.723696
2218.000000	36.609696
2217.000000	36.558419
2216.000000	36.595508
2215.000000	36.528126
2214.000000	36.537725
2213.000000	36.526921
2212.000000	36.415143
2211.000000	36.320886
2210.000000	36.321726
2209.000000	36.341986
2208.000000	36.183470
2207.000000	36.080371
2206.000000	36.145421
2205.000000	36.115252
2204.000000	36.069922
2203.000000	35.852703
2202.000000	35.791033
2201.000000	35.784280
2200.000000	35.650218
2199.000000	35.697648
2198.000000	35.692714
2197.000000	35.514521
2196.000000	35.458847
2195.000000	35.456257
2194.000000	35.417511
2193.000000	35.293826
2192.000000	35.239413
2191.000000	35.284626
2190.000000	35.203696
2189.000000	35.169440
2188.000000	35.035305
2187.000000	35.013136
2186.000000	34.967841
2185.000000	34.935709
2184.000000	34.945056
2183.000000	34.990266
2182.000000	34.891471
2181.000000	34.667486
2180.000000	34.852078
2179.000000	34.905167
2178.000000	34.769130
2177.000000	34.880992
2176.000000	34.943675
2175.000000	34.887615
2174.000000	34.923399
2173.000000	34.860551
2172.000000	34.871512
2171.000000	35.063619
2170.000000	35.052323
2169.000000	35.170937
2168.000000	35.235329
2167.000000	35.289195
2166.000000	35.415628
2165.000000	35.537824
2164.000000	35.387349
2163.000000	35.482512
2162.000000	35.630476
2161.000000	35.532222
2160.000000	35.714177
2159.000000	35.928325
2158.000000	35.999903
2157.000000	36.089572
2156.000000	36.332077
2155.000000	36.353453
2154.000000	36.331834
2153.000000	36.645432
2152.000000	36.809345
2151.000000	36.859410
2150.000000	36.859772
2149.000000	37.115575
2148.000000	37.015876
2147.000000	37.184044
2146.000000	37.244394
2145.000000	37.429477
2144.000000	37.448992
2143.000000	37.643382
2142.000000	37.687294
2141.000000	37.883288
2140.000000	38.066192
2139.000000	38.036597
2138.000000	37.996064
2137.000000	38.376012
2136.000000	38.224775
2135.000000	38.353092
2134.000000	38.512821
2133.000000	38.486757
2132.000000	38.420402
2131.000000	38.792920
2130.000000	38.873839
2129.000000	38.744523
2128.000000	38.590238
2127.000000	38.579906
2126.000000	38.667619
2125.000000	38.773410
2124.000000	38.946235
2123.000000	38.789258
2122.000000	38.886680
2121.000000	38.823752
2120.000000	39.080474
2119.000000	38.987401
2118.000000	39.032382
2117.000000	39.129683
2116.000000	39.125019
2115.000000	39.221882
2114.000000	39.074729
2113.000000	39.216482
2112.000000	39.059266
2111.000000	38.995933
2110.000000	39.161295
2109.000000	39.179850
2108.000000	39.088166
2107.000000	39.208279
2106.000000	39.161913
2105.000000	39.289844
2104.000000	39.223123
2103.000000	39.238608
2102.000000	39.351875
2101.000000	39.311672
2100.000000	39.448470
2099.000000	39.318788
2098.000000	39.354679
2097.000000	39.303144
2096.000000	39.252777
2095.000000	39.196897
2094.000000	39.235809
2093.000000	39.176702
2092.000000	39.249315
2091.000000	39.243207
2090.000000	39.191183
2089.000000	39.243358
2088.000000	39.251960
2087.000000	39.241706
2086.000000	39.258711
2085.000000	39.225379
2084.000000	39.118587
2083.000000	38.993295
2082.000000	39.025673
2081.000000	38.938245
2080.000000	38.938182
2079.000000	38.903447
2078.000000	38.828308
2077.000000	38.777554
2076.000000	38.710746
2075.000000	38.681900
2074.000000	38.594424
2073.000000	38.481544
2072.000000	38.381770
2071.000000	38.258155
2070.000000	38.220902
2069.000000	38.118211
2068.000000	37.949919
2067.000000	37.892928
2066.000000	37.789550
2065.000000	37.674427
2064.000000	37.624593
2063.000000	37.495921
2062.000000	37.369706
2061.000000	37.224325
2060.000000	37.130765
2059.000000	37.019429
2058.000000	36.937565
2057.000000	36.796628
2056.000000	36.698448
2055.000000	36.669824
2054.000000	36.528284
2053.000000	36.419799
2052.000000	36.293472
2051.000000	36.193684
2050.000000	36.121980
2049.000000	36.029947
2048.000000	35.960603
2047.000000	35.907780
2046.000000	35.876978
2045.000000	35.826832
2044.000000	35.826610
2043.000000	35.899362
2042.000000	35.891309
2041.000000	35.853007
2040.000000	35.880863
2039.000000	35.893311
2038.000000	35.916984
2037.000000	35.955292
2036.000000	36.013709
2035.000000	36.108805
2034.000000	36.232674
2033.000000	36.316380
2032.000000	36.348666
2031.000000	36.427686
2030.000000	36.532942
2029.000000	36.589765
2028.000000	36.706227
2027.000000	36.795948
2026.000000	36.848255
2025.000000	36.925373
2024.000000	36.967279
2023.000000	37.045387
2022.000000	37.120585
2021.000000	37.123435
2020.000000	37.134810
2019.000000	37.132541
2018.000000	37.139255
2017.000000	37.162925
2016.000000	37.132693
2015.000000	37.112723
2014.000000	37.111811
2013.000000	37.129014
2012.000000	37.107408
2011.000000	37.044162
2010.000000	36.958635
2009.000000	36.889735
2008.000000	36.805687
2007.000000	36.726750
2006.000000	36.670308
2005.000000	36.598554
2004.000000	36.488746
2003.000000	36.379152
2002.000000	36.299905
2001.000000	36.217534
2000.000000	36.126584
1999.000000	36.029924
1998.000000	35.959691
1997.000000	35.881862
1996.000000	35.798053
1995.000000	35.699371
1994.000000	35.588885
1993.000000	35.440606
1992.000000	35.337095
1991.000000	35.238753
1990.000000	35.138507
1989.000000	35.016132
1988.000000	34.918669
1987.000000	34.855132
1986.000000	34.747463
1985.000000	34.632494
1984.000000	34.566022
1983.000000	34.484277
1982.000000	34.403886
1981.000000	34.303951
1980.000000	34.173141
1979.000000	34.051907
1978.000000	33.946326
1977.000000	33.841927
1976.000000	33.719818
1975.000000	33.642592
1974.000000	33.525220
1973.000000	33.475293
1972.000000	33.385246
1971.000000	33.228377
1970.000000	33.152665
1969.000000	33.110761
1968.000000	33.022644
1967.000000	32.937994
1966.000000	32.868402
1965.000000	32.776666
1964.000000	32.656923
1963.000000	32.594821
1962.000000	32.443443
1961.000000	32.374932
1960.000000	32.339400
1959.000000	32.201204
1958.000000	32.134137
1957.000000	32.079590
1956.000000	32.016657
1955.000000	31.940304
1954.000000	31.878795
1953.000000	31.772835
1952.000000	31.726976
1951.000000	31.725319
1950.000000	31.646748
1949.000000	31.633181
1948.000000	31.615753
1947.000000	31.483664
1946.000000	31.463768
1945.000000	31.520160
1944.000000	31.511504
1943.000000	31.528971
1942.000000	31.559460
1941.000000	31.545715
1940.000000	31.564116
1939.000000	31.653486
1938.000000	31.725177
1937.000000	31.787522
1936.000000	31.881779
1935.000000	31.905926
1934.000000	31.977584
1933.000000	32.164660
1932.000000	32.142919
1931.000000	32.329976
1930.000000	32.488108
1929.000000	32.533749
1928.000000	32.777831
1927.000000	32.922134
1926.000000	33.081867
1925.000000	33.245819
1924.000000	33.461470
1923.000000	33.698070
1922.000000	33.914516
1921.000000	34.199884
1920.000000	34.378679
1919.000000	34.618718
1918.000000	34.968962
1917.000000	35.242710
1916.000000	35.520848
1915.000000	35.817831
1914.000000	36.149552
1913.000000	36.575085
1912.000000	36.877714
1911.000000	37.174150
1910.000000	37.488249
1909.000000	37.843058
1908.000000	38.249615
1907.000000	38.662421
1906.000000	38.956585
1905.000000	39.387639
1904.000000	39.886111
1903.000000	40.293387
1902.000000	40.646809
1901.000000	41.111827
1900.000000	41.510156
1899.000000	41.882234
1898.000000	42.353077
1897.000000	42.749428
1896.000000	43.098215
1895.000000	43.492581
1894.000000	43.855950
1893.000000	44.255193
1892.000000	44.631098
1891.000000	44.950045
1890.000000	45.310061
1889.000000	45.682236
1888.000000	46.016961
1887.000000	46.285576
1886.000000	46.625399
1885.000000	46.977711
1884.000000	47.240695
1883.000000	47.466871
1882.000000	47.695057
1881.000000	47.968026
1880.000000	48.236591
1879.000000	48.450978
1878.000000	48.667264
1877.000000	48.846560
1876.000000	49.030794
1875.000000	49.185851
1874.000000	49.323163
1873.000000	49.429639
1872.000000	49.532952
1871.000000	49.646726
1870.000000	49.796077
1869.000000	49.866031
1868.000000	49.968023
1867.000000	50.033516
1866.000000	50.098237
1865.000000	50.212505
1864.000000	50.183035
1863.000000	50.241816
1862.000000	50.300393
1861.000000	50.350619
1860.000000	50.401723
1859.000000	50.427224
1858.000000	50.444635
1857.000000	50.515300
1856.000000	50.539295
1855.000000	50.548522
1854.000000	50.559031
1853.000000	50.627815
1852.000000	50.618812
1851.000000	50.613377
1850.000000	50.635100
1849.000000	50.620682
1848.000000	50.623717
1847.000000	50.603278
1846.000000	50.586057
1845.000000	50.609247
1844.000000	50.586554
1843.000000	50.541972
1842.000000	50.523577
1841.000000	50.512171
1840.000000	50.490690
1839.000000	50.469456
1838.000000	50.428588
1837.000000	50.394942
1836.000000	50.364005
1835.000000	50.339626
1834.000000	50.269560
1833.000000	50.236201
1832.000000	50.233441
1831.000000	50.196413
1830.000000	50.156212
1829.000000	50.122278
1828.000000	50.095120
1827.000000	50.071380
1826.000000	50.053726
1825.000000	50.020160
1824.000000	50.010207
1823.000000	49.987658
1822.000000	49.942753
1821.000000	49.929333
1820.000000	49.918753
1819.000000	49.870124
1818.000000	49.859596
1817.000000	49.846303
1816.000000	49.810515
1815.000000	49.790501
1814.000000	49.776345
1813.000000	49.761257
1812.000000	49.735466
1811.000000	49.724073
1810.000000	49.708142
1809.000000	49.697227
1808.000000	49.674559
1807.000000	49.633542
1806.000000	49.615749
1805.000000	49.592058
1804.000000	49.584475
1803.000000	49.568229
1802.000000	49.539328
1801.000000	49.528517
1800.000000	49.525124
1799.000000	49.506686
1798.000000	49.476397
1797.000000	49.477740
1796.000000	49.484676
1795.000000	49.464316
1794.000000	49.462691
1793.000000	49.452910
1792.000000	49.434774
1791.000000	49.433902
1790.000000	49.411553
1789.000000	49.399243
1788.000000	49.390569
1787.000000	49.397253
1786.000000	49.389813
1785.000000	49.391550
1784.000000	49.385811
1783.000000	49.365944
1782.000000	49.324114
1781.000000	49.301960
1780.000000	49.280366
1779.000000	49.252794
1778.000000	49.207733
1777.000000	49.195147
1776.000000	49.169888
1775.000000	49.135225
1774.000000	49.102253
1773.000000	49.052508
1772.000000	49.020887
1771.000000	48.986706
1770.000000	48.947123
1769.000000	48.909065
1768.000000	48.874249
1767.000000	48.841580
1766.000000	48.819321
1765.000000	48.776805
1764.000000	48.742837
1763.000000	48.695810
1762.000000	48.690591
1761.000000	48.675810
1760.000000	48.646539
1759.000000	48.608389
1758.000000	48.586634
1757.000000	48.566711
1756.000000	48.532092
1755.000000	48.494671
1754.000000	48.463432
1753.000000	48.436017
1752.000000	48.406383
1751.000000	48.399120
1750.000000	48.350332
1749.000000	48.334146
1748.000000	48.280483
1747.000000	48.232899
1746.000000	48.201130
1745.000000	48.131454
1744.000000	48.098460
1743.000000	48.068671
1742.000000	48.020517
1741.000000	48.011093
1740.000000	47.958748
1739.000000	47.924541
1738.000000	47.918352
1737.000000	47.893613
1736.000000	47.846058
1735.000000	47.834555
1734.000000	47.835807
1733.000000	47.809829
1732.000000	47.803874
1731.000000	47.795552
1730.000000	47.833675
1729.000000	47.847941
1728.000000	47.890371
1727.000000	47.940685
1726.000000	47.978919
1725.000000	48.014364
1724.000000	48.042068
1723.000000	48.103092
1722.000000	48.174930
1721.000000	48.283195
1720.000000	48.323713
1719.000000	48.422284
1718.000000	48.447256
1717.000000	48.504502
1716.000000	48.583061
1715.000000	48.641992
1714.000000	48.716063
1713.000000	48.775864
1712.000000	48.826430
1711.000000	48.876084
1710.000000	48.933187
1709.000000	48.960471
1708.000000	49.026457
1707.000000	49.044707
1706.000000	49.084403
1705.000000	49.112201
1704.000000	49.139224
1703.000000	49.154324
1702.000000	49.174106
1701.000000	49.196202
1700.000000	49.200593
1699.000000	49.190974
1698.000000	49.237678
1697.000000	49.289010
1696.000000	49.311651
1695.000000	49.317927
1694.000000	49.350563
1693.000000	49.398911
1692.000000	49.415678
1691.000000	49.471148
1690.000000	49.497803
1689.000000	49.564076
1688.000000	49.648003
1687.000000	49.697316
1686.000000	49.785038
1685.000000	49.852381
1684.000000	49.954527
1683.000000	50.028491
1682.000000	50.123641
1681.000000	50.233350
1680.000000	50.293430
1679.000000	50.397891
1678.000000	50.504397
1677.000000	50.608974
1676.000000	50.675301
1675.000000	50.801717
1674.000000	50.891619
1673.000000	50.976388
1672.000000	51.052717
1671.000000	51.166175
1670.000000	51.239809
1669.000000	51.339842
1668.000000	51.395958
1667.000000	51.457333
1666.000000	51.502208
1665.000000	51.576187
1664.000000	51.622295
1663.000000	51.634494
1662.000000	51.680807
1661.000000	51.731963
1660.000000	51.773009
1659.000000	51.804502
1658.000000	51.842851
1657.000000	51.867465
1656.000000	51.881718
1655.000000	51.886755
1654.000000	51.884011
1653.000000	51.898688
1652.000000	51.909426
1651.000000	51.893649
1650.000000	51.903702
1649.000000	51.923701
1648.000000	51.897121
1647.000000	51.875989
1646.000000	51.885530
1645.000000	51.848452
1644.000000	51.828982
1643.000000	51.824858
1642.000000	51.798348
1641.000000	51.783095
1640.000000	51.765098
1639.000000	51.753635
1638.000000	51.731763
1637.000000	51.706055
1636.000000	51.691925
1635.000000	51.665133
1634.000000	51.656023
1633.000000	51.617206
1632.000000	51.577732
1631.000000	51.563088
1630.000000	51.528380
1629.000000	51.519172
1628.000000	51.492880
1627.000000	51.450979
1626.000000	51.428961
1625.000000	51.403055
1624.000000	51.364933
1623.000000	51.338880
1622.000000	51.308921
1621.000000	51.270602
1620.000000	51.246918
1619.000000	51.215039
1618.000000	51.188871
1617.000000	51.155897
1616.000000	51.122027
1615.000000	51.073370
1614.000000	51.039784
1613.000000	51.019340
1612.000000	51.001377
1611.000000	50.957815
1610.000000	50.917302
1609.000000	50.888460
1608.000000	50.862854
1607.000000	50.807855
1606.000000	50.758391
1605.000000	50.735842
1604.000000	50.699105
1603.000000	50.658349
1602.000000	50.629666
1601.000000	50.591607
1600.000000	50.555430
1599.000000	50.526102
1598.000000	50.492912
1597.000000	50.463338
1596.000000	50.427562
1595.000000	50.388901
1594.000000	50.365035
1593.000000	50.350052
1592.000000	50.320348
1591.000000	50.283017
1590.000000	50.254100
1589.000000	50.211696
1588.000000	50.172648
1587.000000	50.150805
1586.000000	50.127067
1585.000000	50.096264
1584.000000	50.071770
1583.000000	50.044169
1582.000000	50.023075
1581.000000	49.992681
1580.000000	49.953295
1579.000000	49.939268
1578.000000	49.929552
1577.000000	49.887525
1576.000000	49.845191
1575.000000	49.826042
1574.000000	49.795265
1573.000000	49.774254
1572.000000	49.753813
1571.000000	49.732000
1570.000000	49.697897
1569.000000	49.658445
1568.000000	49.636149
1567.000000	49.614933
1566.000000	49.590844
1565.000000	49.565683
1564.000000	49.543764
1563.000000	49.526719
1562.000000	49.512729
1561.000000	49.486501
1560.000000	49.468379
1559.000000	49.472258
1558.000000	49.453555
1557.000000	49.422751
1556.000000	49.389136
1555.000000	49.381249
1554.000000	49.365546
1553.000000	49.348563
1552.000000	49.319534
1551.000000	49.300913
1550.000000	49.261558
1549.000000	49.244717
1548.000000	49.222175
1547.000000	49.166844
1546.000000	49.132784
1545.000000	49.099981
1544.000000	49.034790
1543.000000	48.986126
1542.000000	48.945830
1541.000000	48.892942
1540.000000	48.847278
1539.000000	48.793936
1538.000000	48.740724
1537.000000	48.686903
1536.000000	48.635940
1535.000000	48.580375
1534.000000	48.533606
1533.000000	48.499907
1532.000000	48.432730
1531.000000	48.386464
1530.000000	48.331582
1529.000000	48.274877
1528.000000	48.236704
1527.000000	48.191065
1526.000000	48.153197
1525.000000	48.112806
1524.000000	48.070592
1523.000000	48.038393
1522.000000	48.008980
1521.000000	47.977221
1520.000000	47.945101
1519.000000	47.902890
1518.000000	47.873106
1517.000000	47.861204
1516.000000	47.849917
1515.000000	47.840121
1514.000000	47.828570
1513.000000	47.833154
1512.000000	47.827634
1511.000000	47.800075
1510.000000	47.762075
1509.000000	47.724284
1508.000000	47.697395
1507.000000	47.681651
1506.000000	47.681859
1505.000000	47.648029
1504.000000	47.641999
1503.000000	47.626198
1502.000000	47.628516
1501.000000	47.614653
1500.000000	47.618123
1499.000000	47.609796
1498.000000	47.612276
1497.000000	47.616686
1496.000000	47.603163
1495.000000	47.617867
1494.000000	47.610998
1493.000000	47.624014
1492.000000	47.635609
1491.000000	47.630513
1490.000000	47.654881
1489.000000	47.664609
1488.000000	47.682711
1487.000000	47.693779
1486.000000	47.696089
1485.000000	47.730952
1484.000000	47.758059
1483.000000	47.777675
1482.000000	47.781136
1481.000000	47.832892
1480.000000	47.834295
1479.000000	47.841613
1478.000000	47.872367
1477.000000	47.874275
1476.000000	47.898851
1475.000000	47.923146
1474.000000	47.936553
1473.000000	47.954957
1472.000000	47.964909
1471.000000	47.975003
1470.000000	47.981554
