PE UV       SUBTECH     SPECTRUM    ASCII       PEDS        4.00        
   -1
RTms1482152.Sample.asc
18/03/22
10:11:10.00
18/03/22
10:11:10.00
Administrator

200.000000
1
Lambda 750
750N8071901
PerkinElmer UV WinLab 6.0.4.0738 / 1.61.00 Lambda 900

0
0
3350/servo 860.8/2
0
0
UV/VIS
1
1
1
CommonBeamDepol,150mm sphere / downward view
0
0
0
0
Program
Program
3350/servo 860.8/2
3350/0.2 860.8/0.2
3350/0.2 860.8/0.2
0
1
 
 
 
0
 
860.8
319.2
860.8
Front
100
on
 
 
0
0
0
 
0
 
 
 
0
 
 
0
0
0
0
0
 
 
 
 
0
0


0
0
#HDR
-1
-1
#GR
nm
%R
1.0
0.0
2350.000000
-1.000000
2151
8
83.553964
24.761096
#DATA
2350.000000	44.018895
2349.000000	43.755952
2348.000000	43.864630
2347.000000	44.387115
2346.000000	44.172776
2345.000000	44.138329
2344.000000	44.042607
2343.000000	43.957416
2342.000000	44.119937
2341.000000	44.282001
2340.000000	44.172369
2339.000000	44.394483
2338.000000	44.393168
2337.000000	44.380505
2336.000000	44.792250
2335.000000	44.778932
2334.000000	44.861037
2333.000000	44.869192
2332.000000	44.773562
2331.000000	44.606062
2330.000000	44.599472
2329.000000	44.675949
2328.000000	44.685818
2327.000000	44.568835
2326.000000	44.832127
2325.000000	44.663476
2324.000000	44.730529
2323.000000	44.430357
2322.000000	44.498045
2321.000000	44.417285
2320.000000	44.321621
2319.000000	44.303810
2318.000000	44.269352
2317.000000	44.462755
2316.000000	44.379256
2315.000000	44.138080
2314.000000	44.119737
2313.000000	43.963820
2312.000000	43.892457
2311.000000	43.895730
2310.000000	43.779628
2309.000000	43.530759
2308.000000	43.835861
2307.000000	43.600723
2306.000000	43.325974
2305.000000	43.426241
2304.000000	43.566813
2303.000000	43.392773
2302.000000	43.260393
2301.000000	43.180364
2300.000000	42.969311
2299.000000	42.897315
2298.000000	42.907173
2297.000000	42.803217
2296.000000	42.685349
2295.000000	42.760594
2294.000000	42.807604
2293.000000	42.456019
2292.000000	42.325524
2291.000000	42.345582
2290.000000	42.280704
2289.000000	42.235215
2288.000000	42.402616
2287.000000	42.235846
2286.000000	42.175378
2285.000000	42.128958
2284.000000	41.999080
2283.000000	42.007523
2282.000000	41.963693
2281.000000	42.070290
2280.000000	41.948827
2279.000000	41.942247
2278.000000	41.959545
2277.000000	41.968899
2276.000000	42.086120
2275.000000	42.067050
2274.000000	42.069382
2273.000000	42.188863
2272.000000	42.290363
2271.000000	42.240127
2270.000000	42.350709
2269.000000	42.438673
2268.000000	42.555070
2267.000000	42.648079
2266.000000	42.781666
2265.000000	43.044279
2264.000000	43.265947
2263.000000	43.198970
2262.000000	43.159154
2261.000000	43.429088
2260.000000	43.630902
2259.000000	43.843042
2258.000000	44.016630
2257.000000	44.132240
2256.000000	44.284191
2255.000000	44.476990
2254.000000	44.699912
2253.000000	44.840469
2252.000000	45.091197
2251.000000	45.408903
2250.000000	45.544823
2249.000000	45.726784
2248.000000	45.983550
2247.000000	46.212031
2246.000000	46.374897
2245.000000	46.522210
2244.000000	46.739416
2243.000000	47.122633
2242.000000	47.254323
2241.000000	47.303952
2240.000000	47.429444
2239.000000	47.426774
2238.000000	47.624312
2237.000000	47.824582
2236.000000	47.859712
2235.000000	47.914832
2234.000000	48.068956
2233.000000	48.140519
2232.000000	48.185614
2231.000000	48.288281
2230.000000	48.246553
2229.000000	48.344535
2228.000000	48.523999
2227.000000	48.379401
2226.000000	48.349355
2225.000000	48.338131
2224.000000	48.307743
2223.000000	48.314420
2222.000000	48.240794
2221.000000	48.233195
2220.000000	48.231534
2219.000000	48.197152
2218.000000	48.140072
2217.000000	48.056459
2216.000000	48.162867
2215.000000	48.157252
2214.000000	48.006674
2213.000000	48.036677
2212.000000	48.044413
2211.000000	47.988604
2210.000000	47.957665
2209.000000	47.842691
2208.000000	47.679370
2207.000000	47.717080
2206.000000	47.644986
2205.000000	47.569445
2204.000000	47.537029
2203.000000	47.397047
2202.000000	47.337162
2201.000000	47.267837
2200.000000	47.240686
2199.000000	47.213270
2198.000000	47.243681
2197.000000	47.145155
2196.000000	46.945067
2195.000000	46.877433
2194.000000	46.837845
2193.000000	46.699071
2192.000000	46.699710
2191.000000	46.489688
2190.000000	46.549747
2189.000000	46.491577
2188.000000	46.425942
2187.000000	46.420549
2186.000000	46.502882
2185.000000	46.305554
2184.000000	46.368359
2183.000000	46.317788
2182.000000	46.236470
2181.000000	46.105136
2180.000000	46.270696
2179.000000	46.242846
2178.000000	46.294176
2177.000000	46.249771
2176.000000	46.357747
2175.000000	46.456356
2174.000000	46.469610
2173.000000	46.461658
2172.000000	46.471328
2171.000000	46.537711
2170.000000	46.613506
2169.000000	46.818727
2168.000000	46.949510
2167.000000	46.845555
2166.000000	46.913047
2165.000000	47.225711
2164.000000	47.254028
2163.000000	47.180307
2162.000000	47.557719
2161.000000	47.514787
2160.000000	47.709248
2159.000000	47.896819
2158.000000	47.950932
2157.000000	48.209845
2156.000000	48.337912
2155.000000	48.442584
2154.000000	48.657133
2153.000000	49.023805
2152.000000	48.976159
2151.000000	49.244492
2150.000000	49.338869
2149.000000	49.427387
2148.000000	49.652817
2147.000000	49.750530
2146.000000	49.876379
2145.000000	50.017984
2144.000000	50.277418
2143.000000	50.234941
2142.000000	50.419546
2141.000000	50.748505
2140.000000	50.621624
2139.000000	50.756962
2138.000000	50.920779
2137.000000	51.036139
2136.000000	51.139173
2135.000000	51.342320
2134.000000	51.439259
2133.000000	51.457512
2132.000000	51.497819
2131.000000	51.817611
2130.000000	51.900377
2129.000000	52.052301
2128.000000	51.898227
2127.000000	52.093288
2126.000000	51.996673
2125.000000	52.150816
2124.000000	52.241045
2123.000000	52.053094
2122.000000	52.300891
2121.000000	52.347865
2120.000000	52.323484
2119.000000	52.394579
2118.000000	52.488358
2117.000000	52.419376
2116.000000	52.465693
2115.000000	52.565829
2114.000000	52.627904
2113.000000	52.674691
2112.000000	52.592735
2111.000000	52.671391
2110.000000	52.540660
2109.000000	52.539150
2108.000000	52.611963
2107.000000	52.815951
2106.000000	52.740157
2105.000000	52.720197
2104.000000	52.714314
2103.000000	52.881670
2102.000000	52.663321
2101.000000	52.612383
2100.000000	52.789281
2099.000000	52.813344
2098.000000	52.806080
2097.000000	52.702953
2096.000000	52.692712
2095.000000	52.698437
2094.000000	52.773043
2093.000000	52.792064
2092.000000	52.818231
2091.000000	52.737921
2090.000000	52.578753
2089.000000	52.663103
2088.000000	52.655439
2087.000000	52.629369
2086.000000	52.602951
2085.000000	52.597334
2084.000000	52.573411
2083.000000	52.492003
2082.000000	52.450105
2081.000000	52.318199
2080.000000	52.296097
2079.000000	52.196519
2078.000000	52.113292
2077.000000	52.076333
2076.000000	51.970333
2075.000000	51.797082
2074.000000	51.706203
2073.000000	51.663556
2072.000000	51.566989
2071.000000	51.418403
2070.000000	51.353596
2069.000000	51.135134
2068.000000	50.975687
2067.000000	50.898858
2066.000000	50.711939
2065.000000	50.565177
2064.000000	50.354228
2063.000000	50.244836
2062.000000	50.168724
2061.000000	49.957816
2060.000000	49.758713
2059.000000	49.656489
2058.000000	49.544335
2057.000000	49.363160
2056.000000	49.242971
2055.000000	49.173272
2054.000000	48.973736
2053.000000	48.806137
2052.000000	48.729016
2051.000000	48.605139
2050.000000	48.502982
2049.000000	48.386557
2048.000000	48.295060
2047.000000	48.225583
2046.000000	48.138109
2045.000000	48.078338
2044.000000	48.095301
2043.000000	48.122450
2042.000000	48.049633
2041.000000	48.022569
2040.000000	48.107993
2039.000000	48.122033
2038.000000	48.138607
2037.000000	48.242426
2036.000000	48.308346
2035.000000	48.403220
2034.000000	48.523265
2033.000000	48.596298
2032.000000	48.692104
2031.000000	48.801477
2030.000000	48.917249
2029.000000	49.051867
2028.000000	49.175705
2027.000000	49.279725
2026.000000	49.364218
2025.000000	49.448283
2024.000000	49.519438
2023.000000	49.595218
2022.000000	49.661417
2021.000000	49.662185
2020.000000	49.746573
2019.000000	49.767482
2018.000000	49.741696
2017.000000	49.770883
2016.000000	49.772672
2015.000000	49.759984
2014.000000	49.743196
2013.000000	49.693197
2012.000000	49.650341
2011.000000	49.603844
2010.000000	49.562215
2009.000000	49.530241
2008.000000	49.400866
2007.000000	49.308755
2006.000000	49.226595
2005.000000	49.162876
2004.000000	49.041580
2003.000000	48.908638
2002.000000	48.830343
2001.000000	48.701861
2000.000000	48.579810
1999.000000	48.502047
1998.000000	48.389981
1997.000000	48.312788
1996.000000	48.232552
1995.000000	48.108817
1994.000000	47.975372
1993.000000	47.890219
1992.000000	47.775155
1991.000000	47.653143
1990.000000	47.513832
1989.000000	47.393387
1988.000000	47.309587
1987.000000	47.198645
1986.000000	47.078845
1985.000000	46.966032
1984.000000	46.854880
1983.000000	46.755427
1982.000000	46.675381
1981.000000	46.559546
1980.000000	46.395318
1979.000000	46.300768
1978.000000	46.255736
1977.000000	46.101452
1976.000000	45.987319
1975.000000	45.900262
1974.000000	45.785247
1973.000000	45.687805
1972.000000	45.597597
1971.000000	45.530184
1970.000000	45.418538
1969.000000	45.331672
1968.000000	45.223818
1967.000000	45.144592
1966.000000	45.095437
1965.000000	44.988262
1964.000000	44.837907
1963.000000	44.768076
1962.000000	44.677485
1961.000000	44.597503
1960.000000	44.542878
1959.000000	44.438804
1958.000000	44.365874
1957.000000	44.251466
1956.000000	44.134974
1955.000000	44.104061
1954.000000	44.049819
1953.000000	43.993367
1952.000000	43.963586
1951.000000	43.926223
1950.000000	43.905215
1949.000000	43.847918
1948.000000	43.794838
1947.000000	43.813496
1946.000000	43.747335
1945.000000	43.784988
1944.000000	43.754699
1943.000000	43.796332
1942.000000	43.880716
1941.000000	43.929191
1940.000000	43.947925
1939.000000	44.031390
1938.000000	44.126997
1937.000000	44.219145
1936.000000	44.325808
1935.000000	44.469918
1934.000000	44.547468
1933.000000	44.756964
1932.000000	44.816063
1931.000000	44.964076
1930.000000	45.241013
1929.000000	45.375634
1928.000000	45.613023
1927.000000	45.793381
1926.000000	46.106007
1925.000000	46.307452
1924.000000	46.561621
1923.000000	46.862886
1922.000000	47.161117
1921.000000	47.474243
1920.000000	47.711701
1919.000000	48.033454
1918.000000	48.375461
1917.000000	48.691377
1916.000000	49.034419
1915.000000	49.414827
1914.000000	49.836835
1913.000000	50.240106
1912.000000	50.672551
1911.000000	50.999992
1910.000000	51.451672
1909.000000	51.806298
1908.000000	52.283605
1907.000000	52.785828
1906.000000	53.181653
1905.000000	53.754136
1904.000000	54.245587
1903.000000	54.688765
1902.000000	55.234007
1901.000000	55.748687
1900.000000	56.262533
1899.000000	56.770164
1898.000000	57.298027
1897.000000	57.741936
1896.000000	58.299596
1895.000000	58.795133
1894.000000	59.213334
1893.000000	59.742931
1892.000000	60.243405
1891.000000	60.630022
1890.000000	61.118327
1889.000000	61.563403
1888.000000	61.972166
1887.000000	62.332157
1886.000000	62.770211
1885.000000	63.164049
1884.000000	63.559254
1883.000000	63.865514
1882.000000	64.209947
1881.000000	64.541231
1880.000000	64.877609
1879.000000	65.165894
1878.000000	65.421671
1877.000000	65.713805
1876.000000	65.971097
1875.000000	66.224884
1874.000000	66.478958
1873.000000	66.671228
1872.000000	66.882035
1871.000000	66.982433
1870.000000	67.141524
1869.000000	67.327695
1868.000000	67.519564
1867.000000	67.648983
1866.000000	67.744473
1865.000000	67.829124
1864.000000	67.888858
1863.000000	68.000661
1862.000000	68.086856
1861.000000	68.148210
1860.000000	68.209005
1859.000000	68.259371
1858.000000	68.273914
1857.000000	68.358099
1856.000000	68.359171
1855.000000	68.394332
1854.000000	68.461009
1853.000000	68.461491
1852.000000	68.431478
1851.000000	68.483980
1850.000000	68.514943
1849.000000	68.514227
1848.000000	68.508932
1847.000000	68.502665
1846.000000	68.482439
1845.000000	68.461421
1844.000000	68.457395
1843.000000	68.475439
1842.000000	68.456397
1841.000000	68.398098
1840.000000	68.379283
1839.000000	68.378153
1838.000000	68.326313
1837.000000	68.288773
1836.000000	68.248619
1835.000000	68.222528
1834.000000	68.171832
1833.000000	68.137761
1832.000000	68.120837
1831.000000	68.091801
1830.000000	68.022432
1829.000000	67.978576
1828.000000	67.946266
1827.000000	67.933766
1826.000000	67.920096
1825.000000	67.887021
1824.000000	67.854985
1823.000000	67.810332
1822.000000	67.776585
1821.000000	67.746157
1820.000000	67.717953
1819.000000	67.675801
1818.000000	67.644569
1817.000000	67.610703
1816.000000	67.572312
1815.000000	67.547933
1814.000000	67.511269
1813.000000	67.481728
1812.000000	67.447220
1811.000000	67.433819
1810.000000	67.417939
1809.000000	67.375289
1808.000000	67.334533
1807.000000	67.298097
1806.000000	67.276959
1805.000000	67.269864
1804.000000	67.260996
1803.000000	67.215432
1802.000000	67.148311
1801.000000	67.136708
1800.000000	67.143375
1799.000000	67.105100
1798.000000	67.064435
1797.000000	67.049532
1796.000000	67.019441
1795.000000	67.001200
1794.000000	66.999941
1793.000000	66.979939
1792.000000	66.945803
1791.000000	66.940769
1790.000000	66.908266
1789.000000	66.888457
1788.000000	66.873372
1787.000000	66.866276
1786.000000	66.848432
1785.000000	66.816264
1784.000000	66.787184
1783.000000	66.776058
1782.000000	66.737875
1781.000000	66.692207
1780.000000	66.661477
1779.000000	66.622679
1778.000000	66.582961
1777.000000	66.558003
1776.000000	66.501275
1775.000000	66.445483
1774.000000	66.422607
1773.000000	66.375089
1772.000000	66.318228
1771.000000	66.283083
1770.000000	66.214508
1769.000000	66.184690
1768.000000	66.147496
1767.000000	66.108996
1766.000000	66.049759
1765.000000	66.007872
1764.000000	65.995895
1763.000000	65.907763
1762.000000	65.850752
1761.000000	65.815728
1760.000000	65.787226
1759.000000	65.717318
1758.000000	65.712820
1757.000000	65.662959
1756.000000	65.605965
1755.000000	65.566494
1754.000000	65.515034
1753.000000	65.450252
1752.000000	65.420292
1751.000000	65.367043
1750.000000	65.347869
1749.000000	65.292508
1748.000000	65.219024
1747.000000	65.177412
1746.000000	65.142644
1745.000000	65.062929
1744.000000	65.029662
1743.000000	64.990124
1742.000000	64.937273
1741.000000	64.924001
1740.000000	64.847674
1739.000000	64.815212
1738.000000	64.787867
1737.000000	64.779002
1736.000000	64.732932
1735.000000	64.735122
1734.000000	64.710549
1733.000000	64.764586
1732.000000	64.737365
1731.000000	64.753951
1730.000000	64.752147
1729.000000	64.817205
1728.000000	64.873021
1727.000000	64.927195
1726.000000	64.993552
1725.000000	65.075560
1724.000000	65.131456
1723.000000	65.229991
1722.000000	65.303934
1721.000000	65.401904
1720.000000	65.493832
1719.000000	65.607530
1718.000000	65.682952
1717.000000	65.813918
1716.000000	65.889691
1715.000000	65.971410
1714.000000	66.056440
1713.000000	66.133347
1712.000000	66.197463
1711.000000	66.281618
1710.000000	66.387590
1709.000000	66.424230
1708.000000	66.455513
1707.000000	66.463501
1706.000000	66.518432
1705.000000	66.569215
1704.000000	66.583831
1703.000000	66.607924
1702.000000	66.624611
1701.000000	66.650828
1700.000000	66.685723
1699.000000	66.661208
1698.000000	66.699786
1697.000000	66.744682
1696.000000	66.796381
1695.000000	66.793122
1694.000000	66.826652
1693.000000	66.912618
1692.000000	66.967511
1691.000000	67.017268
1690.000000	67.098448
1689.000000	67.190990
1688.000000	67.304931
1687.000000	67.399417
1686.000000	67.507523
1685.000000	67.641062
1684.000000	67.768697
1683.000000	67.957471
1682.000000	68.089396
1681.000000	68.251830
1680.000000	68.394117
1679.000000	68.545835
1678.000000	68.724643
1677.000000	68.882156
1676.000000	69.077039
1675.000000	69.241256
1674.000000	69.418670
1673.000000	69.571818
1672.000000	69.725122
1671.000000	69.856514
1670.000000	70.014132
1669.000000	70.141254
1668.000000	70.255175
1667.000000	70.422090
1666.000000	70.488877
1665.000000	70.609694
1664.000000	70.674557
1663.000000	70.758256
1662.000000	70.848766
1661.000000	70.918054
1660.000000	70.984702
1659.000000	71.047136
1658.000000	71.100484
1657.000000	71.146408
1656.000000	71.194415
1655.000000	71.213602
1654.000000	71.200239
1653.000000	71.214721
1652.000000	71.264603
1651.000000	71.272336
1650.000000	71.292447
1649.000000	71.292192
1648.000000	71.262850
1647.000000	71.249165
1646.000000	71.258782
1645.000000	71.214418
1644.000000	71.216898
1643.000000	71.192098
1642.000000	71.156301
1641.000000	71.152081
1640.000000	71.137713
1639.000000	71.112550
1638.000000	71.089262
1637.000000	71.072861
1636.000000	71.008994
1635.000000	70.983667
1634.000000	70.962481
1633.000000	70.905436
1632.000000	70.876696
1631.000000	70.843982
1630.000000	70.816017
1629.000000	70.787171
1628.000000	70.721932
1627.000000	70.688924
1626.000000	70.647213
1625.000000	70.593641
1624.000000	70.556851
1623.000000	70.527673
1622.000000	70.478406
1621.000000	70.414120
1620.000000	70.377242
1619.000000	70.334794
1618.000000	70.283703
1617.000000	70.230834
1616.000000	70.169041
1615.000000	70.117842
1614.000000	70.055232
1613.000000	69.997916
1612.000000	69.962361
1611.000000	69.908859
1610.000000	69.849621
1609.000000	69.801304
1608.000000	69.740829
1607.000000	69.674378
1606.000000	69.600014
1605.000000	69.550159
1604.000000	69.488638
1603.000000	69.425839
1602.000000	69.378141
1601.000000	69.331091
1600.000000	69.273616
1599.000000	69.207442
1598.000000	69.159707
1597.000000	69.094022
1596.000000	69.039298
1595.000000	68.981844
1594.000000	68.934938
1593.000000	68.907433
1592.000000	68.858032
1591.000000	68.798135
1590.000000	68.740539
1589.000000	68.687933
1588.000000	68.643810
1587.000000	68.595503
1586.000000	68.561191
1585.000000	68.530724
1584.000000	68.482780
1583.000000	68.435359
1582.000000	68.391440
1581.000000	68.343173
1580.000000	68.313606
1579.000000	68.278976
1578.000000	68.248264
1577.000000	68.185140
1576.000000	68.135642
1575.000000	68.102377
1574.000000	68.050027
1573.000000	68.006237
1572.000000	67.985965
1571.000000	67.952574
1570.000000	67.908215
1569.000000	67.863963
1568.000000	67.833157
1567.000000	67.796123
1566.000000	67.777771
1565.000000	67.758217
1564.000000	67.723273
1563.000000	67.697173
1562.000000	67.685012
1561.000000	67.665140
1560.000000	67.633733
1559.000000	67.622132
1558.000000	67.608865
1557.000000	67.586877
1556.000000	67.563406
1555.000000	67.542040
1554.000000	67.524563
1553.000000	67.505473
1552.000000	67.469122
1551.000000	67.440698
1550.000000	67.404804
1549.000000	67.367452
1548.000000	67.366129
1547.000000	67.284903
1546.000000	67.221269
1545.000000	67.166621
1544.000000	67.095062
1543.000000	67.040561
1542.000000	66.971942
1541.000000	66.902698
1540.000000	66.823012
1539.000000	66.746742
1538.000000	66.658640
1537.000000	66.573532
1536.000000	66.497560
1535.000000	66.416795
1534.000000	66.329275
1533.000000	66.265971
1532.000000	66.198345
1531.000000	66.109290
1530.000000	66.040777
1529.000000	65.959518
1528.000000	65.909405
1527.000000	65.844085
1526.000000	65.791878
1525.000000	65.717843
1524.000000	65.661046
1523.000000	65.605658
1522.000000	65.561239
1521.000000	65.549338
1520.000000	65.517010
1519.000000	65.498263
1518.000000	65.463425
1517.000000	65.469649
1516.000000	65.424243
1515.000000	65.371302
1514.000000	65.338324
1513.000000	65.327924
1512.000000	65.312874
1511.000000	65.279129
1510.000000	65.276060
1509.000000	65.264375
1508.000000	65.257209
1507.000000	65.237629
1506.000000	65.229516
1505.000000	65.206017
1504.000000	65.214014
1503.000000	65.227071
1502.000000	65.206236
1501.000000	65.202300
1500.000000	65.190869
1499.000000	65.211022
1498.000000	65.221603
1497.000000	65.200877
1496.000000	65.219773
1495.000000	65.238915
1494.000000	65.264251
1493.000000	65.294090
1492.000000	65.311526
1491.000000	65.339495
1490.000000	65.384545
1489.000000	65.408034
1488.000000	65.465821
1487.000000	65.492148
1486.000000	65.531479
1485.000000	65.577529
1484.000000	65.637897
1483.000000	65.675467
1482.000000	65.728250
1481.000000	65.790934
1480.000000	65.838583
1479.000000	65.873413
1478.000000	65.937051
1477.000000	66.008929
1476.000000	66.051601
1475.000000	66.100023
1474.000000	66.151728
1473.000000	66.202199
1472.000000	66.245776
1471.000000	66.271284
1470.000000	66.313999
