PE UV       SUBTECH     SPECTRUM    ASCII       PEDS        4.00        
   -1
RTms1482162.Sample.asc
18/03/22
11:19:39.00
18/03/22
11:19:39.00
Administrator

200.000000
1
Lambda 750
750N8071901
PerkinElmer UV WinLab 6.0.4.0738 / 1.61.00 Lambda 900

0
0
3350/servo 860.8/2
0
0
UV/VIS
1
1
1
CommonBeamDepol,150mm sphere / downward view
0
0
0
0
Program
Program
3350/servo 860.8/2
3350/0.2 860.8/0.2
3350/0.2 860.8/0.2
0
1
 
 
 
0
 
860.8
319.2
860.8
Front
100
on
 
 
0
0
0
 
0
 
 
 
0
 
 
0
0
0
0
0
 
 
 
 
0
0


0
0
#HDR
-1
-1
#GR
nm
%R
1.0
0.0
2350.000000
-1.000000
2151
8
72.616460
14.702708
#DATA
2350.000000	42.088876
2349.000000	42.072265
2348.000000	42.289317
2347.000000	42.606522
2346.000000	42.239074
2345.000000	42.280725
2344.000000	42.272640
2343.000000	41.754978
2342.000000	42.066347
2341.000000	42.326987
2340.000000	42.333584
2339.000000	42.466031
2338.000000	42.370851
2337.000000	42.406477
2336.000000	42.531537
2335.000000	42.516660
2334.000000	42.701206
2333.000000	42.856159
2332.000000	42.777299
2331.000000	43.009434
2330.000000	42.805174
2329.000000	42.588765
2328.000000	42.503132
2327.000000	42.436723
2326.000000	42.592162
2325.000000	42.343424
2324.000000	42.497165
2323.000000	42.326875
2322.000000	42.303640
2321.000000	42.355810
2320.000000	42.485721
2319.000000	42.326446
2318.000000	42.203047
2317.000000	42.212951
2316.000000	42.139065
2315.000000	42.105968
2314.000000	42.053867
2313.000000	41.870942
2312.000000	41.774588
2311.000000	41.896864
2310.000000	41.767216
2309.000000	41.765978
2308.000000	41.730008
2307.000000	41.572142
2306.000000	41.561655
2305.000000	41.576980
2304.000000	41.377680
2303.000000	41.260743
2302.000000	41.240267
2301.000000	41.222479
2300.000000	40.955521
2299.000000	40.847035
2298.000000	40.650828
2297.000000	40.592606
2296.000000	40.696378
2295.000000	40.494000
2294.000000	40.582524
2293.000000	40.280412
2292.000000	40.246832
2291.000000	40.364952
2290.000000	40.252816
2289.000000	40.327995
2288.000000	40.290895
2287.000000	40.137695
2286.000000	39.993244
2285.000000	39.904018
2284.000000	39.908406
2283.000000	39.975925
2282.000000	40.049678
2281.000000	40.092871
2280.000000	40.121135
2279.000000	40.168344
2278.000000	40.159314
2277.000000	40.106235
2276.000000	40.044145
2275.000000	40.164912
2274.000000	40.180375
2273.000000	40.141515
2272.000000	40.279357
2271.000000	40.253951
2270.000000	40.378017
2269.000000	40.308410
2268.000000	40.372845
2267.000000	40.432014
2266.000000	40.539042
2265.000000	40.744615
2264.000000	40.906694
2263.000000	40.966449
2262.000000	41.120797
2261.000000	41.367219
2260.000000	41.579673
2259.000000	41.673974
2258.000000	41.843164
2257.000000	42.020652
2256.000000	42.198468
2255.000000	42.446025
2254.000000	42.550742
2253.000000	42.792287
2252.000000	43.059107
2251.000000	43.200065
2250.000000	43.405984
2249.000000	43.586375
2248.000000	43.736551
2247.000000	43.929046
2246.000000	44.224694
2245.000000	44.477845
2244.000000	44.600723
2243.000000	44.839486
2242.000000	45.007758
2241.000000	45.104004
2240.000000	45.292494
2239.000000	45.409883
2238.000000	45.589937
2237.000000	45.710823
2236.000000	45.744233
2235.000000	45.833824
2234.000000	45.868962
2233.000000	45.864431
2232.000000	45.985926
2231.000000	46.210742
2230.000000	46.239150
2229.000000	46.266495
2228.000000	46.360375
2227.000000	46.315824
2226.000000	46.220182
2225.000000	46.218971
2224.000000	46.275695
2223.000000	46.203248
2222.000000	46.155017
2221.000000	46.164421
2220.000000	46.190301
2219.000000	46.167385
2218.000000	45.967228
2217.000000	45.927038
2216.000000	45.873861
2215.000000	45.868318
2214.000000	45.810721
2213.000000	45.775131
2212.000000	45.794130
2211.000000	45.819442
2210.000000	45.747513
2209.000000	45.559199
2208.000000	45.546184
2207.000000	45.568115
2206.000000	45.586907
2205.000000	45.406053
2204.000000	45.295382
2203.000000	45.208360
2202.000000	45.108126
2201.000000	45.039310
2200.000000	45.006866
2199.000000	44.940379
2198.000000	44.955481
2197.000000	44.772276
2196.000000	44.708691
2195.000000	44.596783
2194.000000	44.633299
2193.000000	44.499127
2192.000000	44.465021
2191.000000	44.379946
2190.000000	44.260324
2189.000000	44.254325
2188.000000	44.209722
2187.000000	44.195925
2186.000000	44.198184
2185.000000	44.014195
2184.000000	44.111158
2183.000000	44.159083
2182.000000	44.045535
2181.000000	43.906311
2180.000000	44.011404
2179.000000	43.994411
2178.000000	43.977928
2177.000000	43.958704
2176.000000	43.979799
2175.000000	44.143700
2174.000000	44.131972
2173.000000	44.089281
2172.000000	44.100890
2171.000000	44.266743
2170.000000	44.349382
2169.000000	44.374012
2168.000000	44.512837
2167.000000	44.654283
2166.000000	44.787827
2165.000000	44.961334
2164.000000	44.851296
2163.000000	44.884721
2162.000000	45.247939
2161.000000	45.084968
2160.000000	45.334599
2159.000000	45.635159
2158.000000	45.667279
2157.000000	45.747418
2156.000000	45.901555
2155.000000	46.185524
2154.000000	46.284803
2153.000000	46.438307
2152.000000	46.739761
2151.000000	46.877720
2150.000000	46.931045
2149.000000	47.032612
2148.000000	47.156739
2147.000000	47.418877
2146.000000	47.520908
2145.000000	47.715892
2144.000000	47.830240
2143.000000	47.741617
2142.000000	47.991077
2141.000000	48.236662
2140.000000	48.346319
2139.000000	48.477407
2138.000000	48.653951
2137.000000	48.704310
2136.000000	48.750522
2135.000000	48.898809
2134.000000	48.887976
2133.000000	48.971833
2132.000000	49.124983
2131.000000	49.361060
2130.000000	49.403933
2129.000000	49.511155
2128.000000	49.474892
2127.000000	49.532670
2126.000000	49.552583
2125.000000	49.611488
2124.000000	49.665580
2123.000000	49.705821
2122.000000	49.723401
2121.000000	49.842242
2120.000000	49.793553
2119.000000	49.827425
2118.000000	49.896687
2117.000000	49.820735
2116.000000	50.067386
2115.000000	50.137470
2114.000000	49.986409
2113.000000	49.950968
2112.000000	49.909580
2111.000000	50.061029
2110.000000	50.061037
2109.000000	50.160160
2108.000000	50.046550
2107.000000	50.125568
2106.000000	50.054816
2105.000000	50.163645
2104.000000	50.263899
2103.000000	50.291843
2102.000000	50.265583
2101.000000	50.231614
2100.000000	50.273062
2099.000000	50.275655
2098.000000	50.305092
2097.000000	50.258891
2096.000000	50.173369
2095.000000	50.096848
2094.000000	50.172493
2093.000000	50.242969
2092.000000	50.141076
2091.000000	50.100204
2090.000000	50.079140
2089.000000	50.088645
2088.000000	50.089554
2087.000000	50.082364
2086.000000	50.032023
2085.000000	50.009563
2084.000000	49.949843
2083.000000	49.856056
2082.000000	49.861032
2081.000000	49.805939
2080.000000	49.766860
2079.000000	49.657777
2078.000000	49.552812
2077.000000	49.483297
2076.000000	49.292750
2075.000000	49.164062
2074.000000	49.162868
2073.000000	49.103787
2072.000000	48.980589
2071.000000	48.869419
2070.000000	48.711724
2069.000000	48.618736
2068.000000	48.427444
2067.000000	48.272315
2066.000000	48.150985
2065.000000	47.997868
2064.000000	47.865108
2063.000000	47.731414
2062.000000	47.600203
2061.000000	47.416871
2060.000000	47.241023
2059.000000	47.110499
2058.000000	47.006987
2057.000000	46.859658
2056.000000	46.751044
2055.000000	46.623620
2054.000000	46.426529
2053.000000	46.257654
2052.000000	46.148934
2051.000000	46.039979
2050.000000	45.939259
2049.000000	45.898108
2048.000000	45.778795
2047.000000	45.654550
2046.000000	45.574563
2045.000000	45.556664
2044.000000	45.524955
2043.000000	45.527117
2042.000000	45.524270
2041.000000	45.537739
2040.000000	45.565705
2039.000000	45.533419
2038.000000	45.581055
2037.000000	45.702903
2036.000000	45.749483
2035.000000	45.810355
2034.000000	45.950936
2033.000000	46.028148
2032.000000	46.081282
2031.000000	46.218880
2030.000000	46.340322
2029.000000	46.438175
2028.000000	46.531426
2027.000000	46.646819
2026.000000	46.809720
2025.000000	46.891307
2024.000000	46.908600
2023.000000	46.924008
2022.000000	46.975495
2021.000000	47.016609
2020.000000	47.094623
2019.000000	47.122469
2018.000000	47.106070
2017.000000	47.167922
2016.000000	47.170461
2015.000000	47.150632
2014.000000	47.125593
2013.000000	47.068567
2012.000000	47.011498
2011.000000	46.974721
2010.000000	46.906349
2009.000000	46.819195
2008.000000	46.723531
2007.000000	46.626582
2006.000000	46.533574
2005.000000	46.459465
2004.000000	46.326040
2003.000000	46.204461
2002.000000	46.135326
2001.000000	45.997777
2000.000000	45.913119
1999.000000	45.821103
1998.000000	45.724874
1997.000000	45.594120
1996.000000	45.480873
1995.000000	45.365722
1994.000000	45.259296
1993.000000	45.168461
1992.000000	45.011831
1991.000000	44.895824
1990.000000	44.807343
1989.000000	44.688802
1988.000000	44.566445
1987.000000	44.467869
1986.000000	44.339566
1985.000000	44.212750
1984.000000	44.113741
1983.000000	44.006280
1982.000000	43.917911
1981.000000	43.792315
1980.000000	43.669358
1979.000000	43.518757
1978.000000	43.435639
1977.000000	43.352221
1976.000000	43.230950
1975.000000	43.175002
1974.000000	43.030290
1973.000000	42.960597
1972.000000	42.857463
1971.000000	42.791545
1970.000000	42.681264
1969.000000	42.568552
1968.000000	42.439605
1967.000000	42.383523
1966.000000	42.290694
1965.000000	42.157527
1964.000000	42.053470
1963.000000	42.009893
1962.000000	41.902178
1961.000000	41.822529
1960.000000	41.728107
1959.000000	41.647576
1958.000000	41.554124
1957.000000	41.476463
1956.000000	41.391002
1955.000000	41.324880
1954.000000	41.232419
1953.000000	41.192416
1952.000000	41.144137
1951.000000	41.087546
1950.000000	41.036136
1949.000000	40.972858
1948.000000	40.957954
1947.000000	40.905803
1946.000000	40.880641
1945.000000	40.900437
1944.000000	40.952864
1943.000000	40.968911
1942.000000	40.972556
1941.000000	41.039172
1940.000000	41.083720
1939.000000	41.170196
1938.000000	41.232011
1937.000000	41.277380
1936.000000	41.378193
1935.000000	41.534959
1934.000000	41.624563
1933.000000	41.741473
1932.000000	41.872477
1931.000000	42.009233
1930.000000	42.172392
1929.000000	42.405373
1928.000000	42.619100
1927.000000	42.827365
1926.000000	43.050366
1925.000000	43.311739
1924.000000	43.513130
1923.000000	43.803909
1922.000000	44.078938
1921.000000	44.348590
1920.000000	44.578405
1919.000000	44.913776
1918.000000	45.326701
1917.000000	45.632547
1916.000000	45.884536
1915.000000	46.253210
1914.000000	46.627621
1913.000000	47.131927
1912.000000	47.438842
1911.000000	47.823027
1910.000000	48.277973
1909.000000	48.589711
1908.000000	49.067966
1907.000000	49.552092
1906.000000	49.983399
1905.000000	50.391926
1904.000000	50.930385
1903.000000	51.435405
1902.000000	51.863757
1901.000000	52.377071
1900.000000	52.883695
1899.000000	53.369310
1898.000000	53.885732
1897.000000	54.297410
1896.000000	54.776432
1895.000000	55.252197
1894.000000	55.645379
1893.000000	56.157853
1892.000000	56.603195
1891.000000	57.052715
1890.000000	57.405228
1889.000000	57.850941
1888.000000	58.231708
1887.000000	58.576019
1886.000000	58.977636
1885.000000	59.303962
1884.000000	59.642167
1883.000000	59.932485
1882.000000	60.233263
1881.000000	60.556711
1880.000000	60.844062
1879.000000	61.069070
1878.000000	61.336264
1877.000000	61.588995
1876.000000	61.806293
1875.000000	62.036630
1874.000000	62.228538
1873.000000	62.462294
1872.000000	62.577571
1871.000000	62.715483
1870.000000	62.872064
1869.000000	63.045959
1868.000000	63.167203
1867.000000	63.263648
1866.000000	63.358868
1865.000000	63.409407
1864.000000	63.462478
1863.000000	63.564017
1862.000000	63.625485
1861.000000	63.696986
1860.000000	63.743896
1859.000000	63.724865
1858.000000	63.752651
1857.000000	63.837842
1856.000000	63.874914
1855.000000	63.901896
1854.000000	63.921727
1853.000000	63.959539
1852.000000	63.983865
1851.000000	63.982025
1850.000000	64.006677
1849.000000	63.999947
1848.000000	63.979901
1847.000000	63.984213
1846.000000	63.944378
1845.000000	63.944844
1844.000000	63.941414
1843.000000	63.926379
1842.000000	63.911122
1841.000000	63.892477
1840.000000	63.870713
1839.000000	63.859124
1838.000000	63.829060
1837.000000	63.796395
1836.000000	63.773433
1835.000000	63.734880
1834.000000	63.676832
1833.000000	63.653542
1832.000000	63.621610
1831.000000	63.569333
1830.000000	63.528319
1829.000000	63.497396
1828.000000	63.463760
1827.000000	63.435526
1826.000000	63.424203
1825.000000	63.406544
1824.000000	63.371674
1823.000000	63.343109
1822.000000	63.302304
1821.000000	63.284763
1820.000000	63.257635
1819.000000	63.234900
1818.000000	63.224496
1817.000000	63.181547
1816.000000	63.153871
1815.000000	63.133809
1814.000000	63.083307
1813.000000	63.048204
1812.000000	63.013182
1811.000000	62.989913
1810.000000	62.977320
1809.000000	62.953536
1808.000000	62.933956
1807.000000	62.897954
1806.000000	62.874066
1805.000000	62.859009
1804.000000	62.832631
1803.000000	62.808083
1802.000000	62.781161
1801.000000	62.759127
1800.000000	62.738939
1799.000000	62.707404
1798.000000	62.676099
1797.000000	62.662790
1796.000000	62.654190
1795.000000	62.644809
1794.000000	62.635727
1793.000000	62.595790
1792.000000	62.580485
1791.000000	62.580310
1790.000000	62.555711
1789.000000	62.530628
1788.000000	62.506309
1787.000000	62.511311
1786.000000	62.490953
1785.000000	62.461180
1784.000000	62.443889
1783.000000	62.428059
1782.000000	62.372044
1781.000000	62.349708
1780.000000	62.325154
1779.000000	62.300099
1778.000000	62.268916
1777.000000	62.228408
1776.000000	62.210260
1775.000000	62.171620
1774.000000	62.134037
1773.000000	62.105831
1772.000000	62.074879
1771.000000	62.027666
1770.000000	61.966564
1769.000000	61.917639
1768.000000	61.868870
1767.000000	61.813969
1766.000000	61.788120
1765.000000	61.758792
1764.000000	61.723871
1763.000000	61.670748
1762.000000	61.637216
1761.000000	61.603845
1760.000000	61.562208
1759.000000	61.521217
1758.000000	61.479492
1757.000000	61.451499
1756.000000	61.402784
1755.000000	61.371665
1754.000000	61.329178
1753.000000	61.253689
1752.000000	61.229379
1751.000000	61.194255
1750.000000	61.173608
1749.000000	61.155376
1748.000000	61.099754
1747.000000	61.018869
1746.000000	60.963970
1745.000000	60.938393
1744.000000	60.889665
1743.000000	60.842338
1742.000000	60.758161
1741.000000	60.753225
1740.000000	60.718458
1739.000000	60.647812
1738.000000	60.643904
1737.000000	60.657916
1736.000000	60.615441
1735.000000	60.596650
1734.000000	60.595562
1733.000000	60.610502
1732.000000	60.564650
1731.000000	60.582889
1730.000000	60.609687
1729.000000	60.618074
1728.000000	60.691308
1727.000000	60.740090
1726.000000	60.787730
1725.000000	60.843688
1724.000000	60.917463
1723.000000	60.961871
1722.000000	61.043912
1721.000000	61.142855
1720.000000	61.226456
1719.000000	61.316917
1718.000000	61.386568
1717.000000	61.477356
1716.000000	61.551639
1715.000000	61.593758
1714.000000	61.686170
1713.000000	61.764799
1712.000000	61.826396
1711.000000	61.889924
1710.000000	61.986107
1709.000000	62.023441
1708.000000	62.074186
1707.000000	62.078002
1706.000000	62.073441
1705.000000	62.114706
1704.000000	62.158085
1703.000000	62.161752
1702.000000	62.208617
1701.000000	62.232686
1700.000000	62.248167
1699.000000	62.208618
1698.000000	62.247486
1697.000000	62.265038
1696.000000	62.327404
1695.000000	62.346853
1694.000000	62.379782
1693.000000	62.430550
1692.000000	62.459015
1691.000000	62.521315
1690.000000	62.597242
1689.000000	62.655834
1688.000000	62.729327
1687.000000	62.826899
1686.000000	62.917029
1685.000000	63.023967
1684.000000	63.119377
1683.000000	63.278767
1682.000000	63.376893
1681.000000	63.505596
1680.000000	63.632304
1679.000000	63.767383
1678.000000	63.925445
1677.000000	64.027967
1676.000000	64.169116
1675.000000	64.324642
1674.000000	64.472004
1673.000000	64.572866
1672.000000	64.704063
1671.000000	64.832006
1670.000000	64.966887
1669.000000	65.076555
1668.000000	65.181366
1667.000000	65.300273
1666.000000	65.318642
1665.000000	65.418636
1664.000000	65.493845
1663.000000	65.556873
1662.000000	65.635596
1661.000000	65.680077
1660.000000	65.720276
1659.000000	65.766110
1658.000000	65.826494
1657.000000	65.858001
1656.000000	65.896625
1655.000000	65.925339
1654.000000	65.912669
1653.000000	65.934624
1652.000000	65.969132
1651.000000	65.959565
1650.000000	65.965802
1649.000000	65.969792
1648.000000	65.948002
1647.000000	65.952696
1646.000000	65.951154
1645.000000	65.921450
1644.000000	65.921456
1643.000000	65.908525
1642.000000	65.888216
1641.000000	65.892615
1640.000000	65.873073
1639.000000	65.847680
1638.000000	65.821331
1637.000000	65.811292
1636.000000	65.775388
1635.000000	65.751234
1634.000000	65.713130
1633.000000	65.705588
1632.000000	65.674995
1631.000000	65.625489
1630.000000	65.598848
1629.000000	65.574136
1628.000000	65.526465
1627.000000	65.494110
1626.000000	65.455152
1625.000000	65.415508
1624.000000	65.388588
1623.000000	65.368572
1622.000000	65.341952
1621.000000	65.281590
1620.000000	65.247132
1619.000000	65.216503
1618.000000	65.168556
1617.000000	65.134112
1616.000000	65.074527
1615.000000	65.024787
1614.000000	64.968928
1613.000000	64.925360
1612.000000	64.896304
1611.000000	64.850632
1610.000000	64.791704
1609.000000	64.743415
1608.000000	64.707055
1607.000000	64.659414
1606.000000	64.601533
1605.000000	64.558612
1604.000000	64.514998
1603.000000	64.455567
1602.000000	64.409940
1601.000000	64.367775
1600.000000	64.313635
1599.000000	64.258019
1598.000000	64.204566
1597.000000	64.162597
1596.000000	64.122035
1595.000000	64.072604
1594.000000	64.031683
1593.000000	64.002029
1592.000000	63.959688
1591.000000	63.914066
1590.000000	63.885034
1589.000000	63.831892
1588.000000	63.788825
1587.000000	63.766279
1586.000000	63.720025
1585.000000	63.675426
1584.000000	63.643674
1583.000000	63.601773
1582.000000	63.566899
1581.000000	63.521832
1580.000000	63.501365
1579.000000	63.472745
1578.000000	63.436684
1577.000000	63.393588
1576.000000	63.343166
1575.000000	63.311437
1574.000000	63.265874
1573.000000	63.238021
1572.000000	63.205856
1571.000000	63.173292
1570.000000	63.132616
1569.000000	63.084940
1568.000000	63.067729
1567.000000	63.049094
1566.000000	63.006516
1565.000000	62.971077
1564.000000	62.962041
1563.000000	62.950237
1562.000000	62.928160
1561.000000	62.906188
1560.000000	62.879838
1559.000000	62.868083
1558.000000	62.847938
1557.000000	62.832299
1556.000000	62.822544
1555.000000	62.800064
1554.000000	62.781963
1553.000000	62.752419
1552.000000	62.723490
1551.000000	62.703632
1550.000000	62.656441
1549.000000	62.633137
1548.000000	62.605372
1547.000000	62.536455
1546.000000	62.496697
1545.000000	62.447134
1544.000000	62.382613
1543.000000	62.311690
1542.000000	62.257262
1541.000000	62.210152
1540.000000	62.136933
1539.000000	62.069631
1538.000000	62.005412
1537.000000	61.918764
1536.000000	61.838520
1535.000000	61.772700
1534.000000	61.697573
1533.000000	61.640646
1532.000000	61.578450
1531.000000	61.502701
1530.000000	61.431972
1529.000000	61.360343
1528.000000	61.318269
1527.000000	61.258733
1526.000000	61.210371
1525.000000	61.159568
1524.000000	61.109174
1523.000000	61.050798
1522.000000	61.003788
1521.000000	60.966324
1520.000000	60.925668
1519.000000	60.904299
1518.000000	60.867383
1517.000000	60.881418
1516.000000	60.881542
1515.000000	60.883140
1514.000000	60.876763
1513.000000	60.862184
1512.000000	60.821484
1511.000000	60.779160
1510.000000	60.757214
1509.000000	60.752379
1508.000000	60.726208
1507.000000	60.736943
1506.000000	60.759768
1505.000000	60.727103
1504.000000	60.711294
1503.000000	60.699367
1502.000000	60.677041
1501.000000	60.664261
1500.000000	60.677989
1499.000000	60.681422
1498.000000	60.685547
1497.000000	60.677372
1496.000000	60.691574
1495.000000	60.713730
1494.000000	60.715771
1493.000000	60.746449
1492.000000	60.741901
1491.000000	60.764350
1490.000000	60.819826
1489.000000	60.831771
1488.000000	60.864170
1487.000000	60.886311
1486.000000	60.929043
1485.000000	60.988110
1484.000000	60.995375
1483.000000	61.035822
1482.000000	61.078162
1481.000000	61.114420
1480.000000	61.157739
1479.000000	61.184395
1478.000000	61.224287
1477.000000	61.281247
1476.000000	61.334253
1475.000000	61.380247
1474.000000	61.407436
1473.000000	61.438881
1472.000000	61.477654
1471.000000	61.490219
1470.000000	61.530429
