PE UV       SUBTECH     SPECTRUM    ASCII       PEDS        4.00        
   -1
TDms1482152.Sample.asc
18/03/22
09:49:06.00
18/03/22
09:49:06.00
Administrator

200.000000
1
Lambda 750
750N8071901
PerkinElmer UV WinLab 6.0.4.0738 / 1.61.00 Lambda 900

0
0
3350/servo 860.8/2
0
0
UV/VIS
1
1
1
CommonBeamDepol,150mm sphere / downward view
0
0
0
0
Program
Program
3350/servo 860.8/2
3350/0.2 860.8/0.2
3350/0.2 860.8/0.2
0
1
 
 
 
0
 
860.8
319.2
860.8
Front
100
on
 
 
0
0
0
 
0
 
 
 
0
 
 
0
0
0
0
0
 
 
 
 
0
0


0
0
#HDR
-1
-1
#GR
nm
%T
1.0
0.0
2350.000000
-1.000000
2151
8
8.158584
-0.020892
#DATA
2350.000000	0.432818
2349.000000	0.304691
2348.000000	0.230396
2347.000000	0.791228
2346.000000	0.756191
2345.000000	0.309989
2344.000000	0.467866
2343.000000	0.067301
2342.000000	0.423111
2341.000000	0.906931
2340.000000	0.690709
2339.000000	1.225688
2338.000000	1.343959
2337.000000	1.186804
2336.000000	1.228164
2335.000000	1.166324
2334.000000	1.240061
2333.000000	1.298254
2332.000000	1.405572
2331.000000	1.566430
2330.000000	1.410450
2329.000000	1.037724
2328.000000	1.395790
2327.000000	1.001336
2326.000000	1.224487
2325.000000	1.089988
2324.000000	1.392807
2323.000000	1.129032
2322.000000	1.232531
2321.000000	1.288245
2320.000000	1.047608
2319.000000	1.148313
2318.000000	1.274748
2317.000000	1.222003
2316.000000	1.109659
2315.000000	1.091505
2314.000000	0.848893
2313.000000	0.928737
2312.000000	0.857288
2311.000000	0.956323
2310.000000	0.904058
2309.000000	0.737278
2308.000000	0.932911
2307.000000	0.860976
2306.000000	0.848267
2305.000000	0.840583
2304.000000	1.189810
2303.000000	1.133625
2302.000000	0.919482
2301.000000	0.932341
2300.000000	0.859845
2299.000000	0.935600
2298.000000	0.837445
2297.000000	0.715809
2296.000000	0.851995
2295.000000	0.840943
2294.000000	0.964266
2293.000000	0.875513
2292.000000	0.675869
2291.000000	0.899392
2290.000000	0.866094
2289.000000	0.732158
2288.000000	0.664963
2287.000000	0.832816
2286.000000	0.921057
2285.000000	0.747291
2284.000000	0.781633
2283.000000	0.927012
2282.000000	0.898641
2281.000000	0.836366
2280.000000	0.789480
2279.000000	0.926398
2278.000000	0.926268
2277.000000	0.981567
2276.000000	0.922329
2275.000000	0.880246
2274.000000	0.790090
2273.000000	0.748607
2272.000000	0.865916
2271.000000	0.943168
2270.000000	0.855587
2269.000000	0.848128
2268.000000	0.809553
2267.000000	0.970524
2266.000000	1.015045
2265.000000	0.961650
2264.000000	1.006986
2263.000000	1.027351
2262.000000	1.019939
2261.000000	1.082227
2260.000000	0.935485
2259.000000	0.957772
2258.000000	1.034892
2257.000000	1.014556
2256.000000	0.920035
2255.000000	0.856195
2254.000000	0.980430
2253.000000	1.117467
2252.000000	1.281383
2251.000000	1.190876
2250.000000	1.182831
2249.000000	1.285989
2248.000000	1.189128
2247.000000	1.168166
2246.000000	1.256625
2245.000000	1.383882
2244.000000	1.474304
2243.000000	1.462318
2242.000000	1.364715
2241.000000	1.417604
2240.000000	1.354549
2239.000000	1.264692
2238.000000	1.307486
2237.000000	1.262308
2236.000000	1.201163
2235.000000	1.362076
2234.000000	1.491928
2233.000000	1.471491
2232.000000	1.438511
2231.000000	1.481536
2230.000000	1.536416
2229.000000	1.571741
2228.000000	1.597884
2227.000000	1.687145
2226.000000	1.645570
2225.000000	1.531751
2224.000000	1.590025
2223.000000	1.584799
2222.000000	1.418426
2221.000000	1.371969
2220.000000	1.409957
2219.000000	1.487825
2218.000000	1.496027
2217.000000	1.513306
2216.000000	1.593942
2215.000000	1.660217
2214.000000	1.565265
2213.000000	1.419970
2212.000000	1.316299
2211.000000	1.467989
2210.000000	1.387817
2209.000000	1.334727
2208.000000	1.420568
2207.000000	1.353450
2206.000000	1.276206
2205.000000	1.242400
2204.000000	1.286842
2203.000000	1.245940
2202.000000	1.146764
2201.000000	1.252457
2200.000000	1.313052
2199.000000	1.333460
2198.000000	1.334411
2197.000000	1.325114
2196.000000	1.469555
2195.000000	1.328414
2194.000000	1.247040
2193.000000	1.143229
2192.000000	1.246123
2191.000000	1.224580
2190.000000	1.052516
2189.000000	1.165539
2188.000000	1.133331
2187.000000	1.129276
2186.000000	1.247538
2185.000000	1.239259
2184.000000	1.250862
2183.000000	1.244447
2182.000000	1.239411
2181.000000	1.172727
2180.000000	1.159756
2179.000000	1.184212
2178.000000	1.129015
2177.000000	1.059230
2176.000000	1.269468
2175.000000	1.160577
2174.000000	1.055580
2173.000000	1.243824
2172.000000	1.075000
2171.000000	1.318558
2170.000000	1.316095
2169.000000	1.300217
2168.000000	1.258664
2167.000000	1.313914
2166.000000	1.331535
2165.000000	1.379752
2164.000000	1.263989
2163.000000	1.440271
2162.000000	1.407000
2161.000000	1.270252
2160.000000	1.341226
2159.000000	1.383355
2158.000000	1.323376
2157.000000	1.458028
2156.000000	1.543594
2155.000000	1.450296
2154.000000	1.526864
2153.000000	1.567915
2152.000000	1.407440
2151.000000	1.497974
2150.000000	1.500800
2149.000000	1.357005
2148.000000	1.522856
2147.000000	1.481151
2146.000000	1.394603
2145.000000	1.521189
2144.000000	1.403210
2143.000000	1.507439
2142.000000	1.478392
2141.000000	1.591809
2140.000000	1.619744
2139.000000	1.540335
2138.000000	1.698557
2137.000000	1.725267
2136.000000	1.934011
2135.000000	1.746188
2134.000000	1.738493
2133.000000	1.471046
2132.000000	1.788651
2131.000000	1.937681
2130.000000	1.714544
2129.000000	1.523212
2128.000000	1.698546
2127.000000	1.681823
2126.000000	1.531897
2125.000000	1.727796
2124.000000	1.548394
2123.000000	1.560808
2122.000000	1.613883
2121.000000	1.822004
2120.000000	1.768950
2119.000000	1.718473
2118.000000	1.636643
2117.000000	1.580547
2116.000000	1.643862
2115.000000	1.897787
2114.000000	1.829544
2113.000000	1.758367
2112.000000	1.603072
2111.000000	1.644431
2110.000000	1.626516
2109.000000	1.736933
2108.000000	1.728018
2107.000000	1.772315
2106.000000	1.627381
2105.000000	1.741769
2104.000000	1.743446
2103.000000	1.706761
2102.000000	1.799391
2101.000000	1.765930
2100.000000	1.843257
2099.000000	1.677418
2098.000000	1.776380
2097.000000	1.636995
2096.000000	1.770218
2095.000000	1.797272
2094.000000	1.740010
2093.000000	1.688830
2092.000000	1.767526
2091.000000	1.696637
2090.000000	1.748364
2089.000000	1.811056
2088.000000	1.695040
2087.000000	1.665388
2086.000000	1.784979
2085.000000	1.813858
2084.000000	1.767199
2083.000000	1.672035
2082.000000	1.615536
2081.000000	1.711823
2080.000000	1.724416
2079.000000	1.616355
2078.000000	1.566448
2077.000000	1.575732
2076.000000	1.555888
2075.000000	1.568998
2074.000000	1.562404
2073.000000	1.614420
2072.000000	1.574740
2071.000000	1.582418
2070.000000	1.621662
2069.000000	1.485996
2068.000000	1.417108
2067.000000	1.359791
2066.000000	1.351342
2065.000000	1.367144
2064.000000	1.400200
2063.000000	1.402741
2062.000000	1.300124
2061.000000	1.207881
2060.000000	1.170432
2059.000000	1.211151
2058.000000	1.220782
2057.000000	1.258588
2056.000000	1.279443
2055.000000	1.227009
2054.000000	1.216268
2053.000000	1.201415
2052.000000	1.155578
2051.000000	1.127872
2050.000000	1.091800
2049.000000	1.073769
2048.000000	1.095228
2047.000000	1.097237
2046.000000	1.054409
2045.000000	1.035224
2044.000000	1.052343
2043.000000	1.117790
2042.000000	1.106602
2041.000000	1.068331
2040.000000	1.152146
2039.000000	1.124924
2038.000000	1.051135
2037.000000	1.040469
2036.000000	1.046637
2035.000000	1.046219
2034.000000	1.033847
2033.000000	1.053855
2032.000000	1.095833
2031.000000	1.098388
2030.000000	1.116343
2029.000000	1.162610
2028.000000	1.204767
2027.000000	1.206157
2026.000000	1.216341
2025.000000	1.213503
2024.000000	1.224522
2023.000000	1.234295
2022.000000	1.204562
2021.000000	1.186617
2020.000000	1.188753
2019.000000	1.204420
2018.000000	1.238885
2017.000000	1.236686
2016.000000	1.230018
2015.000000	1.223791
2014.000000	1.226078
2013.000000	1.258287
2012.000000	1.254121
2011.000000	1.238794
2010.000000	1.265458
2009.000000	1.254316
2008.000000	1.212898
2007.000000	1.153378
2006.000000	1.147125
2005.000000	1.151940
2004.000000	1.142118
2003.000000	1.176189
2002.000000	1.160103
2001.000000	1.137802
2000.000000	1.124207
1999.000000	1.109177
1998.000000	1.069518
1997.000000	1.057932
1996.000000	1.082883
1995.000000	1.097319
1994.000000	1.082669
1993.000000	1.044162
1992.000000	1.018591
1991.000000	1.011054
1990.000000	1.018543
1989.000000	0.992637
1988.000000	1.023161
1987.000000	0.997447
1986.000000	0.980718
1985.000000	0.997274
1984.000000	0.986720
1983.000000	0.983124
1982.000000	1.000839
1981.000000	0.959464
1980.000000	0.960889
1979.000000	0.915645
1978.000000	0.931489
1977.000000	0.991696
1976.000000	0.972447
1975.000000	0.918929
1974.000000	0.937572
1973.000000	0.893469
1972.000000	0.902392
1971.000000	0.907693
1970.000000	0.906866
1969.000000	0.968979
1968.000000	0.959008
1967.000000	0.954080
1966.000000	0.954981
1965.000000	0.919880
1964.000000	0.875074
1963.000000	0.892644
1962.000000	0.879147
1961.000000	0.870877
1960.000000	0.874612
1959.000000	0.888668
1958.000000	0.930742
1957.000000	0.878115
1956.000000	0.871155
1955.000000	0.890314
1954.000000	0.869410
1953.000000	0.869303
1952.000000	0.913298
1951.000000	0.904019
1950.000000	0.947282
1949.000000	0.975155
1948.000000	0.920488
1947.000000	0.874817
1946.000000	0.948795
1945.000000	0.902489
1944.000000	0.880095
1943.000000	0.920499
1942.000000	0.985843
1941.000000	0.993035
1940.000000	1.051643
1939.000000	0.975857
1938.000000	0.991691
1937.000000	0.979742
1936.000000	1.008734
1935.000000	1.026819
1934.000000	1.010185
1933.000000	1.036308
1932.000000	1.032392
1931.000000	0.947012
1930.000000	0.993497
1929.000000	0.981963
1928.000000	1.090259
1927.000000	1.014698
1926.000000	1.031567
1925.000000	1.111751
1924.000000	1.112139
1923.000000	1.097761
1922.000000	1.224998
1921.000000	1.185176
1920.000000	1.231014
1919.000000	1.220223
1918.000000	1.209122
1917.000000	1.287315
1916.000000	1.213343
1915.000000	1.378495
1914.000000	1.429824
1913.000000	1.528048
1912.000000	1.494208
1911.000000	1.548830
1910.000000	1.607306
1909.000000	1.651122
1908.000000	1.724019
1907.000000	1.774466
1906.000000	1.761837
1905.000000	1.943641
1904.000000	2.036163
1903.000000	2.080014
1902.000000	2.128253
1901.000000	2.279784
1900.000000	2.291075
1899.000000	2.380476
1898.000000	2.552342
1897.000000	2.603725
1896.000000	2.673978
1895.000000	2.754297
1894.000000	2.914668
1893.000000	2.958349
1892.000000	3.098125
1891.000000	3.130004
1890.000000	3.286191
1889.000000	3.447750
1888.000000	3.647142
1887.000000	3.653833
1886.000000	3.766284
1885.000000	3.844963
1884.000000	3.962451
1883.000000	4.102425
1882.000000	4.214895
1881.000000	4.337638
1880.000000	4.413974
1879.000000	4.517123
1878.000000	4.593295
1877.000000	4.677528
1876.000000	4.754346
1875.000000	4.799423
1874.000000	4.896180
1873.000000	4.922925
1872.000000	4.962223
1871.000000	5.078573
1870.000000	5.114030
1869.000000	5.154561
1868.000000	5.147891
1867.000000	5.176528
1866.000000	5.215808
1865.000000	5.223100
1864.000000	5.238280
1863.000000	5.257603
1862.000000	5.252819
1861.000000	5.249045
1860.000000	5.308018
1859.000000	5.371408
1858.000000	5.363088
1857.000000	5.399847
1856.000000	5.382913
1855.000000	5.393134
1854.000000	5.416289
1853.000000	5.424836
1852.000000	5.372129
1851.000000	5.377600
1850.000000	5.391910
1849.000000	5.418252
1848.000000	5.405712
1847.000000	5.397460
1846.000000	5.384238
1845.000000	5.354152
1844.000000	5.354133
1843.000000	5.354919
1842.000000	5.308768
1841.000000	5.295674
1840.000000	5.329867
1839.000000	5.328548
1838.000000	5.288398
1837.000000	5.244320
1836.000000	5.216587
1835.000000	5.206683
1834.000000	5.203375
1833.000000	5.171156
1832.000000	5.107089
1831.000000	5.114041
1830.000000	5.119773
1829.000000	5.109573
1828.000000	5.069162
1827.000000	5.057601
1826.000000	5.056508
1825.000000	5.010436
1824.000000	4.995506
1823.000000	5.000422
1822.000000	4.970046
1821.000000	4.961090
1820.000000	4.951765
1819.000000	4.927887
1818.000000	4.931383
1817.000000	4.915863
1816.000000	4.898965
1815.000000	4.884252
1814.000000	4.861751
1813.000000	4.859662
1812.000000	4.865100
1811.000000	4.857085
1810.000000	4.862745
1809.000000	4.858498
1808.000000	4.830059
1807.000000	4.803883
1806.000000	4.793094
1805.000000	4.791431
1804.000000	4.774339
1803.000000	4.745867
1802.000000	4.736623
1801.000000	4.756130
1800.000000	4.765248
1799.000000	4.750687
1798.000000	4.737812
1797.000000	4.730405
1796.000000	4.741595
1795.000000	4.749161
1794.000000	4.757122
1793.000000	4.745992
1792.000000	4.727348
1791.000000	4.751359
1790.000000	4.739732
1789.000000	4.729130
1788.000000	4.746011
1787.000000	4.751435
1786.000000	4.767392
1785.000000	4.754813
1784.000000	4.730801
1783.000000	4.697345
1782.000000	4.706675
1781.000000	4.706579
1780.000000	4.692859
1779.000000	4.712360
1778.000000	4.701708
1777.000000	4.654772
1776.000000	4.629025
1775.000000	4.604672
1774.000000	4.585715
1773.000000	4.568841
1772.000000	4.547957
1771.000000	4.528804
1770.000000	4.513478
1769.000000	4.503171
1768.000000	4.476648
1767.000000	4.432401
1766.000000	4.440738
1765.000000	4.432747
1764.000000	4.373586
1763.000000	4.322706
1762.000000	4.337286
1761.000000	4.320065
1760.000000	4.262067
1759.000000	4.273543
1758.000000	4.255822
1757.000000	4.218483
1756.000000	4.195549
1755.000000	4.179359
1754.000000	4.167332
1753.000000	4.173877
1752.000000	4.143811
1751.000000	4.113976
1750.000000	4.102826
1749.000000	4.117490
1748.000000	4.110519
1747.000000	4.055674
1746.000000	4.000293
1745.000000	3.980465
1744.000000	3.949406
1743.000000	3.938469
1742.000000	3.937399
1741.000000	3.900669
1740.000000	3.877851
1739.000000	3.857208
1738.000000	3.855691
1737.000000	3.870037
1736.000000	3.856479
1735.000000	3.843688
1734.000000	3.824895
1733.000000	3.822075
1732.000000	3.849413
1731.000000	3.843505
1730.000000	3.814385
1729.000000	3.833410
1728.000000	3.842479
1727.000000	3.828649
1726.000000	3.884912
1725.000000	3.877248
1724.000000	3.860411
1723.000000	3.868578
1722.000000	3.943331
1721.000000	3.941815
1720.000000	3.988215
1719.000000	4.026965
1718.000000	4.031447
1717.000000	4.054099
1716.000000	4.066637
1715.000000	4.081095
1714.000000	4.089880
1713.000000	4.152527
1712.000000	4.147757
1711.000000	4.186809
1710.000000	4.183297
1709.000000	4.221709
1708.000000	4.224742
1707.000000	4.259042
1706.000000	4.256918
1705.000000	4.248110
1704.000000	4.302356
1703.000000	4.293957
1702.000000	4.302849
1701.000000	4.303168
1700.000000	4.298803
1699.000000	4.277034
1698.000000	4.310026
1697.000000	4.328394
1696.000000	4.343841
1695.000000	4.342704
1694.000000	4.357959
1693.000000	4.399440
1692.000000	4.411007
1691.000000	4.444675
1690.000000	4.434979
1689.000000	4.487132
1688.000000	4.536330
1687.000000	4.557562
1686.000000	4.596293
1685.000000	4.667251
1684.000000	4.702524
1683.000000	4.748813
1682.000000	4.814020
1681.000000	4.870640
1680.000000	4.909418
1679.000000	4.942226
1678.000000	4.999410
1677.000000	5.082192
1676.000000	5.133651
1675.000000	5.181224
1674.000000	5.258541
1673.000000	5.289752
1672.000000	5.329406
1671.000000	5.406805
1670.000000	5.464602
1669.000000	5.507924
1668.000000	5.534621
1667.000000	5.620170
1666.000000	5.620130
1665.000000	5.623765
1664.000000	5.661056
1663.000000	5.687482
1662.000000	5.712557
1661.000000	5.756265
1660.000000	5.792628
1659.000000	5.812067
1658.000000	5.843414
1657.000000	5.870528
1656.000000	5.890117
1655.000000	5.878627
1654.000000	5.894413
1653.000000	5.907198
1652.000000	5.912678
1651.000000	5.891319
1650.000000	5.904711
1649.000000	5.897654
1648.000000	5.891468
1647.000000	5.875589
1646.000000	5.877945
1645.000000	5.871756
1644.000000	5.853435
1643.000000	5.830396
1642.000000	5.814034
1641.000000	5.792580
1640.000000	5.785716
1639.000000	5.778791
1638.000000	5.770680
1637.000000	5.764220
1636.000000	5.752290
1635.000000	5.746252
1634.000000	5.735559
1633.000000	5.718785
1632.000000	5.681644
1631.000000	5.664058
1630.000000	5.641098
1629.000000	5.636220
1628.000000	5.625431
1627.000000	5.615015
1626.000000	5.610212
1625.000000	5.572572
1624.000000	5.545536
1623.000000	5.533635
1622.000000	5.513554
1621.000000	5.483170
1620.000000	5.470498
1619.000000	5.443325
1618.000000	5.422657
1617.000000	5.413805
1616.000000	5.397767
1615.000000	5.362630
1614.000000	5.340405
1613.000000	5.322219
1612.000000	5.312309
1611.000000	5.289408
1610.000000	5.272324
1609.000000	5.253494
1608.000000	5.232331
1607.000000	5.199468
1606.000000	5.178181
1605.000000	5.169345
1604.000000	5.148289
1603.000000	5.131085
1602.000000	5.099238
1601.000000	5.064976
1600.000000	5.056051
1599.000000	5.047629
1598.000000	5.031897
1597.000000	5.012646
1596.000000	4.987202
1595.000000	4.960165
1594.000000	4.951737
1593.000000	4.943525
1592.000000	4.932809
1591.000000	4.907349
1590.000000	4.876345
1589.000000	4.865597
1588.000000	4.854477
1587.000000	4.837154
1586.000000	4.815752
1585.000000	4.800203
1584.000000	4.783398
1583.000000	4.775033
1582.000000	4.771378
1581.000000	4.754252
1580.000000	4.736417
1579.000000	4.717293
1578.000000	4.704334
1577.000000	4.694986
1576.000000	4.672939
1575.000000	4.652810
1574.000000	4.648882
1573.000000	4.638013
1572.000000	4.612190
1571.000000	4.599361
1570.000000	4.592426
1569.000000	4.567413
1568.000000	4.539902
1567.000000	4.531374
1566.000000	4.526635
1565.000000	4.514295
1564.000000	4.505244
1563.000000	4.492155
1562.000000	4.480720
1561.000000	4.461575
1560.000000	4.438033
1559.000000	4.428174
1558.000000	4.420345
1557.000000	4.396846
1556.000000	4.394701
1555.000000	4.392891
1554.000000	4.372884
1553.000000	4.349081
1552.000000	4.353194
1551.000000	4.336891
1550.000000	4.303143
1549.000000	4.293013
1548.000000	4.292721
1547.000000	4.259570
1546.000000	4.222777
1545.000000	4.206729
1544.000000	4.176650
1543.000000	4.155481
1542.000000	4.137220
1541.000000	4.102535
1540.000000	4.075907
1539.000000	4.053171
1538.000000	4.025495
1537.000000	3.985215
1536.000000	3.957451
1535.000000	3.925977
1534.000000	3.887964
1533.000000	3.867123
1532.000000	3.855621
1531.000000	3.815245
1530.000000	3.792330
1529.000000	3.777567
1528.000000	3.760357
1527.000000	3.726418
1526.000000	3.694928
1525.000000	3.678639
1524.000000	3.668146
1523.000000	3.655007
1522.000000	3.636408
1521.000000	3.619699
1520.000000	3.617785
1519.000000	3.602682
1518.000000	3.591331
1517.000000	3.592274
1516.000000	3.572358
1515.000000	3.572968
1514.000000	3.576586
1513.000000	3.558482
1512.000000	3.562256
1511.000000	3.546653
1510.000000	3.548925
1509.000000	3.527919
1508.000000	3.528675
1507.000000	3.525427
1506.000000	3.509897
1505.000000	3.511415
1504.000000	3.533800
1503.000000	3.548580
1502.000000	3.538090
1501.000000	3.564020
1500.000000	3.585115
1499.000000	3.605156
1498.000000	3.594242
1497.000000	3.593699
1496.000000	3.593756
1495.000000	3.582476
1494.000000	3.585155
1493.000000	3.589418
1492.000000	3.575755
1491.000000	3.590437
1490.000000	3.594006
1489.000000	3.617247
1488.000000	3.631502
1487.000000	3.633818
1486.000000	3.656056
1485.000000	3.647713
1484.000000	3.664160
1483.000000	3.694137
1482.000000	3.655651
1481.000000	3.710701
1480.000000	3.725919
1479.000000	3.721630
1478.000000	3.730405
1477.000000	3.743312
1476.000000	3.740083
1475.000000	3.748589
1474.000000	3.770335
1473.000000	3.753166
1472.000000	3.779992
1471.000000	3.785683
1470.000000	3.803473
1469.000000	3.809100
1468.000000	3.803978
1467.000000	3.816355
1466.000000	3.828340
1465.000000	3.870964
1464.000000	3.879711
1463.000000	3.880858
1462.000000	3.892757
1461.000000	3.920325
1460.000000	3.933063
1459.000000	3.949778
1458.000000	3.940027
1457.000000	3.937000
1456.000000	4.010186
1455.000000	4.007062
1454.000000	4.001983
1453.000000	4.012780
1452.000000	4.025384
1451.000000	4.057209
1450.000000	4.084025
1449.000000	4.088723
1448.000000	4.093153
1447.000000	4.113755
1446.000000	4.175529
1445.000000	4.186665
1444.000000	4.195418
1443.000000	4.212137
1442.000000	4.216887
1441.000000	4.236256
1440.000000	4.257979
1439.000000	4.290908
1438.000000	4.345645
1437.000000	4.379366
1436.000000	4.392837
1435.000000	4.424677
1434.000000	4.444262
1433.000000	4.465510
1432.000000	4.488117
1431.000000	4.537205
1430.000000	4.576141
1429.000000	4.614661
1428.000000	4.655919
