PE UV       SUBTECH     SPECTRUM    ASCII       PEDS        4.00        
   -1
TDms499172.Sample.asc
18/03/22
11:52:14.00
18/03/22
11:52:14.00
Administrator

200.000000
1
Lambda 750
750N8071901
PerkinElmer UV WinLab 6.0.4.0738 / 1.61.00 Lambda 900

0
0
3350/servo 860.8/2
0
0
UV/VIS
1
1
1
CommonBeamDepol,150mm sphere / downward view
0
0
0
0
Program
Program
3350/servo 860.8/2
3350/0.2 860.8/0.2
3350/0.2 860.8/0.2
0
1
 
 
 
0
 
860.8
319.2
860.8
Front
100
on
 
 
0
0
0
 
0
 
 
 
0
 
 
0
0
0
0
0
 
 
 
 
0
0


0
0
#HDR
-1
-1
#GR
nm
%T
1.0
0.0
2350.000000
-1.000000
2151
8
12.438710
-0.018459
#DATA
2350.000000	5.420133
2349.000000	5.374455
2348.000000	5.404808
2347.000000	6.039562
2346.000000	5.856176
2345.000000	5.563285
2344.000000	5.419931
2343.000000	5.514938
2342.000000	5.600875
2341.000000	5.416806
2340.000000	5.999346
2339.000000	5.845675
2338.000000	6.116258
2337.000000	6.182202
2336.000000	6.073489
2335.000000	6.314737
2334.000000	6.263571
2333.000000	6.013062
2332.000000	6.525735
2331.000000	6.305645
2330.000000	5.990690
2329.000000	6.034299
2328.000000	6.125669
2327.000000	5.874619
2326.000000	6.035459
2325.000000	6.181939
2324.000000	6.150787
2323.000000	6.185382
2322.000000	5.881877
2321.000000	5.982251
2320.000000	5.797338
2319.000000	5.786742
2318.000000	5.855846
2317.000000	5.954552
2316.000000	5.925847
2315.000000	5.937116
2314.000000	5.576196
2313.000000	5.660963
2312.000000	5.750948
2311.000000	5.651518
2310.000000	5.777426
2309.000000	5.878343
2308.000000	5.782059
2307.000000	5.698877
2306.000000	5.614249
2305.000000	5.865006
2304.000000	5.782921
2303.000000	5.531083
2302.000000	5.626053
2301.000000	5.515850
2300.000000	5.293068
2299.000000	5.339094
2298.000000	5.371637
2297.000000	5.311876
2296.000000	5.495024
2295.000000	5.428894
2294.000000	5.611854
2293.000000	5.451942
2292.000000	5.401376
2291.000000	5.377373
2290.000000	5.305142
2289.000000	5.319425
2288.000000	5.487287
2287.000000	5.516833
2286.000000	5.538818
2285.000000	5.397834
2284.000000	5.158618
2283.000000	5.254490
2282.000000	5.262730
2281.000000	5.311491
2280.000000	5.167996
2279.000000	5.381616
2278.000000	5.491085
2277.000000	5.300991
2276.000000	5.230856
2275.000000	5.432945
2274.000000	5.530630
2273.000000	5.505692
2272.000000	5.566547
2271.000000	5.589168
2270.000000	5.637783
2269.000000	5.526631
2268.000000	5.537117
2267.000000	5.519419
2266.000000	5.492067
2265.000000	5.595442
2264.000000	5.626318
2263.000000	5.711396
2262.000000	5.749546
2261.000000	5.808711
2260.000000	5.897348
2259.000000	6.043491
2258.000000	6.255307
2257.000000	6.248028
2256.000000	6.215382
2255.000000	6.224078
2254.000000	6.168649
2253.000000	6.225540
2252.000000	6.415449
2251.000000	6.487857
2250.000000	6.504403
2249.000000	6.647303
2248.000000	6.695891
2247.000000	6.587491
2246.000000	6.515696
2245.000000	6.571591
2244.000000	6.748070
2243.000000	6.964676
2242.000000	7.072368
2241.000000	6.901221
2240.000000	6.920330
2239.000000	7.072514
2238.000000	7.177925
2237.000000	7.239112
2236.000000	7.154823
2235.000000	7.226154
2234.000000	7.234986
2233.000000	7.109552
2232.000000	7.187791
2231.000000	7.313129
2230.000000	7.344383
2229.000000	7.289217
2228.000000	7.272953
2227.000000	7.326019
2226.000000	7.349449
2225.000000	7.272365
2224.000000	7.249527
2223.000000	7.278533
2222.000000	7.328890
2221.000000	7.255087
2220.000000	7.154017
2219.000000	7.277243
2218.000000	7.290211
2217.000000	7.302088
2216.000000	7.348331
2215.000000	7.377684
2214.000000	7.363295
2213.000000	7.284025
2212.000000	7.204558
2211.000000	7.119681
2210.000000	7.034416
2209.000000	6.997777
2208.000000	6.925091
2207.000000	7.036886
2206.000000	7.106227
2205.000000	7.037492
2204.000000	6.990205
2203.000000	6.898570
2202.000000	6.881803
2201.000000	6.959130
2200.000000	6.979839
2199.000000	6.937317
2198.000000	6.983190
2197.000000	6.880112
2196.000000	6.715810
2195.000000	6.635789
2194.000000	6.655813
2193.000000	6.642279
2192.000000	6.687750
2191.000000	6.603517
2190.000000	6.628937
2189.000000	6.619551
2188.000000	6.592138
2187.000000	6.533193
2186.000000	6.451675
2185.000000	6.347318
2184.000000	6.481214
2183.000000	6.592967
2182.000000	6.622606
2181.000000	6.439328
2180.000000	6.505825
2179.000000	6.595165
2178.000000	6.519452
2177.000000	6.498325
2176.000000	6.423377
2175.000000	6.443366
2174.000000	6.622093
2173.000000	6.488090
2172.000000	6.488713
2171.000000	6.485664
2170.000000	6.592488
2169.000000	6.523721
2168.000000	6.761797
2167.000000	6.532678
2166.000000	6.498172
2165.000000	6.738645
2164.000000	6.810520
2163.000000	6.827678
2162.000000	6.813069
2161.000000	6.675237
2160.000000	6.761389
2159.000000	6.902626
2158.000000	6.935487
2157.000000	6.673297
2156.000000	6.973718
2155.000000	6.962490
2154.000000	6.990861
2153.000000	6.989771
2152.000000	7.039524
2151.000000	7.059973
2150.000000	7.022515
2149.000000	7.280358
2148.000000	7.151507
2147.000000	7.255448
2146.000000	7.239663
2145.000000	7.230700
2144.000000	7.214675
2143.000000	7.185589
2142.000000	7.382785
2141.000000	7.334317
2140.000000	7.459998
2139.000000	7.524859
2138.000000	7.573822
2137.000000	7.537084
2136.000000	7.442168
2135.000000	7.653587
2134.000000	7.620246
2133.000000	7.479255
2132.000000	7.609328
2131.000000	7.609085
2130.000000	7.786480
2129.000000	7.590577
2128.000000	7.453827
2127.000000	7.820964
2126.000000	7.591154
2125.000000	7.486311
2124.000000	7.705973
2123.000000	7.574414
2122.000000	7.763249
2121.000000	7.729841
2120.000000	7.816155
2119.000000	7.788127
2118.000000	7.771375
2117.000000	7.729635
2116.000000	7.800233
2115.000000	7.824848
2114.000000	7.843038
2113.000000	7.687427
2112.000000	7.721281
2111.000000	7.875923
2110.000000	7.811263
2109.000000	7.765271
2108.000000	7.735806
2107.000000	7.763574
2106.000000	7.843842
2105.000000	7.690820
2104.000000	7.711001
2103.000000	7.847762
2102.000000	7.735813
2101.000000	7.877910
2100.000000	7.941017
2099.000000	7.821706
2098.000000	7.767956
2097.000000	7.834998
2096.000000	7.727300
2095.000000	7.698159
2094.000000	7.756097
2093.000000	7.754033
2092.000000	7.768852
2091.000000	7.777754
2090.000000	7.711936
2089.000000	7.711231
2088.000000	7.758673
2087.000000	7.679465
2086.000000	7.759529
2085.000000	7.805409
2084.000000	7.784057
2083.000000	7.784705
2082.000000	7.722534
2081.000000	7.639426
2080.000000	7.556715
2079.000000	7.570443
2078.000000	7.568111
2077.000000	7.531188
2076.000000	7.469722
2075.000000	7.422844
2074.000000	7.529684
2073.000000	7.474758
2072.000000	7.433227
2071.000000	7.420502
2070.000000	7.363658
2069.000000	7.308637
2068.000000	7.259274
2067.000000	7.207488
2066.000000	7.117668
2065.000000	7.122057
2064.000000	7.153652
2063.000000	7.096603
2062.000000	7.036850
2061.000000	7.005729
2060.000000	6.972159
2059.000000	6.926030
2058.000000	6.862893
2057.000000	6.795220
2056.000000	6.750153
2055.000000	6.731464
2054.000000	6.687749
2053.000000	6.607223
2052.000000	6.565611
2051.000000	6.524016
2050.000000	6.519370
2049.000000	6.529362
2048.000000	6.439666
2047.000000	6.429206
2046.000000	6.459448
2045.000000	6.382634
2044.000000	6.347511
2043.000000	6.377505
2042.000000	6.386861
2041.000000	6.424179
2040.000000	6.430793
2039.000000	6.384714
2038.000000	6.391395
2037.000000	6.468403
2036.000000	6.441444
2035.000000	6.444358
2034.000000	6.518516
2033.000000	6.540966
2032.000000	6.619742
2031.000000	6.660874
2030.000000	6.633616
2029.000000	6.627446
2028.000000	6.702098
2027.000000	6.769982
2026.000000	6.799203
2025.000000	6.827844
2024.000000	6.830484
2023.000000	6.787453
2022.000000	6.781007
2021.000000	6.802490
2020.000000	6.819386
2019.000000	6.810124
2018.000000	6.819758
2017.000000	6.852398
2016.000000	6.860763
2015.000000	6.847177
2014.000000	6.833516
2013.000000	6.790586
2012.000000	6.780620
2011.000000	6.781930
2010.000000	6.791028
2009.000000	6.764507
2008.000000	6.703903
2007.000000	6.647877
2006.000000	6.602475
2005.000000	6.604296
2004.000000	6.584172
2003.000000	6.555793
2002.000000	6.551967
2001.000000	6.514777
2000.000000	6.458402
1999.000000	6.400147
1998.000000	6.373515
1997.000000	6.347183
1996.000000	6.348684
1995.000000	6.315431
1994.000000	6.248043
1993.000000	6.191451
1992.000000	6.164628
1991.000000	6.119399
1990.000000	6.089194
1989.000000	6.067471
1988.000000	6.079272
1987.000000	5.986922
1986.000000	5.947358
1985.000000	5.935956
1984.000000	5.911679
1983.000000	5.889692
1982.000000	5.874526
1981.000000	5.832351
1980.000000	5.780691
1979.000000	5.709411
1978.000000	5.705690
1977.000000	5.697472
1976.000000	5.674627
1975.000000	5.637845
1974.000000	5.598587
1973.000000	5.556765
1972.000000	5.513837
1971.000000	5.513180
1970.000000	5.477294
1969.000000	5.488202
1968.000000	5.411268
1967.000000	5.380900
1966.000000	5.380071
1965.000000	5.370983
1964.000000	5.351910
1963.000000	5.274796
1962.000000	5.225063
1961.000000	5.173825
1960.000000	5.233942
1959.000000	5.246256
1958.000000	5.198651
1957.000000	5.172175
1956.000000	5.204774
1955.000000	5.133227
1954.000000	5.122646
1953.000000	5.120007
1952.000000	5.088114
1951.000000	5.072913
1950.000000	5.073576
1949.000000	5.038265
1948.000000	5.039509
1947.000000	5.024484
1946.000000	5.029305
1945.000000	5.087790
1944.000000	5.092399
1943.000000	5.061830
1942.000000	5.026629
1941.000000	5.016877
1940.000000	5.005964
1939.000000	5.078515
1938.000000	5.096195
1937.000000	5.149027
1936.000000	5.227851
1935.000000	5.150038
1934.000000	5.207221
1933.000000	5.215564
1932.000000	5.253525
1931.000000	5.295774
1930.000000	5.346607
1929.000000	5.361702
1928.000000	5.402058
1927.000000	5.507328
1926.000000	5.557759
1925.000000	5.611813
1924.000000	5.698775
1923.000000	5.773243
1922.000000	5.850143
1921.000000	5.938975
1920.000000	5.967946
1919.000000	6.009764
1918.000000	6.222871
1917.000000	6.341904
1916.000000	6.297026
1915.000000	6.527122
1914.000000	6.566677
1913.000000	6.650274
1912.000000	6.855521
1911.000000	6.842654
1910.000000	6.974707
1909.000000	7.103508
1908.000000	7.209358
1907.000000	7.324791
1906.000000	7.492276
1905.000000	7.644717
1904.000000	7.841092
1903.000000	7.921052
1902.000000	8.104292
1901.000000	8.213251
1900.000000	8.382063
1899.000000	8.565528
1898.000000	8.727474
1897.000000	8.870247
1896.000000	8.983830
1895.000000	9.119476
1894.000000	9.230288
1893.000000	9.377872
1892.000000	9.472632
1891.000000	9.661441
1890.000000	9.824150
1889.000000	9.932979
1888.000000	10.058630
1887.000000	10.126318
1886.000000	10.284344
1885.000000	10.432646
1884.000000	10.559330
1883.000000	10.663931
1882.000000	10.770836
1881.000000	10.799257
1880.000000	10.981473
1879.000000	11.031400
1878.000000	11.100927
1877.000000	11.210294
1876.000000	11.274174
1875.000000	11.388758
1874.000000	11.440576
1873.000000	11.494291
1872.000000	11.531399
1871.000000	11.624452
1870.000000	11.623753
1869.000000	11.659350
1868.000000	11.687176
1867.000000	11.759498
1866.000000	11.747227
1865.000000	11.750631
1864.000000	11.763478
1863.000000	11.780761
1862.000000	11.762684
1861.000000	11.757115
1860.000000	11.782047
1859.000000	11.832555
1858.000000	11.849218
1857.000000	11.843173
1856.000000	11.855675
1855.000000	11.859174
1854.000000	11.874075
1853.000000	11.881680
1852.000000	11.862500
1851.000000	11.814311
1850.000000	11.852630
1849.000000	11.876872
1848.000000	11.880479
1847.000000	11.858896
1846.000000	11.850434
1845.000000	11.893542
1844.000000	11.860282
1843.000000	11.827250
1842.000000	11.818485
1841.000000	11.803648
1840.000000	11.784875
1839.000000	11.796082
1838.000000	11.776394
1837.000000	11.737482
1836.000000	11.727277
1835.000000	11.739495
1834.000000	11.692500
1833.000000	11.643219
1832.000000	11.643549
1831.000000	11.629769
1830.000000	11.600893
1829.000000	11.567804
1828.000000	11.566948
1827.000000	11.561073
1826.000000	11.526845
1825.000000	11.505324
1824.000000	11.489308
1823.000000	11.496520
1822.000000	11.502158
1821.000000	11.469124
1820.000000	11.418215
1819.000000	11.392950
1818.000000	11.397002
1817.000000	11.370526
1816.000000	11.352949
1815.000000	11.379240
1814.000000	11.387088
1813.000000	11.349854
1812.000000	11.325637
1811.000000	11.319508
1810.000000	11.312711
1809.000000	11.319784
1808.000000	11.304613
1807.000000	11.279181
1806.000000	11.265501
1805.000000	11.247487
1804.000000	11.236317
1803.000000	11.238659
1802.000000	11.218987
1801.000000	11.223006
1800.000000	11.218968
1799.000000	11.213218
1798.000000	11.225037
1797.000000	11.218397
1796.000000	11.222982
1795.000000	11.200869
1794.000000	11.181429
1793.000000	11.196496
1792.000000	11.193823
1791.000000	11.181220
1790.000000	11.193012
1789.000000	11.177907
1788.000000	11.202275
1787.000000	11.220874
1786.000000	11.199986
1785.000000	11.184683
1784.000000	11.173677
1783.000000	11.158421
1782.000000	11.161840
1781.000000	11.168637
1780.000000	11.173790
1779.000000	11.165352
1778.000000	11.144134
1777.000000	11.120056
1776.000000	11.105853
1775.000000	11.091936
1774.000000	11.051999
1773.000000	11.029612
1772.000000	11.024728
1771.000000	11.015391
1770.000000	10.995923
1769.000000	10.970514
1768.000000	10.976858
1767.000000	10.938743
1766.000000	10.901631
1765.000000	10.884514
1764.000000	10.892394
1763.000000	10.848848
1762.000000	10.834006
1761.000000	10.838580
1760.000000	10.807944
1759.000000	10.760944
1758.000000	10.761181
1757.000000	10.770966
1756.000000	10.747220
1755.000000	10.738970
1754.000000	10.724881
1753.000000	10.695839
1752.000000	10.674334
1751.000000	10.671346
1750.000000	10.664456
1749.000000	10.634253
1748.000000	10.620434
1747.000000	10.612477
1746.000000	10.592555
1745.000000	10.546269
1744.000000	10.530258
1743.000000	10.493967
1742.000000	10.479825
1741.000000	10.461491
1740.000000	10.476557
1739.000000	10.446325
1738.000000	10.444821
1737.000000	10.417858
1736.000000	10.386889
1735.000000	10.378996
1734.000000	10.379418
1733.000000	10.361393
1732.000000	10.359915
1731.000000	10.359957
1730.000000	10.360323
1729.000000	10.350879
1728.000000	10.379089
1727.000000	10.393793
1726.000000	10.421580
1725.000000	10.422159
1724.000000	10.448953
1723.000000	10.458985
1722.000000	10.476044
1721.000000	10.502487
1720.000000	10.558871
1719.000000	10.583363
1718.000000	10.613274
1717.000000	10.636834
1716.000000	10.643449
1715.000000	10.653270
1714.000000	10.662683
1713.000000	10.721172
1712.000000	10.739200
1711.000000	10.761939
1710.000000	10.742424
1709.000000	10.782956
1708.000000	10.813825
1707.000000	10.800921
1706.000000	10.803160
1705.000000	10.856122
1704.000000	10.843728
1703.000000	10.864520
1702.000000	10.844880
1701.000000	10.846694
1700.000000	10.861500
1699.000000	10.841187
1698.000000	10.874677
1697.000000	10.860044
1696.000000	10.908690
1695.000000	10.913680
1694.000000	10.884166
1693.000000	10.913733
1692.000000	10.918633
1691.000000	10.964977
1690.000000	10.974068
1689.000000	11.015460
1688.000000	11.021743
1687.000000	11.030429
1686.000000	11.066405
1685.000000	11.100542
1684.000000	11.141664
1683.000000	11.199648
1682.000000	11.248750
1681.000000	11.278398
1680.000000	11.307601
1679.000000	11.349878
1678.000000	11.410277
1677.000000	11.426894
1676.000000	11.449448
1675.000000	11.484374
1674.000000	11.530552
1673.000000	11.600865
1672.000000	11.629738
1671.000000	11.623588
1670.000000	11.666648
1669.000000	11.675448
1668.000000	11.705349
1667.000000	11.754352
1666.000000	11.745961
1665.000000	11.768181
1664.000000	11.773383
1663.000000	11.799143
1662.000000	11.810229
1661.000000	11.841720
1660.000000	11.850932
1659.000000	11.877097
1658.000000	11.872705
1657.000000	11.898254
1656.000000	11.933476
1655.000000	11.931332
1654.000000	11.925341
1653.000000	11.935161
1652.000000	11.943917
1651.000000	11.919190
1650.000000	11.928188
1649.000000	11.891608
1648.000000	11.881056
1647.000000	11.891992
1646.000000	11.891122
1645.000000	11.895401
1644.000000	11.889174
1643.000000	11.864553
1642.000000	11.868261
1641.000000	11.853445
1640.000000	11.840967
1639.000000	11.821202
1638.000000	11.802748
1637.000000	11.801624
1636.000000	11.782628
1635.000000	11.768934
1634.000000	11.745537
1633.000000	11.727643
1632.000000	11.725507
1631.000000	11.708519
1630.000000	11.691892
1629.000000	11.683423
1628.000000	11.654902
1627.000000	11.649723
1626.000000	11.634305
1625.000000	11.631382
1624.000000	11.617282
1623.000000	11.612399
1622.000000	11.603891
1621.000000	11.569008
1620.000000	11.541148
1619.000000	11.527771
1618.000000	11.506893
1617.000000	11.492072
1616.000000	11.488961
1615.000000	11.479094
1614.000000	11.451653
1613.000000	11.418638
1612.000000	11.404855
1611.000000	11.413874
1610.000000	11.404408
1609.000000	11.373285
1608.000000	11.351307
1607.000000	11.341485
1606.000000	11.312088
1605.000000	11.305648
1604.000000	11.297203
1603.000000	11.266695
1602.000000	11.252155
1601.000000	11.233159
1600.000000	11.218285
1599.000000	11.197072
1598.000000	11.175373
1597.000000	11.156900
1596.000000	11.137440
1595.000000	11.130842
1594.000000	11.130355
1593.000000	11.111495
1592.000000	11.096584
1591.000000	11.094575
1590.000000	11.091762
1589.000000	11.071104
1588.000000	11.046226
1587.000000	11.034452
1586.000000	11.020605
1585.000000	11.003609
1584.000000	10.977296
1583.000000	10.959713
1582.000000	10.948685
1581.000000	10.938917
1580.000000	10.935361
1579.000000	10.931698
1578.000000	10.924256
1577.000000	10.902617
1576.000000	10.887464
1575.000000	10.877394
1574.000000	10.862670
1573.000000	10.838158
1572.000000	10.832827
1571.000000	10.822685
1570.000000	10.812363
1569.000000	10.793763
1568.000000	10.774047
1567.000000	10.764199
1566.000000	10.759307
1565.000000	10.741265
1564.000000	10.724662
1563.000000	10.722351
1562.000000	10.713157
1561.000000	10.703248
1560.000000	10.688109
1559.000000	10.667972
1558.000000	10.657228
1557.000000	10.665177
1556.000000	10.646333
1555.000000	10.634056
1554.000000	10.630125
1553.000000	10.619140
1552.000000	10.592264
1551.000000	10.583607
1550.000000	10.575839
1549.000000	10.550799
1548.000000	10.556480
1547.000000	10.541312
1546.000000	10.510249
1545.000000	10.467437
1544.000000	10.444572
1543.000000	10.428940
1542.000000	10.414078
1541.000000	10.393476
1540.000000	10.368755
1539.000000	10.338299
1538.000000	10.289816
1537.000000	10.282066
1536.000000	10.250621
1535.000000	10.224448
1534.000000	10.197345
1533.000000	10.194718
1532.000000	10.163120
1531.000000	10.134516
1530.000000	10.119656
1529.000000	10.089975
1528.000000	10.060413
1527.000000	10.039598
1526.000000	10.021743
1525.000000	10.012045
1524.000000	9.980354
1523.000000	9.967600
1522.000000	9.962571
1521.000000	9.942026
1520.000000	9.926345
1519.000000	9.901228
1518.000000	9.902811
1517.000000	9.892679
1516.000000	9.880908
1515.000000	9.878306
1514.000000	9.855861
1513.000000	9.840465
1512.000000	9.835282
1511.000000	9.842564
1510.000000	9.835117
1509.000000	9.812413
1508.000000	9.799210
1507.000000	9.792638
1506.000000	9.795545
1505.000000	9.784556
1504.000000	9.811706
1503.000000	9.784747
1502.000000	9.811121
1501.000000	9.817139
1500.000000	9.819042
1499.000000	9.829416
1498.000000	9.833188
1497.000000	9.814395
1496.000000	9.810438
1495.000000	9.803397
1494.000000	9.793155
1493.000000	9.792040
1492.000000	9.786245
1491.000000	9.786604
1490.000000	9.789250
1489.000000	9.798308
1488.000000	9.804334
1487.000000	9.805657
1486.000000	9.806253
1485.000000	9.818600
1484.000000	9.830374
1483.000000	9.789184
1482.000000	9.763101
1481.000000	9.837612
1480.000000	9.837628
1479.000000	9.825460
1478.000000	9.824508
1477.000000	9.833547
1476.000000	9.856164
1475.000000	9.855643
1474.000000	9.862112
1473.000000	9.867010
1472.000000	9.871345
1471.000000	9.872761
1470.000000	9.875926
1469.000000	9.892140
1468.000000	9.904789
1467.000000	9.929188
1466.000000	9.931794
1465.000000	9.958959
1464.000000	9.948491
1463.000000	9.944533
1462.000000	9.942997
1461.000000	9.931186
1460.000000	9.961484
1459.000000	9.999472
1458.000000	9.975638
1457.000000	9.976950
1456.000000	9.992135
1455.000000	10.000386
1454.000000	10.012476
1453.000000	10.010362
1452.000000	10.024388
1451.000000	10.060834
1450.000000	10.075872
1449.000000	10.078862
1448.000000	10.074851
1447.000000	10.079549
1446.000000	10.093004
1445.000000	10.105175
