PE UV       SUBTECH     SPECTRUM    ASCII       PEDS        4.00        
   -1
TDms1482162.Sample.asc
18/03/22
10:53:18.00
18/03/22
10:53:18.00
Administrator

200.000000
1
Lambda 750
750N8071901
PerkinElmer UV WinLab 6.0.4.0738 / 1.61.00 Lambda 900

0
0
3350/servo 860.8/2
0
0
UV/VIS
1
1
1
CommonBeamDepol,150mm sphere / downward view
0
0
0
0
Program
Program
3350/servo 860.8/2
3350/0.2 860.8/0.2
3350/0.2 860.8/0.2
0
1
 
 
 
0
 
860.8
319.2
860.8
Front
100
on
 
 
0
0
0
 
0
 
 
 
0
 
 
0
0
0
0
0
 
 
 
 
0
0


0
0
#HDR
-1
-1
#GR
nm
%T
1.0
0.0
2350.000000
-1.000000
2151
8
10.709447
-0.051799
#DATA
2350.000000	3.223943
2349.000000	2.949561
2348.000000	2.912355
2347.000000	4.116271
2346.000000	3.534660
2345.000000	2.998655
2344.000000	3.075521
2343.000000	2.947599
2342.000000	3.260149
2341.000000	3.853262
2340.000000	3.466813
2339.000000	3.877146
2338.000000	3.610384
2337.000000	3.380192
2336.000000	3.669102
2335.000000	4.158182
2334.000000	4.496308
2333.000000	4.449260
2332.000000	4.150725
2331.000000	4.014167
2330.000000	3.951064
2329.000000	4.252988
2328.000000	4.103782
2327.000000	3.994693
2326.000000	3.860625
2325.000000	3.943277
2324.000000	3.975896
2323.000000	3.828829
2322.000000	3.808730
2321.000000	3.679281
2320.000000	3.710337
2319.000000	3.753973
2318.000000	3.484209
2317.000000	3.965983
2316.000000	3.833901
2315.000000	3.656888
2314.000000	3.541448
2313.000000	3.589891
2312.000000	3.508452
2311.000000	3.580228
2310.000000	3.610143
2309.000000	3.871319
2308.000000	3.629906
2307.000000	3.544456
2306.000000	3.401884
2305.000000	3.512064
2304.000000	3.604444
2303.000000	3.700489
2302.000000	3.633167
2301.000000	3.406649
2300.000000	3.210299
2299.000000	3.309219
2298.000000	3.513578
2297.000000	3.219823
2296.000000	3.307167
2295.000000	3.375558
2294.000000	3.584202
2293.000000	3.284443
2292.000000	3.076886
2291.000000	3.054664
2290.000000	3.162384
2289.000000	3.196584
2288.000000	3.143728
2287.000000	3.203591
2286.000000	3.195601
2285.000000	3.281692
2284.000000	3.224351
2283.000000	3.160422
2282.000000	3.158592
2281.000000	3.339157
2280.000000	3.315918
2279.000000	3.217415
2278.000000	2.987824
2277.000000	3.221960
2276.000000	3.220197
2275.000000	3.247415
2274.000000	3.326721
2273.000000	3.441932
2272.000000	3.408601
2271.000000	3.299414
2270.000000	3.139318
2269.000000	3.196510
2268.000000	3.269131
2267.000000	3.367568
2266.000000	3.425320
2265.000000	3.416048
2264.000000	3.416741
2263.000000	3.454124
2262.000000	3.473589
2261.000000	3.453984
2260.000000	3.483469
2259.000000	3.524989
2258.000000	3.710535
2257.000000	3.694848
2256.000000	3.753470
2255.000000	3.814780
2254.000000	3.910858
2253.000000	3.892155
2252.000000	3.838969
2251.000000	3.906661
2250.000000	4.047200
2249.000000	4.261557
2248.000000	4.288545
2247.000000	4.133916
2246.000000	4.258839
2245.000000	4.380520
2244.000000	4.324813
2243.000000	4.394562
2242.000000	4.459618
2241.000000	4.454137
2240.000000	4.486793
2239.000000	4.560280
2238.000000	4.554425
2237.000000	4.510692
2236.000000	4.473971
2235.000000	4.491451
2234.000000	4.450215
2233.000000	4.592562
2232.000000	4.731910
2231.000000	4.619400
2230.000000	4.591698
2229.000000	4.750009
2228.000000	4.836413
2227.000000	4.759314
2226.000000	4.644214
2225.000000	4.606529
2224.000000	4.676980
2223.000000	4.699519
2222.000000	4.643450
2221.000000	4.689262
2220.000000	4.562882
2219.000000	4.512049
2218.000000	4.520581
2217.000000	4.577144
2216.000000	4.584295
2215.000000	4.600075
2214.000000	4.586627
2213.000000	4.613659
2212.000000	4.586157
2211.000000	4.428622
2210.000000	4.395736
2209.000000	4.449024
2208.000000	4.381489
2207.000000	4.423211
2206.000000	4.244540
2205.000000	4.266195
2204.000000	4.433368
2203.000000	4.330714
2202.000000	4.185401
2201.000000	4.295455
2200.000000	4.376333
2199.000000	4.275665
2198.000000	4.336279
2197.000000	4.450567
2196.000000	4.187042
2195.000000	4.073842
2194.000000	4.060761
2193.000000	4.086450
2192.000000	4.145330
2191.000000	4.077376
2190.000000	3.982897
2189.000000	4.104567
2188.000000	4.048854
2187.000000	3.861619
2186.000000	3.943225
2185.000000	3.949069
2184.000000	4.031838
2183.000000	4.164374
2182.000000	4.089326
2181.000000	3.936830
2180.000000	3.923879
2179.000000	4.007503
2178.000000	4.054471
2177.000000	3.973100
2176.000000	3.981439
2175.000000	4.186352
2174.000000	4.082872
2173.000000	3.855542
2172.000000	3.863270
2171.000000	3.948903
2170.000000	3.998659
2169.000000	4.080521
2168.000000	4.157039
2167.000000	4.097504
2166.000000	4.078908
2165.000000	3.979547
2164.000000	4.231392
2163.000000	4.171140
2162.000000	4.267912
2161.000000	4.289247
2160.000000	4.454120
2159.000000	4.384348
2158.000000	4.181151
2157.000000	4.347151
2156.000000	4.574992
2155.000000	4.401089
2154.000000	4.648600
2153.000000	4.727598
2152.000000	4.545574
2151.000000	4.527086
2150.000000	4.515325
2149.000000	4.694123
2148.000000	4.573316
2147.000000	4.634701
2146.000000	4.743590
2145.000000	4.643790
2144.000000	4.683297
2143.000000	4.635548
2142.000000	5.006431
2141.000000	4.831460
2140.000000	4.863870
2139.000000	4.936431
2138.000000	4.964275
2137.000000	5.009356
2136.000000	4.952397
2135.000000	5.202399
2134.000000	5.149688
2133.000000	4.845108
2132.000000	4.949441
2131.000000	5.316904
2130.000000	5.278829
2129.000000	5.281492
2128.000000	5.170481
2127.000000	5.078404
2126.000000	5.065816
2125.000000	5.082086
2124.000000	5.066202
2123.000000	5.137230
2122.000000	5.036914
2121.000000	5.121474
2120.000000	5.145089
2119.000000	5.199458
2118.000000	5.196982
2117.000000	5.279236
2116.000000	5.312045
2115.000000	5.325025
2114.000000	5.181130
2113.000000	5.108219
2112.000000	5.159462
2111.000000	5.174270
2110.000000	5.115000
2109.000000	5.164069
2108.000000	5.174644
2107.000000	5.170490
2106.000000	5.238069
2105.000000	5.180445
2104.000000	5.118747
2103.000000	5.179551
2102.000000	5.327856
2101.000000	5.267145
2100.000000	5.304842
2099.000000	5.265593
2098.000000	5.187480
2097.000000	5.171544
2096.000000	5.228496
2095.000000	5.230892
2094.000000	5.181057
2093.000000	5.100418
2092.000000	5.256615
2091.000000	5.178722
2090.000000	5.204738
2089.000000	5.132017
2088.000000	5.172246
2087.000000	5.106962
2086.000000	5.233321
2085.000000	5.260341
2084.000000	5.271331
2083.000000	5.237970
2082.000000	5.167405
2081.000000	5.043145
2080.000000	5.064958
2079.000000	4.990777
2078.000000	5.056548
2077.000000	5.020083
2076.000000	5.011820
2075.000000	4.913763
2074.000000	4.909211
2073.000000	4.908910
2072.000000	4.855035
2071.000000	4.785536
2070.000000	4.853845
2069.000000	4.819687
2068.000000	4.687226
2067.000000	4.612768
2066.000000	4.595818
2065.000000	4.587476
2064.000000	4.566883
2063.000000	4.495927
2062.000000	4.564627
2061.000000	4.500131
2060.000000	4.431985
2059.000000	4.370517
2058.000000	4.295441
2057.000000	4.210790
2056.000000	4.189240
2055.000000	4.175726
2054.000000	4.158082
2053.000000	4.108305
2052.000000	4.056790
2051.000000	4.061352
2050.000000	4.035544
2049.000000	4.012301
2048.000000	4.004676
2047.000000	4.004782
2046.000000	3.955606
2045.000000	3.909204
2044.000000	3.903564
2043.000000	3.892695
2042.000000	3.916752
2041.000000	3.959627
2040.000000	3.955156
2039.000000	3.954528
2038.000000	3.913357
2037.000000	3.958714
2036.000000	4.011331
2035.000000	3.975103
2034.000000	3.957054
2033.000000	3.990174
2032.000000	4.101559
2031.000000	4.118676
2030.000000	4.106215
2029.000000	4.174726
2028.000000	4.196090
2027.000000	4.199378
2026.000000	4.248766
2025.000000	4.317373
2024.000000	4.288160
2023.000000	4.260900
2022.000000	4.278770
2021.000000	4.284000
2020.000000	4.292120
2019.000000	4.281775
2018.000000	4.286966
2017.000000	4.342364
2016.000000	4.312375
2015.000000	4.246964
2014.000000	4.271874
2013.000000	4.254209
2012.000000	4.238865
2011.000000	4.273975
2010.000000	4.245180
2009.000000	4.190639
2008.000000	4.173977
2007.000000	4.142490
2006.000000	4.164325
2005.000000	4.161886
2004.000000	4.101404
2003.000000	4.071250
2002.000000	4.036428
2001.000000	4.012486
2000.000000	4.022586
1999.000000	4.000130
1998.000000	3.936437
1997.000000	3.920313
1996.000000	3.896975
1995.000000	3.883315
1994.000000	3.836972
1993.000000	3.802223
1992.000000	3.792288
1991.000000	3.735227
1990.000000	3.721067
1989.000000	3.680851
1988.000000	3.671421
1987.000000	3.676765
1986.000000	3.643118
1985.000000	3.587461
1984.000000	3.614585
1983.000000	3.615939
1982.000000	3.592300
1981.000000	3.556751
1980.000000	3.521498
1979.000000	3.485368
1978.000000	3.447802
1977.000000	3.463410
1976.000000	3.430056
1975.000000	3.383541
1974.000000	3.392954
1973.000000	3.402244
1972.000000	3.355563
1971.000000	3.387093
1970.000000	3.350868
1969.000000	3.311534
1968.000000	3.263615
1967.000000	3.257580
1966.000000	3.286250
1965.000000	3.237582
1964.000000	3.211960
1963.000000	3.191588
1962.000000	3.146913
1961.000000	3.203042
1960.000000	3.132960
1959.000000	3.108203
1958.000000	3.153927
1957.000000	3.134528
1956.000000	3.122783
1955.000000	3.117114
1954.000000	3.110421
1953.000000	3.065014
1952.000000	3.045309
1951.000000	3.093237
1950.000000	3.087151
1949.000000	3.067835
1948.000000	3.112949
1947.000000	3.039662
1946.000000	3.026011
1945.000000	3.039487
1944.000000	3.021707
1943.000000	3.094469
1942.000000	3.125340
1941.000000	3.155750
1940.000000	3.139703
1939.000000	3.166384
1938.000000	3.120020
1937.000000	3.120721
1936.000000	3.149666
1935.000000	3.183414
1934.000000	3.179945
1933.000000	3.187735
1932.000000	3.227418
1931.000000	3.312815
1930.000000	3.362761
1929.000000	3.380614
1928.000000	3.479205
1927.000000	3.463922
1926.000000	3.500510
1925.000000	3.587247
1924.000000	3.652548
1923.000000	3.727498
1922.000000	3.719636
1921.000000	3.820153
1920.000000	3.822525
1919.000000	3.898379
1918.000000	4.021807
1917.000000	4.086186
1916.000000	4.078837
1915.000000	4.161871
1914.000000	4.311491
1913.000000	4.333480
1912.000000	4.456723
1911.000000	4.610848
1910.000000	4.612173
1909.000000	4.714360
1908.000000	4.838680
1907.000000	5.001803
1906.000000	5.035025
1905.000000	5.220674
1904.000000	5.382137
1903.000000	5.524091
1902.000000	5.608017
1901.000000	5.733005
1900.000000	5.958583
1899.000000	6.005947
1898.000000	6.238088
1897.000000	6.353730
1896.000000	6.499327
1895.000000	6.566986
1894.000000	6.690842
1893.000000	6.864865
1892.000000	6.992670
1891.000000	7.146796
1890.000000	7.242396
1889.000000	7.372611
1888.000000	7.496451
1887.000000	7.639040
1886.000000	7.730109
1885.000000	7.848361
1884.000000	8.005379
1883.000000	8.113152
1882.000000	8.191478
1881.000000	8.299131
1880.000000	8.465274
1879.000000	8.527757
1878.000000	8.600323
1877.000000	8.671255
1876.000000	8.740240
1875.000000	8.834682
1874.000000	8.958317
1873.000000	8.997555
1872.000000	9.025005
1871.000000	9.136386
1870.000000	9.132702
1869.000000	9.187208
1868.000000	9.183215
1867.000000	9.239787
1866.000000	9.249624
1865.000000	9.268805
1864.000000	9.269503
1863.000000	9.295377
1862.000000	9.335606
1861.000000	9.325504
1860.000000	9.368970
1859.000000	9.350752
1858.000000	9.320903
1857.000000	9.336246
1856.000000	9.362867
1855.000000	9.375738
1854.000000	9.354607
1853.000000	9.439383
1852.000000	9.417885
1851.000000	9.376014
1850.000000	9.388588
1849.000000	9.407531
1848.000000	9.423540
1847.000000	9.406437
1846.000000	9.411185
1845.000000	9.408192
1844.000000	9.390040
1843.000000	9.367685
1842.000000	9.385363
1841.000000	9.363031
1840.000000	9.331425
1839.000000	9.309521
1838.000000	9.317252
1837.000000	9.298235
1836.000000	9.231390
1835.000000	9.218561
1834.000000	9.192639
1833.000000	9.164807
1832.000000	9.187847
1831.000000	9.165626
1830.000000	9.168697
1829.000000	9.137782
1828.000000	9.125304
1827.000000	9.111013
1826.000000	9.061253
1825.000000	9.054900
1824.000000	9.062600
1823.000000	9.035113
1822.000000	9.010837
1821.000000	9.017384
1820.000000	9.003357
1819.000000	8.984545
1818.000000	8.970438
1817.000000	8.954576
1816.000000	8.959275
1815.000000	8.951649
1814.000000	8.924952
1813.000000	8.909448
1812.000000	8.888410
1811.000000	8.875512
1810.000000	8.874119
1809.000000	8.862927
1808.000000	8.852311
1807.000000	8.855420
1806.000000	8.839963
1805.000000	8.823948
1804.000000	8.806868
1803.000000	8.803099
1802.000000	8.802355
1801.000000	8.794227
1800.000000	8.774377
1799.000000	8.775345
1798.000000	8.788881
1797.000000	8.788745
1796.000000	8.784933
1795.000000	8.768849
1794.000000	8.759263
1793.000000	8.759037
1792.000000	8.753226
1791.000000	8.749922
1790.000000	8.746932
1789.000000	8.741707
1788.000000	8.745930
1787.000000	8.754513
1786.000000	8.749973
1785.000000	8.723503
1784.000000	8.719059
1783.000000	8.733558
1782.000000	8.736650
1781.000000	8.731501
1780.000000	8.709990
1779.000000	8.701934
1778.000000	8.697077
1777.000000	8.675677
1776.000000	8.653378
1775.000000	8.648871
1774.000000	8.627308
1773.000000	8.616058
1772.000000	8.587046
1771.000000	8.552564
1770.000000	8.540058
1769.000000	8.515478
1768.000000	8.488362
1767.000000	8.484733
1766.000000	8.471177
1765.000000	8.431103
1764.000000	8.403815
1763.000000	8.403809
1762.000000	8.373744
1761.000000	8.362092
1760.000000	8.350085
1759.000000	8.327482
1758.000000	8.296786
1757.000000	8.282446
1756.000000	8.281082
1755.000000	8.275465
1754.000000	8.240522
1753.000000	8.227404
1752.000000	8.203592
1751.000000	8.163643
1750.000000	8.154364
1749.000000	8.181854
1748.000000	8.144721
1747.000000	8.110025
1746.000000	8.092066
1745.000000	8.061556
1744.000000	8.035473
1743.000000	8.022757
1742.000000	8.001554
1741.000000	7.964685
1740.000000	7.960559
1739.000000	7.958073
1738.000000	7.912857
1737.000000	7.926503
1736.000000	7.918918
1735.000000	7.926399
1734.000000	7.911605
1733.000000	7.900434
1732.000000	7.872278
1731.000000	7.875406
1730.000000	7.871265
1729.000000	7.886151
1728.000000	7.868413
1727.000000	7.900882
1726.000000	7.907939
1725.000000	7.940000
1724.000000	7.955966
1723.000000	8.033660
1722.000000	8.016167
1721.000000	8.036448
1720.000000	8.082336
1719.000000	8.134012
1718.000000	8.144694
1717.000000	8.155513
1716.000000	8.166234
1715.000000	8.184368
1714.000000	8.230832
1713.000000	8.258350
1712.000000	8.271198
1711.000000	8.283180
1710.000000	8.291694
1709.000000	8.285604
1708.000000	8.304701
1707.000000	8.328654
1706.000000	8.342649
1705.000000	8.337529
1704.000000	8.376548
1703.000000	8.353590
1702.000000	8.384699
1701.000000	8.377508
1700.000000	8.375846
1699.000000	8.349116
1698.000000	8.400284
1697.000000	8.377274
1696.000000	8.415435
1695.000000	8.405234
1694.000000	8.403102
1693.000000	8.435397
1692.000000	8.442949
1691.000000	8.476077
1690.000000	8.481344
1689.000000	8.511225
1688.000000	8.548250
1687.000000	8.566833
1686.000000	8.608131
1685.000000	8.640763
1684.000000	8.695387
1683.000000	8.739667
1682.000000	8.745004
1681.000000	8.837178
1680.000000	8.874001
1679.000000	8.925202
1678.000000	8.957064
1677.000000	9.002394
1676.000000	9.060540
1675.000000	9.099926
1674.000000	9.136689
1673.000000	9.211279
1672.000000	9.242711
1671.000000	9.280656
1670.000000	9.316653
1669.000000	9.365779
1668.000000	9.388784
1667.000000	9.428842
1666.000000	9.404291
1665.000000	9.422353
1664.000000	9.451156
1663.000000	9.485881
1662.000000	9.497918
1661.000000	9.547449
1660.000000	9.570057
1659.000000	9.589036
1658.000000	9.618191
1657.000000	9.630371
1656.000000	9.623148
1655.000000	9.645527
1654.000000	9.651050
1653.000000	9.658728
1652.000000	9.671843
1651.000000	9.672007
1650.000000	9.666054
1649.000000	9.650383
1648.000000	9.660495
1647.000000	9.660611
1646.000000	9.646361
1645.000000	9.600582
1644.000000	9.604230
1643.000000	9.614123
1642.000000	9.595016
1641.000000	9.576935
1640.000000	9.576094
1639.000000	9.561779
1638.000000	9.546530
1637.000000	9.536339
1636.000000	9.515139
1635.000000	9.518663
1634.000000	9.528220
1633.000000	9.507213
1632.000000	9.478691
1631.000000	9.460462
1630.000000	9.452492
1629.000000	9.423729
1628.000000	9.406763
1627.000000	9.392859
1626.000000	9.393799
1625.000000	9.381757
1624.000000	9.367674
1623.000000	9.346994
1622.000000	9.336104
1621.000000	9.314802
1620.000000	9.283285
1619.000000	9.261583
1618.000000	9.252866
1617.000000	9.232838
1616.000000	9.214002
1615.000000	9.195636
1614.000000	9.191774
1613.000000	9.164350
1612.000000	9.148123
1611.000000	9.127582
1610.000000	9.098802
1609.000000	9.096676
1608.000000	9.088894
1607.000000	9.062372
1606.000000	9.029648
1605.000000	9.007393
1604.000000	8.984574
1603.000000	8.950759
1602.000000	8.945548
1601.000000	8.938910
1600.000000	8.920625
1599.000000	8.891476
1598.000000	8.865902
1597.000000	8.862983
1596.000000	8.850606
1595.000000	8.836062
1594.000000	8.808621
1593.000000	8.786625
1592.000000	8.792539
1591.000000	8.783679
1590.000000	8.747167
1589.000000	8.720036
1588.000000	8.722770
1587.000000	8.709194
1586.000000	8.699440
1585.000000	8.681881
1584.000000	8.646998
1583.000000	8.637408
1582.000000	8.621699
1581.000000	8.608905
1580.000000	8.598915
1579.000000	8.584944
1578.000000	8.581696
1577.000000	8.571591
1576.000000	8.544591
1575.000000	8.527865
1574.000000	8.518665
1573.000000	8.509546
1572.000000	8.495882
1571.000000	8.483208
1570.000000	8.467917
1569.000000	8.442366
1568.000000	8.438593
1567.000000	8.419954
1566.000000	8.403254
1565.000000	8.395812
1564.000000	8.385711
1563.000000	8.373629
1562.000000	8.368320
1561.000000	8.359495
1560.000000	8.354608
1559.000000	8.327082
1558.000000	8.307408
1557.000000	8.294596
1556.000000	8.297093
1555.000000	8.284460
1554.000000	8.268326
1553.000000	8.248558
1552.000000	8.248713
1551.000000	8.231130
1550.000000	8.211970
1549.000000	8.199392
1548.000000	8.194854
1547.000000	8.168460
1546.000000	8.133584
1545.000000	8.105559
1544.000000	8.073360
1543.000000	8.055919
1542.000000	8.041649
1541.000000	8.003150
1540.000000	7.979076
1539.000000	7.945581
1538.000000	7.914938
1537.000000	7.898293
1536.000000	7.866132
1535.000000	7.827266
1534.000000	7.800211
1533.000000	7.787903
1532.000000	7.756672
1531.000000	7.729280
1530.000000	7.693199
1529.000000	7.670272
1528.000000	7.634547
1527.000000	7.625618
1526.000000	7.596711
1525.000000	7.574595
1524.000000	7.558265
1523.000000	7.549968
1522.000000	7.533692
1521.000000	7.519611
1520.000000	7.502056
1519.000000	7.487209
1518.000000	7.481729
1517.000000	7.476179
1516.000000	7.461963
1515.000000	7.443107
1514.000000	7.436815
1513.000000	7.444390
1512.000000	7.434800
1511.000000	7.414500
1510.000000	7.407264
1509.000000	7.400601
1508.000000	7.386207
1507.000000	7.380515
1506.000000	7.383971
1505.000000	7.379683
1504.000000	7.397588
1503.000000	7.398796
1502.000000	7.418341
1501.000000	7.420560
1500.000000	7.439503
1499.000000	7.442719
1498.000000	7.428386
1497.000000	7.425744
1496.000000	7.417108
1495.000000	7.411760
1494.000000	7.422195
1493.000000	7.412750
1492.000000	7.407829
1491.000000	7.405480
1490.000000	7.420552
1489.000000	7.447722
1488.000000	7.439635
1487.000000	7.452995
1486.000000	7.476226
1485.000000	7.481917
1484.000000	7.499052
1483.000000	7.510311
1482.000000	7.472553
1481.000000	7.524763
1480.000000	7.552532
1479.000000	7.542619
1478.000000	7.543309
1477.000000	7.547893
1476.000000	7.561859
1475.000000	7.562310
1474.000000	7.568411
1473.000000	7.580910
1472.000000	7.594429
1471.000000	7.587313
1470.000000	7.600546
1469.000000	7.603469
1468.000000	7.623194
1467.000000	7.611372
1466.000000	7.630970
1465.000000	7.659948
1464.000000	7.680280
1463.000000	7.672522
1462.000000	7.699568
1461.000000	7.734361
1460.000000	7.731103
1459.000000	7.752530
1458.000000	7.743308
1457.000000	7.744680
1456.000000	7.792853
1455.000000	7.803948
1454.000000	7.799041
1453.000000	7.808560
1452.000000	7.827717
1451.000000	7.866125
1450.000000	7.870312
1449.000000	7.878351
1448.000000	7.873494
1447.000000	7.910982
1446.000000	7.938452
1445.000000	7.963685
1444.000000	7.970797
1443.000000	7.972240
1442.000000	7.994564
1441.000000	7.992034
1440.000000	8.017673
1439.000000	8.041518
1438.000000	8.064447
1437.000000	8.113967
1436.000000	8.158852
1435.000000	8.177105
1434.000000	8.190315
1433.000000	8.217188
1432.000000	8.244668
1431.000000	8.269665
1430.000000	8.312871
1429.000000	8.334095
1428.000000	8.360263
