PE UV       SUBTECH     SPECTRUM    ASCII       PEDS        4.00        
   -1
TTms499172.Sample.asc
18/03/22
12:01:50.00
18/03/22
12:01:50.00
Administrator

200.000000
1
Lambda 750
750N8071901
PerkinElmer UV WinLab 6.0.4.0738 / 1.61.00 Lambda 900

0
0
3350/servo 860.8/2
0
0
UV/VIS
1
1
1
CommonBeamDepol,150mm sphere / downward view
0
0
0
0
Program
Program
3350/servo 860.8/2
3350/0.2 860.8/0.2
3350/0.2 860.8/0.2
0
1
 
 
 
0
 
860.8
319.2
860.8
Front
100
on
 
 
0
0
0
 
0
 
 
 
0
 
 
0
0
0
0
0
 
 
 
 
0
0


0
0
#HDR
-1
-1
#GR
nm
%T
1.0
0.0
2350.000000
-1.000000
2151
8
12.441285
-0.054071
#DATA
2350.000000	5.392459
2349.000000	5.206945
2348.000000	4.953204
2347.000000	6.061656
2346.000000	5.685400
2345.000000	5.291703
2344.000000	5.680941
2343.000000	5.321928
2342.000000	5.734419
2341.000000	5.765727
2340.000000	5.576919
2339.000000	5.951738
2338.000000	6.173564
2337.000000	6.225488
2336.000000	6.281660
2335.000000	6.457718
2334.000000	6.454996
2333.000000	6.172228
2332.000000	6.450330
2331.000000	6.496053
2330.000000	6.198320
2329.000000	6.167151
2328.000000	6.281307
2327.000000	6.065432
2326.000000	6.206569
2325.000000	6.009734
2324.000000	6.311284
2323.000000	6.043480
2322.000000	6.169639
2321.000000	6.287287
2320.000000	6.152389
2319.000000	5.957617
2318.000000	5.925957
2317.000000	6.179988
2316.000000	5.915106
2315.000000	5.858470
2314.000000	5.825572
2313.000000	5.845960
2312.000000	5.687062
2311.000000	5.946286
2310.000000	5.639402
2309.000000	5.574119
2308.000000	5.730175
2307.000000	5.632960
2306.000000	5.764307
2305.000000	5.795312
2304.000000	5.865327
2303.000000	5.878504
2302.000000	5.665141
2301.000000	5.572949
2300.000000	5.465565
2299.000000	5.347419
2298.000000	5.529552
2297.000000	5.486924
2296.000000	5.706297
2295.000000	5.601005
2294.000000	5.436080
2293.000000	5.287441
2292.000000	5.409789
2291.000000	5.515382
2290.000000	5.458370
2289.000000	5.312224
2288.000000	5.308232
2287.000000	5.571825
2286.000000	5.437076
2285.000000	5.331622
2284.000000	5.237176
2283.000000	5.211187
2282.000000	5.263949
2281.000000	5.262066
2280.000000	5.245928
2279.000000	5.432789
2278.000000	5.288870
2277.000000	5.271864
2276.000000	5.378108
2275.000000	5.459674
2274.000000	5.479598
2273.000000	5.597381
2272.000000	5.717542
2271.000000	5.671575
2270.000000	5.623170
2269.000000	5.535863
2268.000000	5.504780
2267.000000	5.573489
2266.000000	5.589449
2265.000000	5.609879
2264.000000	5.760345
2263.000000	5.769418
2262.000000	5.780868
2261.000000	5.783875
2260.000000	5.798241
2259.000000	5.937230
2258.000000	5.973885
2257.000000	6.019066
2256.000000	6.130793
2255.000000	6.192017
2254.000000	6.179815
2253.000000	6.295673
2252.000000	6.377456
2251.000000	6.353369
2250.000000	6.488976
2249.000000	6.639599
2248.000000	6.583384
2247.000000	6.628262
2246.000000	6.667566
2245.000000	6.739675
2244.000000	6.786478
2243.000000	6.906856
2242.000000	7.007173
2241.000000	6.972223
2240.000000	7.011642
2239.000000	7.125387
2238.000000	7.152139
2237.000000	7.049821
2236.000000	7.131587
2235.000000	7.202920
2234.000000	7.200891
2233.000000	7.255270
2232.000000	7.276298
2231.000000	7.305013
2230.000000	7.403117
2229.000000	7.331003
2228.000000	7.301595
2227.000000	7.356881
2226.000000	7.316870
2225.000000	7.259872
2224.000000	7.205568
2223.000000	7.112679
2222.000000	7.208531
2221.000000	7.385954
2220.000000	7.452893
2219.000000	7.378558
2218.000000	7.305242
2217.000000	7.351284
2216.000000	7.329277
2215.000000	7.228820
2214.000000	7.282204
2213.000000	7.240821
2212.000000	7.202530
2211.000000	7.143727
2210.000000	7.137563
2209.000000	7.069345
2208.000000	7.068934
2207.000000	7.154559
2206.000000	6.964946
2205.000000	7.022066
2204.000000	7.105180
2203.000000	7.025568
2202.000000	6.991419
2201.000000	6.959737
2200.000000	6.918326
2199.000000	6.861530
2198.000000	6.941495
2197.000000	6.846052
2196.000000	6.740311
2195.000000	6.754870
2194.000000	6.829674
2193.000000	6.711268
2192.000000	6.602911
2191.000000	6.699640
2190.000000	6.644447
2189.000000	6.610026
2188.000000	6.567727
2187.000000	6.603785
2186.000000	6.605578
2185.000000	6.682160
2184.000000	6.615676
2183.000000	6.655802
2182.000000	6.538488
2181.000000	6.588485
2180.000000	6.488012
2179.000000	6.422972
2178.000000	6.422862
2177.000000	6.460260
2176.000000	6.484330
2175.000000	6.640438
2174.000000	6.561476
2173.000000	6.615900
2172.000000	6.582609
2171.000000	6.631194
2170.000000	6.612779
2169.000000	6.656905
2168.000000	6.599776
2167.000000	6.552489
2166.000000	6.674356
2165.000000	6.773787
2164.000000	6.803444
2163.000000	6.700829
2162.000000	6.642098
2161.000000	6.699475
2160.000000	6.797654
2159.000000	6.823892
2158.000000	6.815971
2157.000000	6.908837
2156.000000	7.081366
2155.000000	7.040267
2154.000000	7.062704
2153.000000	7.089022
2152.000000	7.063076
2151.000000	7.257330
2150.000000	7.166516
2149.000000	7.260141
2148.000000	7.243820
2147.000000	7.357237
2146.000000	7.298492
2145.000000	7.505820
2144.000000	7.452419
2143.000000	7.408219
2142.000000	7.338734
2141.000000	7.389138
2140.000000	7.550869
2139.000000	7.489778
2138.000000	7.580987
2137.000000	7.638867
2136.000000	7.534106
2135.000000	7.610048
2134.000000	7.808938
2133.000000	7.430473
2132.000000	7.649255
2131.000000	7.751431
2130.000000	7.656736
2129.000000	7.666313
2128.000000	7.642094
2127.000000	7.683977
2126.000000	7.700359
2125.000000	7.683669
2124.000000	7.544096
2123.000000	7.593406
2122.000000	7.753763
2121.000000	7.849272
2120.000000	7.893194
2119.000000	7.940954
2118.000000	7.831898
2117.000000	7.954070
2116.000000	7.765150
2115.000000	7.824443
2114.000000	7.874870
2113.000000	7.866350
2112.000000	7.779470
2111.000000	7.838577
2110.000000	7.797710
2109.000000	7.768103
2108.000000	7.760194
2107.000000	7.837914
2106.000000	7.900126
2105.000000	7.736288
2104.000000	7.803874
2103.000000	7.828545
2102.000000	7.940894
2101.000000	7.910478
2100.000000	7.905992
2099.000000	7.860275
2098.000000	7.777170
2097.000000	7.775927
2096.000000	7.764230
2095.000000	7.750957
2094.000000	7.756907
2093.000000	7.809231
2092.000000	7.804690
2091.000000	7.867882
2090.000000	7.838965
2089.000000	7.803823
2088.000000	7.787512
2087.000000	7.839538
2086.000000	7.779865
2085.000000	7.838094
2084.000000	7.797520
2083.000000	7.758580
2082.000000	7.704397
2081.000000	7.630720
2080.000000	7.618305
2079.000000	7.584725
2078.000000	7.544514
2077.000000	7.552151
2076.000000	7.519856
2075.000000	7.485421
2074.000000	7.494253
2073.000000	7.365340
2072.000000	7.366553
2071.000000	7.355889
2070.000000	7.397280
2069.000000	7.373866
2068.000000	7.336061
2067.000000	7.295256
2066.000000	7.199220
2065.000000	7.151339
2064.000000	7.088824
2063.000000	7.029719
2062.000000	6.995898
2061.000000	6.950227
2060.000000	6.930028
2059.000000	6.936160
2058.000000	6.941549
2057.000000	6.832088
2056.000000	6.770413
2055.000000	6.736230
2054.000000	6.679131
2053.000000	6.674627
2052.000000	6.639710
2051.000000	6.554734
2050.000000	6.518153
2049.000000	6.524086
2048.000000	6.456002
2047.000000	6.404568
2046.000000	6.404913
2045.000000	6.430473
2044.000000	6.421809
2043.000000	6.421917
2042.000000	6.428834
2041.000000	6.516037
2040.000000	6.542183
2039.000000	6.458147
2038.000000	6.457927
2037.000000	6.503718
2036.000000	6.487810
2035.000000	6.484953
2034.000000	6.515977
2033.000000	6.511021
2032.000000	6.541309
2031.000000	6.625144
2030.000000	6.681822
2029.000000	6.678669
2028.000000	6.708388
2027.000000	6.779824
2026.000000	6.807730
2025.000000	6.836475
2024.000000	6.860021
2023.000000	6.838007
2022.000000	6.845992
2021.000000	6.882274
2020.000000	6.874722
2019.000000	6.845153
2018.000000	6.895285
2017.000000	6.903482
2016.000000	6.863099
2015.000000	6.871651
2014.000000	6.861344
2013.000000	6.828467
2012.000000	6.836476
2011.000000	6.808032
2010.000000	6.808704
2009.000000	6.819073
2008.000000	6.772071
2007.000000	6.726821
2006.000000	6.676456
2005.000000	6.681438
2004.000000	6.639952
2003.000000	6.614714
2002.000000	6.572395
2001.000000	6.527986
2000.000000	6.506344
1999.000000	6.454605
1998.000000	6.427271
1997.000000	6.381333
1996.000000	6.378772
1995.000000	6.339931
1994.000000	6.290134
1993.000000	6.226433
1992.000000	6.209167
1991.000000	6.194740
1990.000000	6.100175
1989.000000	6.078555
1988.000000	6.088628
1987.000000	6.022516
1986.000000	6.012949
1985.000000	5.974899
1984.000000	5.960791
1983.000000	5.930673
1982.000000	5.866999
1981.000000	5.866320
1980.000000	5.806114
1979.000000	5.785868
1978.000000	5.758169
1977.000000	5.710285
1976.000000	5.669644
1975.000000	5.669269
1974.000000	5.656651
1973.000000	5.611399
1972.000000	5.549136
1971.000000	5.570336
1970.000000	5.495700
1969.000000	5.500000
1968.000000	5.484155
1967.000000	5.415167
1966.000000	5.431628
1965.000000	5.394682
1964.000000	5.359434
1963.000000	5.335723
1962.000000	5.298266
1961.000000	5.285238
1960.000000	5.226211
1959.000000	5.202005
1958.000000	5.175568
1957.000000	5.161801
1956.000000	5.179872
1955.000000	5.163920
1954.000000	5.137689
1953.000000	5.088510
1952.000000	5.063018
1951.000000	5.110309
1950.000000	5.107314
1949.000000	5.034505
1948.000000	5.095108
1947.000000	5.108197
1946.000000	5.096931
1945.000000	5.027746
1944.000000	5.014570
1943.000000	5.008807
1942.000000	5.047250
1941.000000	5.126075
1940.000000	5.104225
1939.000000	5.175238
1938.000000	5.108274
1937.000000	5.201810
1936.000000	5.265418
1935.000000	5.265483
1934.000000	5.224385
1933.000000	5.320373
1932.000000	5.312098
1931.000000	5.338921
1930.000000	5.295942
1929.000000	5.366576
1928.000000	5.442769
1927.000000	5.485906
1926.000000	5.571455
1925.000000	5.627335
1924.000000	5.695934
1923.000000	5.746453
1922.000000	5.824677
1921.000000	5.957956
1920.000000	5.988342
1919.000000	6.045695
1918.000000	6.167916
1917.000000	6.313189
1916.000000	6.364395
1915.000000	6.462577
1914.000000	6.604019
1913.000000	6.768144
1912.000000	6.855317
1911.000000	6.954757
1910.000000	7.040595
1909.000000	7.117006
1908.000000	7.236759
1907.000000	7.375884
1906.000000	7.577464
1905.000000	7.734463
1904.000000	7.818648
1903.000000	7.943800
1902.000000	8.080949
1901.000000	8.320231
1900.000000	8.385312
1899.000000	8.523571
1898.000000	8.695590
1897.000000	8.827710
1896.000000	9.027391
1895.000000	9.101601
1894.000000	9.232522
1893.000000	9.412403
1892.000000	9.558257
1891.000000	9.688959
1890.000000	9.813182
1889.000000	9.981330
1888.000000	10.122296
1887.000000	10.232580
1886.000000	10.368700
1885.000000	10.484307
1884.000000	10.599924
1883.000000	10.733109
1882.000000	10.799129
1881.000000	10.927784
1880.000000	11.066384
1879.000000	11.090212
1878.000000	11.195224
1877.000000	11.248818
1876.000000	11.328506
1875.000000	11.394638
1874.000000	11.506480
1873.000000	11.586834
1872.000000	11.618040
1871.000000	11.643299
1870.000000	11.691440
1869.000000	11.735252
1868.000000	11.811436
1867.000000	11.829470
1866.000000	11.827317
1865.000000	11.782568
1864.000000	11.775133
1863.000000	11.820811
1862.000000	11.826880
1861.000000	11.865060
1860.000000	11.869391
1859.000000	11.869978
1858.000000	11.874866
1857.000000	11.871164
1856.000000	11.900811
1855.000000	11.915664
1854.000000	11.896386
1853.000000	11.935532
1852.000000	11.952061
1851.000000	11.943011
1850.000000	11.915197
1849.000000	11.889142
1848.000000	11.889606
1847.000000	11.876947
1846.000000	11.911890
1845.000000	11.931461
1844.000000	11.870828
1843.000000	11.860414
1842.000000	11.840687
1841.000000	11.860116
1840.000000	11.871455
1839.000000	11.841410
1838.000000	11.832991
1837.000000	11.800279
1836.000000	11.761364
1835.000000	11.755733
1834.000000	11.729740
1833.000000	11.722071
1832.000000	11.689020
1831.000000	11.693413
1830.000000	11.658749
1829.000000	11.638562
1828.000000	11.626436
1827.000000	11.603210
1826.000000	11.584937
1825.000000	11.562200
1824.000000	11.541614
1823.000000	11.535731
1822.000000	11.537106
1821.000000	11.539028
1820.000000	11.502968
1819.000000	11.486039
1818.000000	11.482372
1817.000000	11.439344
1816.000000	11.411095
1815.000000	11.405262
1814.000000	11.401422
1813.000000	11.396627
1812.000000	11.389889
1811.000000	11.383152
1810.000000	11.363863
1809.000000	11.352730
1808.000000	11.356582
1807.000000	11.331670
1806.000000	11.310767
1805.000000	11.312799
1804.000000	11.289842
1803.000000	11.282411
1802.000000	11.282465
1801.000000	11.269905
1800.000000	11.260483
1799.000000	11.253615
1798.000000	11.252914
1797.000000	11.252885
1796.000000	11.243433
1795.000000	11.244217
1794.000000	11.251442
1793.000000	11.255514
1792.000000	11.253755
1791.000000	11.246149
1790.000000	11.234935
1789.000000	11.242928
1788.000000	11.236873
1787.000000	11.223317
1786.000000	11.219123
1785.000000	11.220309
1784.000000	11.240144
1783.000000	11.229573
1782.000000	11.201532
1781.000000	11.195398
1780.000000	11.185389
1779.000000	11.186820
1778.000000	11.177203
1777.000000	11.155169
1776.000000	11.161933
1775.000000	11.132638
1774.000000	11.112954
1773.000000	11.079984
1772.000000	11.070424
1771.000000	11.058852
1770.000000	11.054851
1769.000000	11.025880
1768.000000	10.990392
1767.000000	10.977819
1766.000000	10.957803
1765.000000	10.955336
1764.000000	10.939104
1763.000000	10.919274
1762.000000	10.881125
1761.000000	10.854660
1760.000000	10.830133
1759.000000	10.812640
1758.000000	10.817465
1757.000000	10.815856
1756.000000	10.785893
1755.000000	10.765636
1754.000000	10.756941
1753.000000	10.768476
1752.000000	10.761925
1751.000000	10.713065
1750.000000	10.699258
1749.000000	10.704984
1748.000000	10.687491
1747.000000	10.664980
1746.000000	10.632444
1745.000000	10.602126
1744.000000	10.589989
1743.000000	10.561331
1742.000000	10.531504
1741.000000	10.515838
1740.000000	10.475336
1739.000000	10.476032
1738.000000	10.479418
1737.000000	10.451745
1736.000000	10.447640
1735.000000	10.421428
1734.000000	10.423155
1733.000000	10.420630
1732.000000	10.384941
1731.000000	10.391593
1730.000000	10.405098
1729.000000	10.434908
1728.000000	10.422129
1727.000000	10.444666
1726.000000	10.448653
1725.000000	10.448514
1724.000000	10.500337
1723.000000	10.538222
1722.000000	10.544611
1721.000000	10.551018
1720.000000	10.589086
1719.000000	10.627627
1718.000000	10.639218
1717.000000	10.683640
1716.000000	10.688515
1715.000000	10.708716
1714.000000	10.732068
1713.000000	10.754751
1712.000000	10.771450
1711.000000	10.799783
1710.000000	10.811320
1709.000000	10.833628
1708.000000	10.825220
1707.000000	10.879460
1706.000000	10.886567
1705.000000	10.875450
1704.000000	10.895098
1703.000000	10.905524
1702.000000	10.900028
1701.000000	10.912016
1700.000000	10.926401
1699.000000	10.881161
1698.000000	10.902948
1697.000000	10.952401
1696.000000	10.962813
1695.000000	10.965361
1694.000000	10.958834
1693.000000	10.969395
1692.000000	11.000043
1691.000000	11.003537
1690.000000	11.026459
1689.000000	11.059821
1688.000000	11.074753
1687.000000	11.119657
1686.000000	11.127241
1685.000000	11.166569
1684.000000	11.198022
1683.000000	11.230580
1682.000000	11.262075
1681.000000	11.328344
1680.000000	11.348699
1679.000000	11.390364
1678.000000	11.425944
1677.000000	11.449176
1676.000000	11.485866
1675.000000	11.527103
1674.000000	11.589162
1673.000000	11.626811
1672.000000	11.646422
1671.000000	11.703976
1670.000000	11.719148
1669.000000	11.736253
1668.000000	11.747546
1667.000000	11.801330
1666.000000	11.802376
1665.000000	11.807628
1664.000000	11.819740
1663.000000	11.837677
1662.000000	11.846320
1661.000000	11.870288
1660.000000	11.898414
1659.000000	11.945320
1658.000000	11.929546
1657.000000	11.932724
1656.000000	11.970490
1655.000000	11.972107
1654.000000	11.965696
1653.000000	11.981820
1652.000000	11.989165
1651.000000	11.974402
1650.000000	11.963370
1649.000000	11.971128
1648.000000	11.945826
1647.000000	11.929306
1646.000000	11.904747
1645.000000	11.910956
1644.000000	11.916626
1643.000000	11.907970
1642.000000	11.893469
1641.000000	11.879368
1640.000000	11.865267
1639.000000	11.847635
1638.000000	11.854293
1637.000000	11.847883
1636.000000	11.831630
1635.000000	11.818445
1634.000000	11.804915
1633.000000	11.784987
1632.000000	11.770949
1631.000000	11.758433
1630.000000	11.728287
1629.000000	11.724094
1628.000000	11.714481
1627.000000	11.709200
1626.000000	11.680868
1625.000000	11.666862
1624.000000	11.658252
1623.000000	11.645949
1622.000000	11.642425
1621.000000	11.615367
1620.000000	11.601336
1619.000000	11.586840
1618.000000	11.563109
1617.000000	11.545953
1616.000000	11.527693
1615.000000	11.511520
1614.000000	11.490479
1613.000000	11.478309
1612.000000	11.470231
1611.000000	11.448744
1610.000000	11.427993
1609.000000	11.409987
1608.000000	11.397972
1607.000000	11.378894
1606.000000	11.354473
1605.000000	11.339906
1604.000000	11.321906
1603.000000	11.300850
1602.000000	11.290175
1601.000000	11.273823
1600.000000	11.249699
1599.000000	11.248208
1598.000000	11.230474
1597.000000	11.208744
1596.000000	11.203312
1595.000000	11.195794
1594.000000	11.186053
1593.000000	11.168524
1592.000000	11.149755
1591.000000	11.128732
1590.000000	11.123683
1589.000000	11.105870
1588.000000	11.078042
1587.000000	11.061695
1586.000000	11.053948
1585.000000	11.048335
1584.000000	11.036969
1583.000000	11.032905
1582.000000	11.017401
1581.000000	10.991876
1580.000000	10.985470
1579.000000	10.975304
1578.000000	10.972949
1577.000000	10.956084
1576.000000	10.938288
1575.000000	10.922929
1574.000000	10.903627
1573.000000	10.890300
1572.000000	10.870131
1571.000000	10.857042
1570.000000	10.854446
1569.000000	10.841431
1568.000000	10.824965
1567.000000	10.823042
1566.000000	10.815914
1565.000000	10.794412
1564.000000	10.776490
1563.000000	10.773571
1562.000000	10.761127
1561.000000	10.738108
1560.000000	10.730590
1559.000000	10.725605
1558.000000	10.714246
1557.000000	10.704203
1556.000000	10.699995
1555.000000	10.681515
1554.000000	10.661934
1553.000000	10.655726
1552.000000	10.649067
1551.000000	10.645697
1550.000000	10.622880
1549.000000	10.610039
1548.000000	10.589817
1547.000000	10.570781
1546.000000	10.540837
1545.000000	10.530541
1544.000000	10.512448
1543.000000	10.489805
1542.000000	10.465493
1541.000000	10.438392
1540.000000	10.411330
1539.000000	10.383825
1538.000000	10.353930
1537.000000	10.328295
1536.000000	10.306200
1535.000000	10.284799
1534.000000	10.247638
1533.000000	10.234046
1532.000000	10.217493
1531.000000	10.196820
1530.000000	10.207157
1529.000000	10.243525
1528.000000	10.255657
1527.000000	10.249275
1526.000000	10.206133
1525.000000	10.151705
1524.000000	10.112786
1523.000000	10.070147
1522.000000	10.060336
1521.000000	10.057588
1520.000000	10.025338
1519.000000	10.044640
1518.000000	10.025872
1517.000000	9.990669
1516.000000	9.967615
1515.000000	9.937557
1514.000000	9.940517
1513.000000	9.939780
1512.000000	9.919842
1511.000000	9.911275
1510.000000	9.874557
1509.000000	9.891083
1508.000000	9.896087
1507.000000	9.889107
1506.000000	9.853089
1505.000000	9.840763
1504.000000	9.845253
1503.000000	9.822668
1502.000000	9.813662
1501.000000	9.805653
1500.000000	9.796780
1499.000000	9.778786
1498.000000	9.793543
1497.000000	9.779125
1496.000000	9.782082
1495.000000	9.786828
1494.000000	9.778721
1493.000000	9.779739
1492.000000	9.785026
1491.000000	9.779287
1490.000000	9.795958
1489.000000	9.792413
1488.000000	9.797627
1487.000000	9.794784
1486.000000	9.807980
1485.000000	9.817482
1484.000000	9.817163
1483.000000	9.817534
1482.000000	9.837580
1481.000000	9.847470
1480.000000	9.860490
1479.000000	9.866707
1478.000000	9.867993
1477.000000	9.879169
1476.000000	9.890304
1475.000000	9.887548
1474.000000	9.869631
1473.000000	9.868229
1472.000000	9.874088
1471.000000	9.879770
1470.000000	9.883849
1469.000000	9.889193
1468.000000	9.894224
1467.000000	9.922177
1466.000000	9.941143
1465.000000	9.923708
1464.000000	9.933963
1463.000000	9.925841
1462.000000	9.962096
1461.000000	9.976913
1460.000000	9.971847
1459.000000	9.959235
1458.000000	9.964666
1457.000000	9.994524
1456.000000	9.991728
1455.000000	9.990532
1454.000000	9.992665
1453.000000	10.023163
1452.000000	10.052333
1451.000000	10.050065
1450.000000	10.044889
1449.000000	10.052862
1448.000000	10.046617
1447.000000	10.063499
1446.000000	10.118398
