PE UV       SUBTECH     SPECTRUM    ASCII       PEDS        4.00        
   -1
Empty Chamber.Sample.asc
18/03/05
09:20:09.00
18/03/05
09:20:09.00
Administrator

200.000000
1
Lambda 750
750N8071901
PerkinElmer UV WinLab 6.0.4.0738 / 1.61.00 Lambda 900

0
0
3350/servo 860.8/2
0
0
UV/VIS
1
1
1
CommonBeamDepol,150mm sphere / downward view
0
0
0
0
Program
Program
3350/servo 860.8/2
3350/0.2 860.8/0.2
3350/0.2 860.8/0.2
0
1
 
 
 
0
 
860.8
319.2
860.8
Front
100
on
 
 
0
0
0
 
0
 
 
 
0
 
 
0
0
0
0
0
 
 
 
 
0
0


0
0
#HDR
-1
-1
#GR
nm
%T
1.0
0.0
2350.000000
-1.000000
2151
8
100.988348
99.179488
#DATA
2350.000000	99.747817
2349.000000	100.131374
2348.000000	100.032638
2347.000000	100.181476
2346.000000	100.045539
2345.000000	99.748792
2344.000000	100.132143
2343.000000	100.059726
2342.000000	99.874914
2341.000000	100.418717
2340.000000	100.101781
2339.000000	99.967189
2338.000000	100.010004
2337.000000	99.805774
2336.000000	99.752589
2335.000000	100.119553
2334.000000	99.439128
2333.000000	100.354651
2332.000000	100.184702
2331.000000	100.062890
2330.000000	100.020047
2329.000000	100.337155
2328.000000	99.834484
2327.000000	100.078492
2326.000000	100.074410
2325.000000	99.769474
2324.000000	99.854128
2323.000000	100.061949
2322.000000	100.012370
2321.000000	100.057082
2320.000000	99.794715
2319.000000	99.831088
2318.000000	100.139092
2317.000000	100.051994
2316.000000	99.849595
2315.000000	99.867849
2314.000000	99.686941
2313.000000	99.828644
2312.000000	100.066898
2311.000000	100.036929
2310.000000	99.965196
2309.000000	100.198467
2308.000000	99.858482
2307.000000	99.732783
2306.000000	100.278899
2305.000000	99.780764
2304.000000	100.053572
2303.000000	100.271399
2302.000000	99.976922
2301.000000	99.943178
2300.000000	99.988544
2299.000000	100.095630
2298.000000	100.019980
2297.000000	100.275593
2296.000000	100.158907
2295.000000	100.076699
2294.000000	99.914949
2293.000000	99.894438
2292.000000	99.926488
2291.000000	99.991798
2290.000000	99.996455
2289.000000	99.961056
2288.000000	100.106721
2287.000000	100.154784
2286.000000	100.259682
2285.000000	100.133556
2284.000000	99.996959
2283.000000	99.924384
2282.000000	99.973975
2281.000000	100.132369
2280.000000	100.103028
2279.000000	99.912304
2278.000000	100.007604
2277.000000	99.864168
2276.000000	99.939244
2275.000000	100.192183
2274.000000	99.986630
2273.000000	100.001115
2272.000000	100.019247
2271.000000	99.875778
2270.000000	100.075150
2269.000000	99.988953
2268.000000	100.000101
2267.000000	100.041230
2266.000000	99.958087
2265.000000	99.922929
2264.000000	100.000608
2263.000000	99.953805
2262.000000	99.891934
2261.000000	99.990793
2260.000000	99.943175
2259.000000	100.039861
2258.000000	100.235024
2257.000000	100.111001
2256.000000	99.797694
2255.000000	100.023824
2254.000000	100.163951
2253.000000	99.965617
2252.000000	100.121074
2251.000000	100.228809
2250.000000	100.032722
2249.000000	100.036602
2248.000000	99.975060
2247.000000	99.893776
2246.000000	99.982785
2245.000000	99.963966
2244.000000	99.935952
2243.000000	100.039603
2242.000000	99.930716
2241.000000	99.940820
2240.000000	100.146340
2239.000000	100.069202
2238.000000	100.002636
2237.000000	100.112864
2236.000000	99.894293
2235.000000	99.902092
2234.000000	100.032755
2233.000000	100.000304
2232.000000	100.045586
2231.000000	100.094431
2230.000000	100.064952
2229.000000	99.914522
2228.000000	99.978226
2227.000000	100.029585
2226.000000	100.182053
2225.000000	100.206911
2224.000000	100.071279
2223.000000	100.003749
2222.000000	100.010742
2221.000000	100.006387
2220.000000	100.004763
2219.000000	100.013484
2218.000000	99.856185
2217.000000	99.775861
2216.000000	99.835588
2215.000000	99.931773
2214.000000	100.009012
2213.000000	100.009221
2212.000000	99.907615
2211.000000	99.849427
2210.000000	100.027571
2209.000000	99.945576
2208.000000	100.043483
2207.000000	100.092749
2206.000000	100.013984
2205.000000	99.999494
2204.000000	100.076598
2203.000000	99.981766
2202.000000	100.003139
2201.000000	100.073424
2200.000000	100.045476
2199.000000	100.029559
2198.000000	100.142205
2197.000000	99.916138
2196.000000	99.925026
2195.000000	100.156055
2194.000000	99.905269
2193.000000	100.054466
2192.000000	100.133232
2191.000000	99.972458
2190.000000	100.020747
2189.000000	100.244017
2188.000000	99.994129
2187.000000	99.857344
2186.000000	99.937228
2185.000000	99.970505
2184.000000	99.913478
2183.000000	100.180450
2182.000000	99.881407
2181.000000	100.074282
2180.000000	100.229064
2179.000000	100.036795
2178.000000	99.949983
2177.000000	100.056294
2176.000000	100.040422
2175.000000	100.093782
2174.000000	100.057079
2173.000000	100.059492
2172.000000	100.079889
2171.000000	99.933094
2170.000000	99.988598
2169.000000	100.068646
2168.000000	100.033200
2167.000000	99.868871
2166.000000	100.246112
2165.000000	100.200317
2164.000000	100.023429
2163.000000	100.017048
2162.000000	99.990410
2161.000000	99.922510
2160.000000	100.077705
2159.000000	100.023307
2158.000000	100.050305
2157.000000	100.000101
2156.000000	99.637393
2155.000000	99.779260
2154.000000	99.983555
2153.000000	100.240141
2152.000000	99.798549
2151.000000	99.986483
2150.000000	100.204607
2149.000000	99.942932
2148.000000	100.180795
2147.000000	100.221670
2146.000000	99.967030
2145.000000	99.877031
2144.000000	100.230714
2143.000000	99.911631
2142.000000	99.911438
2141.000000	99.933130
2140.000000	99.822501
2139.000000	99.912740
2138.000000	100.223022
2137.000000	99.925739
2136.000000	99.953205
2135.000000	100.133705
2134.000000	100.088480
2133.000000	100.016736
2132.000000	100.061954
2131.000000	99.950438
2130.000000	100.242485
2129.000000	99.997175
2128.000000	99.963390
2127.000000	100.045313
2126.000000	99.953058
2125.000000	100.229677
2124.000000	100.226791
2123.000000	99.929457
2122.000000	99.984857
2121.000000	100.135648
2120.000000	100.174149
2119.000000	99.908367
2118.000000	100.134259
2117.000000	99.849957
2116.000000	99.947568
2115.000000	100.113066
2114.000000	100.112140
2113.000000	100.061558
2112.000000	100.084320
2111.000000	99.924876
2110.000000	99.869881
2109.000000	100.010708
2108.000000	99.993934
2107.000000	99.904643
2106.000000	100.063508
2105.000000	100.062945
2104.000000	99.791064
2103.000000	99.960799
2102.000000	100.053551
2101.000000	100.009094
2100.000000	100.115329
2099.000000	99.964743
2098.000000	100.132802
2097.000000	100.122983
2096.000000	99.940055
2095.000000	100.017795
2094.000000	100.136208
2093.000000	100.043399
2092.000000	99.986545
2091.000000	99.945524
2090.000000	99.995249
2089.000000	99.975221
2088.000000	99.997978
2087.000000	100.124164
2086.000000	100.039044
2085.000000	99.969059
2084.000000	99.965215
2083.000000	100.060698
2082.000000	100.026493
2081.000000	99.912851
2080.000000	100.042502
2079.000000	100.055454
2078.000000	99.943860
2077.000000	99.909228
2076.000000	99.866165
2075.000000	99.970154
2074.000000	99.886051
2073.000000	100.001618
2072.000000	100.070598
2071.000000	100.056966
2070.000000	100.135969
2069.000000	100.081662
2068.000000	100.099712
2067.000000	99.987043
2066.000000	99.987247
2065.000000	100.060547
2064.000000	100.065616
2063.000000	99.973588
2062.000000	99.944338
2061.000000	99.996863
2060.000000	99.997571
2059.000000	99.990992
2058.000000	100.029751
2057.000000	100.007085
2056.000000	100.002530
2055.000000	100.010324
2054.000000	100.028142
2053.000000	100.084647
2052.000000	100.060746
2051.000000	100.075728
2050.000000	100.074255
2049.000000	100.052063
2048.000000	100.090055
2047.000000	100.029777
2046.000000	100.033932
2045.000000	99.988359
2044.000000	99.930282
2043.000000	100.033919
2042.000000	99.998785
2041.000000	99.950895
2040.000000	99.959291
2039.000000	100.028875
2038.000000	100.049138
2037.000000	99.904948
2036.000000	99.933463
2035.000000	100.044907
2034.000000	100.086987
2033.000000	100.018147
2032.000000	100.007099
2031.000000	100.015610
2030.000000	99.925040
2029.000000	99.926746
2028.000000	99.999696
2027.000000	100.012163
2026.000000	100.023011
2025.000000	100.031533
2024.000000	100.019263
2023.000000	100.050696
2022.000000	100.080835
2021.000000	100.050322
2020.000000	100.034087
2019.000000	100.032247
2018.000000	100.018457
2017.000000	100.019576
2016.000000	100.028403
2015.000000	99.998985
2014.000000	99.934785
2013.000000	99.982351
2012.000000	100.019782
2011.000000	99.988941
2010.000000	99.981024
2009.000000	100.017052
2008.000000	100.002538
2007.000000	99.981026
2006.000000	100.022327
2005.000000	100.055625
2004.000000	100.029239
2003.000000	100.003045
2002.000000	100.048528
2001.000000	100.060412
2000.000000	99.991067
1999.000000	100.015738
1998.000000	100.012587
1997.000000	100.010352
1996.000000	100.009543
1995.000000	100.008328
1994.000000	100.003655
1993.000000	100.044995
1992.000000	100.041646
1991.000000	100.015033
1990.000000	100.058014
1989.000000	100.065537
1988.000000	100.042984
1987.000000	100.025705
1986.000000	100.003453
1985.000000	99.985173
1984.000000	99.997664
1983.000000	100.003453
1982.000000	100.027327
1981.000000	100.048664
1980.000000	99.989539
1979.000000	99.991164
1978.000000	100.009145
1977.000000	100.011379
1976.000000	99.981006
1975.000000	99.994616
1974.000000	100.047055
1973.000000	100.022561
1972.000000	100.048879
1971.000000	100.026416
1970.000000	99.993398
1969.000000	99.969939
1968.000000	100.007617
1967.000000	100.001828
1966.000000	100.022651
1965.000000	100.000711
1964.000000	100.003047
1963.000000	99.968516
1962.000000	99.951251
1961.000000	99.986191
1960.000000	100.007921
1959.000000	100.032504
1958.000000	99.987101
1957.000000	100.061351
1956.000000	100.033818
1955.000000	100.029858
1954.000000	100.026399
1953.000000	100.028519
1952.000000	99.986197
1951.000000	99.963675
1950.000000	100.013502
1949.000000	99.988123
1948.000000	100.019392
1947.000000	99.943676
1946.000000	100.019483
1945.000000	100.044860
1944.000000	100.066488
1943.000000	100.064561
1942.000000	100.041501
1941.000000	99.942200
1940.000000	99.925209
1939.000000	99.978000
1938.000000	99.990264
1937.000000	100.060733
1936.000000	100.009631
1935.000000	99.991282
1934.000000	99.979121
1933.000000	100.027387
1932.000000	99.951863
1931.000000	100.076970
1930.000000	100.055228
1929.000000	100.061027
1928.000000	100.070261
1927.000000	100.022305
1926.000000	100.107374
1925.000000	99.947639
1924.000000	100.000709
1923.000000	99.967485
1922.000000	99.979743
1921.000000	100.041663
1920.000000	99.908643
1919.000000	99.965051
1918.000000	99.958366
1917.000000	100.088459
1916.000000	99.901589
1915.000000	100.031009
1914.000000	100.080389
1913.000000	100.029493
1912.000000	100.026044
1911.000000	100.002837
1910.000000	100.060837
1909.000000	100.057488
1908.000000	100.021697
1907.000000	100.018051
1906.000000	100.028390
1905.000000	100.032337
1904.000000	100.023826
1903.000000	99.942705
1902.000000	100.030826
1901.000000	99.978916
1900.000000	99.977501
1899.000000	99.958324
1898.000000	99.967350
1897.000000	99.960547
1896.000000	100.014603
1895.000000	99.948189
1894.000000	100.001724
1893.000000	100.041086
1892.000000	99.969469
1891.000000	99.977177
1890.000000	100.038050
1889.000000	100.055805
1888.000000	100.018058
1887.000000	99.936869
1886.000000	99.970916
1885.000000	100.015098
1884.000000	100.014693
1883.000000	100.012462
1882.000000	99.983082
1881.000000	100.014382
1880.000000	100.046805
1879.000000	100.026235
1878.000000	100.089032
1877.000000	100.024306
1876.000000	99.979046
1875.000000	100.007796
1874.000000	99.996458
1873.000000	99.976220
1872.000000	99.956999
1871.000000	99.987146
1870.000000	99.944463
1869.000000	100.006882
1868.000000	99.966707
1867.000000	100.093183
1866.000000	100.057223
1865.000000	99.966797
1864.000000	99.984806
1863.000000	100.016809
1862.000000	100.053682
1861.000000	100.043453
1860.000000	100.007700
1859.000000	100.042761
1858.000000	100.010738
1857.000000	99.968007
1856.000000	99.971247
1855.000000	99.991493
1854.000000	100.003950
1853.000000	99.986937
1852.000000	100.000101
1851.000000	100.021269
1850.000000	99.974684
1849.000000	99.952013
1848.000000	100.011442
1847.000000	99.974483
1846.000000	99.946242
1845.000000	99.976813
1844.000000	99.988051
1843.000000	100.011442
1842.000000	99.984711
1841.000000	99.960408
1840.000000	99.987646
1839.000000	100.021269
1838.000000	100.016408
1837.000000	100.007090
1836.000000	100.029688
1835.000000	100.024019
1834.000000	99.992400
1833.000000	99.990678
1832.000000	99.999595
1831.000000	99.980134
1830.000000	99.980136
1829.000000	99.996249
1828.000000	100.028496
1827.000000	100.001622
1826.000000	99.963404
1825.000000	99.998682
1824.000000	100.004158
1823.000000	99.977392
1822.000000	100.004868
1821.000000	100.038641
1820.000000	100.043821
1819.000000	100.026984
1818.000000	100.020999
1817.000000	100.012985
1816.000000	100.012378
1815.000000	99.989549
1814.000000	99.957087
1813.000000	99.976361
1812.000000	99.996347
1811.000000	100.011569
1810.000000	100.024460
1809.000000	100.014818
1808.000000	100.025783
1807.000000	100.035635
1806.000000	100.009848
1805.000000	99.987413
1804.000000	99.974014
1803.000000	99.990762
1802.000000	100.008630
1801.000000	100.017768
1800.000000	100.028022
1799.000000	100.011067
1798.000000	100.002944
1797.000000	99.995736
1796.000000	99.992995
1795.000000	99.998680
1794.000000	99.996548
1793.000000	99.991368
1792.000000	100.032096
1791.000000	100.033723
1790.000000	99.986493
1789.000000	99.996445
1788.000000	99.987203
1787.000000	99.986188
1786.000000	99.988525
1785.000000	99.999086
1784.000000	100.007211
1783.000000	100.003656
1782.000000	99.985276
1781.000000	99.985886
1780.000000	99.971566
1779.000000	99.983242
1778.000000	100.011985
1777.000000	100.002335
1776.000000	100.034327
1775.000000	100.004773
1774.000000	99.990148
1773.000000	100.024892
1772.000000	99.997258
1771.000000	100.014015
1770.000000	100.002031
1769.000000	99.980203
1768.000000	100.006905
1767.000000	100.008022
1766.000000	100.023055
1765.000000	99.995735
1764.000000	100.016960
1763.000000	100.028645
1762.000000	99.990657
1761.000000	99.994618
1760.000000	99.985987
1759.000000	100.033618
1758.000000	100.010256
1757.000000	99.970250
1756.000000	100.016247
1755.000000	100.032804
1754.000000	99.990149
1753.000000	99.956850
1752.000000	99.961932
1751.000000	99.987816
1750.000000	99.986192
1749.000000	99.978275
1748.000000	99.991167
1747.000000	99.994822
1746.000000	99.991776
1745.000000	100.023255
1744.000000	99.998883
1743.000000	100.015031
1742.000000	99.981725
1741.000000	100.023557
1740.000000	99.995735
1739.000000	99.997055
1738.000000	99.995837
1737.000000	99.986195
1736.000000	100.002336
1735.000000	99.984162
1734.000000	99.986700
1733.000000	100.003249
1732.000000	99.980708
1731.000000	100.008428
1730.000000	99.978275
1729.000000	99.975536
1728.000000	100.021632
1727.000000	99.996344
1726.000000	100.039811
1725.000000	99.998274
1724.000000	100.030260
1723.000000	100.034934
1722.000000	99.998680
1721.000000	99.985178
1720.000000	99.984468
1719.000000	99.974411
1718.000000	100.000000
1717.000000	100.038586
1716.000000	100.010966
1715.000000	99.986395
1714.000000	100.011674
1713.000000	100.019897
1712.000000	99.990761
1711.000000	99.968942
1710.000000	100.001218
1709.000000	100.003147
1708.000000	99.995229
1707.000000	100.005380
1706.000000	100.023144
1705.000000	100.042838
1704.000000	99.969852
1703.000000	99.982537
1702.000000	99.959612
1701.000000	100.025284
1700.000000	99.986500
1699.000000	100.005989
1698.000000	100.018476
1697.000000	100.039702
1696.000000	99.989543
1695.000000	99.993300
1694.000000	100.042544
1693.000000	100.010863
1692.000000	99.977162
1691.000000	99.981019
1690.000000	99.998274
1689.000000	99.983761
1688.000000	99.990053
1687.000000	100.001421
1686.000000	100.026803
1685.000000	99.984168
1684.000000	99.990052
1683.000000	99.999899
1682.000000	100.012486
1681.000000	99.996448
1680.000000	99.974217
1679.000000	99.995939
1678.000000	99.987109
1677.000000	99.946018
1676.000000	100.019694
1675.000000	100.019696
1674.000000	99.999188
1673.000000	100.000914
1672.000000	100.012591
1671.000000	100.004772
1670.000000	99.990662
1669.000000	100.002841
1668.000000	99.958209
1667.000000	99.968148
1666.000000	100.005580
1665.000000	100.006494
1664.000000	99.997666
1663.000000	99.993101
1662.000000	100.017047
1661.000000	100.018670
1660.000000	100.012481
1659.000000	100.020289
1658.000000	100.025876
1657.000000	99.987522
1656.000000	100.013698
1655.000000	100.021307
1654.000000	100.002131
1653.000000	100.013191
1652.000000	100.012074
1651.000000	100.013595
1650.000000	100.026684
1649.000000	99.997463
1648.000000	99.999594
1647.000000	100.016234
1646.000000	100.007914
1645.000000	100.019177
1644.000000	100.005682
1643.000000	100.008321
1642.000000	99.993710
1641.000000	100.017350
1640.000000	99.990362
1639.000000	99.969263
1638.000000	99.994217
1637.000000	100.015930
1636.000000	100.030136
1635.000000	100.016743
1634.000000	100.008219
1633.000000	100.030443
1632.000000	100.040692
1631.000000	100.007306
1630.000000	99.975448
1629.000000	100.000609
1628.000000	100.019281
1627.000000	99.998580
1626.000000	99.999797
1625.000000	99.997666
1624.000000	100.006798
1623.000000	100.004058
1622.000000	99.987420
1621.000000	99.985798
1620.000000	100.006290
1619.000000	100.003957
1618.000000	100.010146
1617.000000	100.020395
1616.000000	100.016335
1615.000000	100.000406
1614.000000	100.010552
1613.000000	99.999188
1612.000000	99.985494
1611.000000	99.982148
1610.000000	99.998580
1609.000000	100.013392
1608.000000	99.997058
1607.000000	99.984376
1606.000000	100.000203
1605.000000	100.014103
1604.000000	100.008217
1603.000000	100.003753
1602.000000	100.007305
1601.000000	100.006087
1600.000000	99.996754
1599.000000	99.998783
1598.000000	99.997971
1597.000000	100.002232
1596.000000	99.987422
1595.000000	99.991683
1594.000000	100.003956
1593.000000	99.991276
1592.000000	100.015115
1591.000000	100.022724
1590.000000	100.007000
1589.000000	99.985290
1588.000000	99.990160
1587.000000	100.004869
1586.000000	99.989856
1585.000000	99.989146
1584.000000	100.007609
1583.000000	99.998681
1582.000000	99.984077
1581.000000	99.979006
1580.000000	99.985902
1579.000000	100.002536
1578.000000	100.007505
1577.000000	100.016433
1576.000000	100.009433
1575.000000	99.997971
1574.000000	100.003855
1573.000000	100.006999
1572.000000	100.012579
1571.000000	100.006188
1570.000000	100.007202
1569.000000	100.002739
1568.000000	100.004767
1567.000000	99.988236
1566.000000	99.997160
1565.000000	100.001826
1564.000000	99.997972
1563.000000	100.007404
1562.000000	100.002434
1561.000000	99.996755
1560.000000	100.012983
1559.000000	100.004057
1558.000000	99.991583
1557.000000	100.003752
1556.000000	100.010548
1555.000000	100.011563
1554.000000	100.024647
1553.000000	100.028502
1552.000000	100.009634
1551.000000	99.995437
1550.000000	99.994220
1549.000000	99.997363
1548.000000	99.998682
1547.000000	100.002028
1546.000000	100.010851
1545.000000	100.001623
1544.000000	100.001825
1543.000000	100.009533
1542.000000	100.013185
1541.000000	99.995335
1540.000000	99.988136
1539.000000	100.007099
1538.000000	100.007302
1537.000000	99.997769
1536.000000	99.970802
1535.000000	99.980432
1534.000000	100.010648
1533.000000	100.018966
1532.000000	100.017951
1531.000000	100.014502
1530.000000	100.008520
1529.000000	100.016127
1528.000000	100.012575
1527.000000	100.000608
1526.000000	99.999594
1525.000000	100.002840
1524.000000	99.992394
1523.000000	100.007708
1522.000000	100.010243
1521.000000	100.019981
1520.000000	100.005375
1519.000000	100.038349
1518.000000	99.995435
1517.000000	99.990872
1516.000000	100.005275
1515.000000	99.983567
1514.000000	99.996754
1513.000000	99.995943
1512.000000	100.004260
1511.000000	99.988438
1510.000000	100.006796
1509.000000	100.020296
1508.000000	99.998276
1507.000000	100.012985
1506.000000	100.006087
1505.000000	99.984785
1504.000000	99.997160
1503.000000	99.987928
1502.000000	99.997362
1501.000000	100.013087
1500.000000	100.012681
1499.000000	100.014708
1498.000000	100.008420
1497.000000	100.018160
1496.000000	100.002333
1495.000000	100.005072
1494.000000	100.024245
1493.000000	100.009839
1492.000000	100.008824
