PE UV       SUBTECH     SPECTRUM    ASCII       PEDS        4.00        
   -1
RDAgneauUK 12.Sample.asc
18/03/05
11:25:41.00
18/03/05
11:25:41.00
Administrator

200.000000
1
Lambda 750
750N8071901
PerkinElmer UV WinLab 6.0.4.0738 / 1.61.00 Lambda 900

0
0
3350/servo 860.8/2
0
0
UV/VIS
1
1
1
CommonBeamDepol,150mm sphere / downward view
0
0
0
0
Program
Program
3350/servo 860.8/2
3350/0.2 860.8/0.2
3350/0.2 860.8/0.2
0
1
 
 
 
0
 
860.8
319.2
860.8
Front
100
on
 
 
0
0
0
 
0
 
 
 
0
 
 
0
0
0
0
0
 
 
 
 
0
0


0
0
#HDR
-1
-1
#GR
nm
%R
1.0
0.0
2350.000000
-1.000000
2151
8
72.100052
17.539579
#DATA
2350.000000	44.182813
2349.000000	44.414959
2348.000000	44.674754
2347.000000	45.138511
2346.000000	44.853748
2345.000000	44.481979
2344.000000	44.807298
2343.000000	44.424828
2342.000000	44.365918
2341.000000	45.239196
2340.000000	44.689164
2339.000000	44.945346
2338.000000	44.949925
2337.000000	45.004969
2336.000000	44.865557
2335.000000	45.021342
2334.000000	45.142941
2333.000000	45.442473
2332.000000	45.451167
2331.000000	45.230009
2330.000000	45.196169
2329.000000	44.850542
2328.000000	45.237225
2327.000000	45.186097
2326.000000	45.172293
2325.000000	44.890639
2324.000000	45.077920
2323.000000	44.891001
2322.000000	44.987934
2321.000000	44.496149
2320.000000	44.489086
2319.000000	44.508505
2318.000000	44.604559
2317.000000	44.557881
2316.000000	44.404600
2315.000000	44.370858
2314.000000	44.278660
2313.000000	44.401181
2312.000000	44.243806
2311.000000	44.106827
2310.000000	44.257709
2309.000000	44.188792
2308.000000	44.004167
2307.000000	43.729514
2306.000000	43.801495
2305.000000	43.688580
2304.000000	43.703745
2303.000000	43.837112
2302.000000	43.435538
2301.000000	43.362416
2300.000000	43.261418
2299.000000	43.275268
2298.000000	43.262836
2297.000000	43.017437
2296.000000	42.898921
2295.000000	42.910119
2294.000000	42.722710
2293.000000	42.644513
2292.000000	42.620391
2291.000000	42.508230
2290.000000	42.460900
2289.000000	42.282851
2288.000000	42.419701
2287.000000	42.563041
2286.000000	42.445001
2285.000000	42.227782
2284.000000	42.140363
2283.000000	42.156558
2282.000000	42.138243
2281.000000	42.305486
2280.000000	42.333149
2279.000000	42.097195
2278.000000	42.132705
2277.000000	42.149648
2276.000000	42.118554
2275.000000	42.260868
2274.000000	42.337717
2273.000000	42.362376
2272.000000	42.348123
2271.000000	42.373140
2270.000000	42.459139
2269.000000	42.460805
2268.000000	42.476179
2267.000000	42.606565
2266.000000	42.705211
2265.000000	42.772896
2264.000000	42.967935
2263.000000	43.055496
2262.000000	43.067941
2261.000000	43.379653
2260.000000	43.535662
2259.000000	43.748463
2258.000000	44.067084
2257.000000	44.236352
2256.000000	44.287467
2255.000000	44.426016
2254.000000	44.752337
2253.000000	44.821620
2252.000000	44.903166
2251.000000	45.224722
2250.000000	45.513138
2249.000000	45.731745
2248.000000	45.923651
2247.000000	46.033196
2246.000000	46.191852
2245.000000	46.410128
2244.000000	46.606639
2243.000000	46.886322
2242.000000	47.066003
2241.000000	47.081934
2240.000000	47.143022
2239.000000	47.345443
2238.000000	47.433756
2237.000000	47.544278
2236.000000	47.645615
2235.000000	47.798739
2234.000000	47.938417
2233.000000	47.879747
2232.000000	47.899078
2231.000000	48.134173
2230.000000	48.198167
2229.000000	48.256668
2228.000000	48.244722
2227.000000	48.253471
2226.000000	48.344787
2225.000000	48.212351
2224.000000	48.089607
2223.000000	48.135474
2222.000000	48.234649
2221.000000	48.244743
2220.000000	48.231960
2219.000000	48.256357
2218.000000	48.047347
2217.000000	48.002490
2216.000000	48.031806
2215.000000	48.025100
2214.000000	47.970038
2213.000000	48.020279
2212.000000	47.905228
2211.000000	47.645206
2210.000000	47.688961
2209.000000	47.673823
2208.000000	47.591753
2207.000000	47.603790
2206.000000	47.493119
2205.000000	47.382281
2204.000000	47.339278
2203.000000	47.252418
2202.000000	47.248026
2201.000000	47.138544
2200.000000	47.075059
2199.000000	47.017802
2198.000000	47.097654
2197.000000	46.892807
2196.000000	46.617466
2195.000000	46.693554
2194.000000	46.564162
2193.000000	46.395698
2192.000000	46.574117
2191.000000	46.440368
2190.000000	46.391570
2189.000000	46.503171
2188.000000	46.205262
2187.000000	46.018978
2186.000000	46.194325
2185.000000	46.044281
2184.000000	45.964997
2183.000000	46.077404
2182.000000	45.870263
2181.000000	45.906384
2180.000000	45.902054
2179.000000	45.932813
2178.000000	45.755217
2177.000000	45.940633
2176.000000	45.958578
2175.000000	45.903695
2174.000000	46.062908
2173.000000	46.008250
2172.000000	46.175009
2171.000000	46.243668
2170.000000	46.237082
2169.000000	46.179868
2168.000000	46.330538
2167.000000	46.604187
2166.000000	46.664146
2165.000000	46.660704
2164.000000	46.837483
2163.000000	46.722585
2162.000000	46.963961
2161.000000	47.002053
2160.000000	47.317294
2159.000000	47.348852
2158.000000	47.379956
2157.000000	47.784389
2156.000000	47.816455
2155.000000	47.789333
2154.000000	48.238603
2153.000000	48.477590
2152.000000	48.341806
2151.000000	48.685390
2150.000000	48.955463
2149.000000	48.905675
2148.000000	49.054104
2147.000000	49.155698
2146.000000	49.320241
2145.000000	49.533172
2144.000000	49.739790
2143.000000	49.748596
2142.000000	49.984383
2141.000000	50.072359
2140.000000	50.269518
2139.000000	50.379034
2138.000000	50.705882
2137.000000	50.518162
2136.000000	50.578486
2135.000000	50.848380
2134.000000	51.048851
2133.000000	50.837980
2132.000000	51.264963
2131.000000	51.238657
2130.000000	51.493707
2129.000000	51.337558
2128.000000	51.274560
2127.000000	51.543806
2126.000000	51.614385
2125.000000	51.723183
2124.000000	51.656182
2123.000000	51.590789
2122.000000	51.756651
2121.000000	51.795844
2120.000000	51.672398
2119.000000	51.737744
2118.000000	51.828242
2117.000000	51.785801
2116.000000	51.810807
2115.000000	52.016059
2114.000000	52.024327
2113.000000	51.944172
2112.000000	52.052036
2111.000000	52.151585
2110.000000	52.004530
2109.000000	51.972837
2108.000000	52.023990
2107.000000	52.187497
2106.000000	52.164583
2105.000000	52.072851
2104.000000	52.087438
2103.000000	52.113675
2102.000000	52.137956
2101.000000	52.180125
2100.000000	52.260584
2099.000000	52.071524
2098.000000	52.247264
2097.000000	52.125851
2096.000000	52.093821
2095.000000	52.178208
2094.000000	52.220102
2093.000000	52.168842
2092.000000	52.229301
2091.000000	52.185514
2090.000000	52.105563
2089.000000	52.188077
2088.000000	52.116396
2087.000000	52.074163
2086.000000	52.016783
2085.000000	51.937822
2084.000000	51.927013
2083.000000	51.883868
2082.000000	51.746956
2081.000000	51.716332
2080.000000	51.663152
2079.000000	51.651892
2078.000000	51.562212
2077.000000	51.428499
2076.000000	51.263346
2075.000000	51.193703
2074.000000	51.111336
2073.000000	51.021599
2072.000000	50.886873
2071.000000	50.816746
2070.000000	50.760536
2069.000000	50.592482
2068.000000	50.427850
2067.000000	50.306422
2066.000000	50.122925
2065.000000	49.972460
2064.000000	49.840820
2063.000000	49.671464
2062.000000	49.523024
2061.000000	49.385322
2060.000000	49.176837
2059.000000	49.026355
2058.000000	48.897103
2057.000000	48.819365
2056.000000	48.737499
2055.000000	48.574830
2054.000000	48.371325
2053.000000	48.267374
2052.000000	48.137570
2051.000000	48.042776
2050.000000	47.919431
2049.000000	47.769474
2048.000000	47.652959
2047.000000	47.594407
2046.000000	47.567183
2045.000000	47.499919
2044.000000	47.432111
2043.000000	47.421669
2042.000000	47.409282
2041.000000	47.464025
2040.000000	47.471914
2039.000000	47.532360
2038.000000	47.570918
2037.000000	47.570651
2036.000000	47.638801
2035.000000	47.771647
2034.000000	47.864758
2033.000000	47.985985
2032.000000	48.143600
2031.000000	48.214029
2030.000000	48.247705
2029.000000	48.366375
2028.000000	48.524128
2027.000000	48.632103
2026.000000	48.756233
2025.000000	48.920478
2024.000000	48.998186
2023.000000	49.046009
2022.000000	49.159908
2021.000000	49.264045
2020.000000	49.307513
2019.000000	49.318037
2018.000000	49.340146
2017.000000	49.361645
2016.000000	49.412217
2015.000000	49.469957
2014.000000	49.427974
2013.000000	49.388437
2012.000000	49.406907
2011.000000	49.410738
2010.000000	49.345127
2009.000000	49.291662
2008.000000	49.240899
2007.000000	49.186042
2006.000000	49.135195
2005.000000	49.082802
2004.000000	49.017332
2003.000000	48.924145
2002.000000	48.827246
2001.000000	48.737393
2000.000000	48.631483
1999.000000	48.555665
1998.000000	48.491394
1997.000000	48.414499
1996.000000	48.335716
1995.000000	48.235921
1994.000000	48.131259
1993.000000	48.014845
1992.000000	47.914498
1991.000000	47.824855
1990.000000	47.745981
1989.000000	47.627665
1988.000000	47.545661
1987.000000	47.466251
1986.000000	47.308128
1985.000000	47.208781
1984.000000	47.151564
1983.000000	47.030276
1982.000000	46.959429
1981.000000	46.879737
1980.000000	46.757900
1979.000000	46.634646
1978.000000	46.555069
1977.000000	46.456926
1976.000000	46.348083
1975.000000	46.265915
1974.000000	46.154432
1973.000000	46.049273
1972.000000	45.956940
1971.000000	45.885628
1970.000000	45.748743
1969.000000	45.627209
1968.000000	45.599025
1967.000000	45.462264
1966.000000	45.361742
1965.000000	45.216101
1964.000000	45.157041
1963.000000	45.060368
1962.000000	44.975473
1961.000000	44.796071
1960.000000	44.746971
1959.000000	44.657301
1958.000000	44.620715
1957.000000	44.525569
1956.000000	44.387755
1955.000000	44.326523
1954.000000	44.329226
1953.000000	44.237518
1952.000000	44.117223
1951.000000	44.071160
1950.000000	44.029667
1949.000000	44.007966
1948.000000	43.964878
1947.000000	43.916162
1946.000000	43.854093
1945.000000	43.963300
1944.000000	43.878174
1943.000000	43.928995
1942.000000	43.942540
1941.000000	43.937008
1940.000000	43.965373
1939.000000	44.033570
1938.000000	44.153485
1937.000000	44.258145
1936.000000	44.352494
1935.000000	44.418190
1934.000000	44.542658
1933.000000	44.714225
1932.000000	44.716419
1931.000000	44.923289
1930.000000	45.081049
1929.000000	45.268800
1928.000000	45.568514
1927.000000	45.746959
1926.000000	45.960483
1925.000000	46.049778
1924.000000	46.381714
1923.000000	46.684487
1922.000000	46.928647
1921.000000	47.202317
1920.000000	47.415320
1919.000000	47.708338
1918.000000	48.022249
1917.000000	48.370509
1916.000000	48.546357
1915.000000	48.986692
1914.000000	49.345635
1913.000000	49.764512
1912.000000	50.095310
1911.000000	50.432508
1910.000000	50.821610
1909.000000	51.201418
1908.000000	51.586120
1907.000000	51.991153
1906.000000	52.370292
1905.000000	52.788306
1904.000000	53.157003
1903.000000	53.589533
1902.000000	53.979917
1901.000000	54.506354
1900.000000	54.818836
1899.000000	55.299550
1898.000000	55.713195
1897.000000	56.166961
1896.000000	56.546152
1895.000000	56.925142
1894.000000	57.319497
1893.000000	57.704548
1892.000000	58.027660
1891.000000	58.470878
1890.000000	58.815329
1889.000000	59.174977
1888.000000	59.474710
1887.000000	59.732823
1886.000000	60.039482
1885.000000	60.328756
1884.000000	60.612448
1883.000000	60.905953
1882.000000	61.111291
1881.000000	61.383917
1880.000000	61.651266
1879.000000	61.839442
1878.000000	62.054031
1877.000000	62.313411
1876.000000	62.487916
1875.000000	62.708321
1874.000000	62.864083
1873.000000	62.918938
1872.000000	63.061125
1871.000000	63.235974
1870.000000	63.315030
1869.000000	63.470000
1868.000000	63.514781
1867.000000	63.626088
1866.000000	63.675228
1865.000000	63.697183
1864.000000	63.794764
1863.000000	63.904584
1862.000000	63.883872
1861.000000	63.924528
1860.000000	63.946110
1859.000000	63.958459
1858.000000	63.972214
1857.000000	63.979225
1856.000000	64.007917
1855.000000	64.103813
1854.000000	64.168077
1853.000000	64.172521
1852.000000	64.155660
1851.000000	64.132193
1850.000000	64.106661
1849.000000	64.126119
1848.000000	64.170174
1847.000000	64.162326
1846.000000	64.104462
1845.000000	64.105651
1844.000000	64.095587
1843.000000	64.046335
1842.000000	64.045378
1841.000000	64.031131
1840.000000	64.035001
1839.000000	64.023562
1838.000000	63.997144
1837.000000	63.913652
1836.000000	63.908095
1835.000000	63.877662
1834.000000	63.820254
1833.000000	63.823863
1832.000000	63.792158
1831.000000	63.735012
1830.000000	63.692924
1829.000000	63.691582
1828.000000	63.675498
1827.000000	63.604016
1826.000000	63.541745
1825.000000	63.566021
1824.000000	63.553195
1823.000000	63.488132
1822.000000	63.455191
1821.000000	63.444734
1820.000000	63.414411
1819.000000	63.380487
1818.000000	63.369146
1817.000000	63.318519
1816.000000	63.275655
1815.000000	63.263861
1814.000000	63.241724
1813.000000	63.235701
1812.000000	63.191742
1811.000000	63.170569
1810.000000	63.160336
1809.000000	63.136634
1808.000000	63.128751
1807.000000	63.084605
1806.000000	63.042218
1805.000000	63.015658
1804.000000	62.993764
1803.000000	62.981526
1802.000000	62.958278
1801.000000	62.935786
1800.000000	62.914867
1799.000000	62.876468
1798.000000	62.851965
1797.000000	62.832966
1796.000000	62.813577
1795.000000	62.809827
1794.000000	62.816976
1793.000000	62.796939
1792.000000	62.776166
1791.000000	62.744921
1790.000000	62.710649
1789.000000	62.707392
1788.000000	62.703276
1787.000000	62.670565
1786.000000	62.654560
1785.000000	62.618400
1784.000000	62.585403
1783.000000	62.582051
1782.000000	62.534539
1781.000000	62.511182
1780.000000	62.486392
1779.000000	62.474228
1778.000000	62.413682
1777.000000	62.358667
1776.000000	62.350785
1775.000000	62.278260
1774.000000	62.260550
1773.000000	62.239531
1772.000000	62.138254
1771.000000	62.055269
1770.000000	62.016891
1769.000000	61.983772
1768.000000	61.956278
1767.000000	61.927817
1766.000000	61.909879
1765.000000	61.853167
1764.000000	61.822630
1763.000000	61.783821
1762.000000	61.699442
1761.000000	61.663133
1760.000000	61.628953
1759.000000	61.585471
1758.000000	61.545726
1757.000000	61.457499
1756.000000	61.449134
1755.000000	61.436001
1754.000000	61.372024
1753.000000	61.300030
1752.000000	61.257082
1751.000000	61.226512
1750.000000	61.218997
1749.000000	61.155221
1748.000000	61.092017
1747.000000	61.041677
1746.000000	60.983720
1745.000000	60.959741
1744.000000	60.910305
1743.000000	60.889776
1742.000000	60.840104
1741.000000	60.783890
1740.000000	60.754584
1739.000000	60.711221
1738.000000	60.671809
1737.000000	60.645825
1736.000000	60.646192
1735.000000	60.636388
1734.000000	60.614622
1733.000000	60.581008
1732.000000	60.589286
1731.000000	60.628990
1730.000000	60.628619
1729.000000	60.651712
1728.000000	60.706284
1727.000000	60.762931
1726.000000	60.805707
1725.000000	60.833982
1724.000000	60.913899
1723.000000	60.991415
1722.000000	61.080729
1721.000000	61.137398
1720.000000	61.198174
1719.000000	61.312207
1718.000000	61.374385
1717.000000	61.454620
1716.000000	61.531994
1715.000000	61.571295
1714.000000	61.635848
1713.000000	61.711238
1712.000000	61.761588
1711.000000	61.813114
1710.000000	61.867925
1709.000000	61.906367
1708.000000	61.950762
1707.000000	61.979806
1706.000000	62.028922
1705.000000	62.046206
1704.000000	62.077223
1703.000000	62.084097
1702.000000	62.043918
1701.000000	62.094228
1700.000000	62.096915
1699.000000	62.084952
1698.000000	62.163896
1697.000000	62.171342
1696.000000	62.221706
1695.000000	62.195232
1694.000000	62.243114
1693.000000	62.285451
1692.000000	62.275399
1691.000000	62.340843
1690.000000	62.419952
1689.000000	62.469882
1688.000000	62.574033
1687.000000	62.643988
1686.000000	62.757586
1685.000000	62.824481
1684.000000	62.930270
1683.000000	63.065916
1682.000000	63.194578
1681.000000	63.317395
1680.000000	63.399009
1679.000000	63.541384
1678.000000	63.665098
1677.000000	63.745804
1676.000000	63.922937
1675.000000	64.074183
1674.000000	64.155046
1673.000000	64.299666
1672.000000	64.397224
1671.000000	64.538668
1670.000000	64.644226
1669.000000	64.755764
1668.000000	64.847150
1667.000000	64.971506
1666.000000	65.018613
1665.000000	65.080728
1664.000000	65.150067
1663.000000	65.217299
1662.000000	65.287057
1661.000000	65.342736
1660.000000	65.378168
1659.000000	65.397402
1658.000000	65.455601
1657.000000	65.465238
1656.000000	65.514166
1655.000000	65.536292
1654.000000	65.561643
1653.000000	65.565606
1652.000000	65.573915
1651.000000	65.568576
1650.000000	65.558235
1649.000000	65.565205
1648.000000	65.560910
1647.000000	65.583704
1646.000000	65.551369
1645.000000	65.539830
1644.000000	65.541061
1643.000000	65.518435
1642.000000	65.496593
1641.000000	65.498575
1640.000000	65.493268
1639.000000	65.460907
1638.000000	65.435996
1637.000000	65.444508
1636.000000	65.389509
1635.000000	65.364809
1634.000000	65.354131
1633.000000	65.336286
1632.000000	65.304665
1631.000000	65.258318
1630.000000	65.217638
1629.000000	65.200451
1628.000000	65.184270
1627.000000	65.144500
1626.000000	65.116812
1625.000000	65.085640
1624.000000	65.046133
1623.000000	65.019277
1622.000000	64.984645
1621.000000	64.942461
1620.000000	64.912840
1619.000000	64.874215
1618.000000	64.825389
1617.000000	64.806880
1616.000000	64.780983
1615.000000	64.739194
1614.000000	64.703024
1613.000000	64.667714
1612.000000	64.614267
1611.000000	64.561354
1610.000000	64.544428
1609.000000	64.516126
1608.000000	64.468491
1607.000000	64.419525
1606.000000	64.367659
1605.000000	64.319218
1604.000000	64.270961
1603.000000	64.228022
1602.000000	64.189189
1601.000000	64.136474
1600.000000	64.083983
1599.000000	64.049468
1598.000000	64.018198
1597.000000	63.979606
1596.000000	63.937005
1595.000000	63.897327
1594.000000	63.855441
1593.000000	63.821210
1592.000000	63.784204
1591.000000	63.723044
1590.000000	63.700754
1589.000000	63.676787
1588.000000	63.625371
1587.000000	63.606485
1586.000000	63.571801
1585.000000	63.537309
1584.000000	63.507165
1583.000000	63.467958
1582.000000	63.423213
1581.000000	63.396589
1580.000000	63.374075
1579.000000	63.339047
1578.000000	63.304170
1577.000000	63.278166
1576.000000	63.226874
1575.000000	63.189684
1574.000000	63.177141
1573.000000	63.147772
1572.000000	63.109957
1571.000000	63.074595
1570.000000	63.041968
1569.000000	63.028689
1568.000000	63.004719
1567.000000	62.964172
1566.000000	62.943164
1565.000000	62.939051
1564.000000	62.928093
1563.000000	62.919371
1562.000000	62.869512
1561.000000	62.839685
1560.000000	62.840920
1559.000000	62.817204
1558.000000	62.783297
1557.000000	62.778799
1556.000000	62.778642
1555.000000	62.775847
1554.000000	62.747767
1553.000000	62.727992
1552.000000	62.695056
1551.000000	62.668079
1550.000000	62.657779
1549.000000	62.626484
1548.000000	62.595208
1547.000000	62.556220
1546.000000	62.517570
1545.000000	62.467268
1544.000000	62.419050
1543.000000	62.361657
1542.000000	62.313409
1541.000000	62.244923
1540.000000	62.187152
1539.000000	62.112075
1538.000000	62.052413
1537.000000	61.981613
1536.000000	61.901025
1535.000000	61.845490
1534.000000	61.805624
1533.000000	61.752425
1532.000000	61.657047
1531.000000	61.598250
1530.000000	61.544516
1529.000000	61.479609
1528.000000	61.422279
1527.000000	61.358780
1526.000000	61.294847
1525.000000	61.285165
1524.000000	61.220017
1523.000000	61.175726
1522.000000	61.124808
1521.000000	61.095215
1520.000000	61.064560
1519.000000	61.038595
1518.000000	61.005227
1517.000000	60.964507
1516.000000	60.934799
1515.000000	60.900001
1514.000000	60.871122
1513.000000	60.837506
1512.000000	60.813101
1511.000000	60.791021
1510.000000	60.780636
1509.000000	60.794100
1508.000000	60.754731
1507.000000	60.738252
1506.000000	60.724315
1505.000000	60.716941
1504.000000	60.703457
1503.000000	60.731292
1502.000000	60.702297
1501.000000	60.721427
1500.000000	60.723593
1499.000000	60.707272
1498.000000	60.733311
1497.000000	60.741072
1496.000000	60.761774
1495.000000	60.778631
1494.000000	60.811517
1493.000000	60.825681
1492.000000	60.849571
1491.000000	60.889679
1490.000000	60.921489
1489.000000	60.984397
1488.000000	61.036694
1487.000000	61.042200
1486.000000	61.087142
1485.000000	61.129973
1484.000000	61.177719
1483.000000	61.276984
1482.000000	61.299391
1481.000000	61.380266
1480.000000	61.425578
1479.000000	61.469246
1478.000000	61.539234
1477.000000	61.600362
1476.000000	61.637471
1475.000000	61.694382
1474.000000	61.719912
1473.000000	61.779424
1472.000000	61.848127
1471.000000	61.891263
1470.000000	61.908184
