PE UV       SUBTECH     SPECTRUM    ASCII       PEDS        4.00        
   -1
RDAgneauUK 52.Sample.asc
18/03/05
12:06:12.00
18/03/05
12:06:12.00
Administrator

200.000000
1
Lambda 750
750N8071901
PerkinElmer UV WinLab 6.0.4.0738 / 1.61.00 Lambda 900

0
0
3350/servo 860.8/2
0
0
UV/VIS
1
1
1
CommonBeamDepol,150mm sphere / downward view
0
0
0
0
Program
Program
3350/servo 860.8/2
3350/0.2 860.8/0.2
3350/0.2 860.8/0.2
0
1
 
 
 
0
 
860.8
319.2
860.8
Front
100
on
 
 
0
0
0
 
0
 
 
 
0
 
 
0
0
0
0
0
 
 
 
 
0
0


0
0
#HDR
-1
-1
#GR
nm
%R
1.0
0.0
2350.000000
-1.000000
2151
8
72.538234
16.497788
#DATA
2350.000000	42.175726
2349.000000	42.558677
2348.000000	42.291552
2347.000000	43.260898
2346.000000	42.864588
2345.000000	42.596196
2344.000000	42.623489
2343.000000	42.372885
2342.000000	42.113052
2341.000000	42.846324
2340.000000	42.478681
2339.000000	42.911089
2338.000000	42.828806
2337.000000	42.662426
2336.000000	42.727374
2335.000000	43.185055
2334.000000	42.943721
2333.000000	43.275703
2332.000000	43.179662
2331.000000	43.334510
2330.000000	43.066206
2329.000000	43.033526
2328.000000	42.787682
2327.000000	42.849663
2326.000000	42.830951
2325.000000	42.802853
2324.000000	43.014332
2323.000000	42.654536
2322.000000	42.518809
2321.000000	42.403216
2320.000000	42.597955
2319.000000	42.346800
2318.000000	42.537613
2317.000000	42.547030
2316.000000	42.263403
2315.000000	42.519628
2314.000000	42.115165
2313.000000	42.091168
2312.000000	42.303858
2311.000000	42.073786
2310.000000	41.932057
2309.000000	42.002616
2308.000000	41.647357
2307.000000	41.527177
2306.000000	41.281982
2305.000000	41.311268
2304.000000	41.328763
2303.000000	41.392294
2302.000000	41.369656
2301.000000	41.333351
2300.000000	41.020107
2299.000000	40.926944
2298.000000	40.914969
2297.000000	40.876620
2296.000000	40.671995
2295.000000	40.563948
2294.000000	40.399599
2293.000000	40.435501
2292.000000	40.308001
2291.000000	40.329736
2290.000000	40.276499
2289.000000	40.153167
2288.000000	40.181303
2287.000000	40.247471
2286.000000	40.209266
2285.000000	40.090579
2284.000000	39.910506
2283.000000	39.883732
2282.000000	39.790951
2281.000000	39.930248
2280.000000	39.936418
2279.000000	39.866885
2278.000000	40.082382
2277.000000	39.947710
2276.000000	39.899293
2275.000000	40.023058
2274.000000	40.006543
2273.000000	40.291690
2272.000000	40.332549
2271.000000	40.257617
2270.000000	40.491041
2269.000000	40.408462
2268.000000	40.365285
2267.000000	40.435153
2266.000000	40.496156
2265.000000	40.671520
2264.000000	40.761618
2263.000000	40.874417
2262.000000	41.109295
2261.000000	41.198282
2260.000000	41.351037
2259.000000	41.608115
2258.000000	41.953792
2257.000000	42.161087
2256.000000	42.044291
2255.000000	42.186386
2254.000000	42.427679
2253.000000	42.631256
2252.000000	42.883776
2251.000000	43.065436
2250.000000	43.266339
2249.000000	43.635411
2248.000000	43.769218
2247.000000	43.898077
2246.000000	44.144158
2245.000000	44.345440
2244.000000	44.541837
2243.000000	44.817559
2242.000000	44.951921
2241.000000	45.077208
2240.000000	45.165808
2239.000000	45.278800
2238.000000	45.458490
2237.000000	45.561408
2236.000000	45.560059
2235.000000	45.623881
2234.000000	45.678935
2233.000000	45.667103
2232.000000	45.860559
2231.000000	46.099141
2230.000000	46.110586
2229.000000	46.110507
2228.000000	46.170027
2227.000000	46.164383
2226.000000	46.136519
2225.000000	46.055103
2224.000000	46.153815
2223.000000	46.096757
2222.000000	46.028531
2221.000000	46.032575
2220.000000	46.047476
2219.000000	46.103013
2218.000000	45.940489
2217.000000	45.820122
2216.000000	45.806218
2215.000000	45.829778
2214.000000	45.738919
2213.000000	45.731393
2212.000000	45.656988
2211.000000	45.586091
2210.000000	45.557846
2209.000000	45.627315
2208.000000	45.613320
2207.000000	45.440668
2206.000000	45.301182
2205.000000	45.257680
2204.000000	45.207499
2203.000000	44.982409
2202.000000	44.974898
2201.000000	44.926105
2200.000000	44.919561
2199.000000	44.933807
2198.000000	44.899196
2197.000000	44.549932
2196.000000	44.487435
2195.000000	44.446967
2194.000000	44.259030
2193.000000	44.129873
2192.000000	44.252032
2191.000000	44.283264
2190.000000	44.017088
2189.000000	44.098385
2188.000000	43.939908
2187.000000	43.876011
2186.000000	43.882689
2185.000000	43.754072
2184.000000	43.750852
2183.000000	44.006526
2182.000000	43.878934
2181.000000	43.917464
2180.000000	43.805558
2179.000000	43.680144
2178.000000	43.642779
2177.000000	43.689865
2176.000000	43.646249
2175.000000	43.766510
2174.000000	43.819347
2173.000000	43.929146
2172.000000	44.046378
2171.000000	44.013058
2170.000000	44.084148
2169.000000	44.136548
2168.000000	44.322463
2167.000000	44.352468
2166.000000	44.491710
2165.000000	44.476011
2164.000000	44.541235
2163.000000	44.712457
2162.000000	44.850797
2161.000000	44.910730
2160.000000	45.106018
2159.000000	45.375185
2158.000000	45.239624
2157.000000	45.513776
2156.000000	45.547772
2155.000000	45.848555
2154.000000	46.278861
2153.000000	46.373349
2152.000000	46.348364
2151.000000	46.421629
2150.000000	46.625039
2149.000000	46.662479
2148.000000	46.984040
2147.000000	47.219795
2146.000000	47.338736
2145.000000	47.335960
2144.000000	47.678718
2143.000000	47.610200
2142.000000	47.835317
2141.000000	48.011561
2140.000000	48.058534
2139.000000	48.114089
2138.000000	48.372175
2137.000000	48.485166
2136.000000	48.521714
2135.000000	48.807562
2134.000000	48.786093
2133.000000	48.563743
2132.000000	48.996475
2131.000000	49.134975
2130.000000	49.243131
2129.000000	49.296795
2128.000000	49.183626
2127.000000	49.376473
2126.000000	49.359071
2125.000000	49.370435
2124.000000	49.488280
2123.000000	49.457963
2122.000000	49.483231
2121.000000	49.538212
2120.000000	49.565132
2119.000000	49.621308
2118.000000	49.730271
2117.000000	49.686009
2116.000000	49.712634
2115.000000	49.798651
2114.000000	49.834164
2113.000000	49.935915
2112.000000	49.922403
2111.000000	49.855558
2110.000000	49.872051
2109.000000	49.884028
2108.000000	50.051259
2107.000000	49.966615
2106.000000	49.894777
2105.000000	50.011417
2104.000000	49.991421
2103.000000	50.002172
2102.000000	49.943468
2101.000000	49.980044
2100.000000	50.019912
2099.000000	50.006516
2098.000000	49.864821
2097.000000	49.984071
2096.000000	49.975031
2095.000000	49.944289
2094.000000	50.036329
2093.000000	49.958725
2092.000000	50.038292
2091.000000	50.024155
2090.000000	49.851549
2089.000000	49.898960
2088.000000	49.918381
2087.000000	49.870472
2086.000000	49.939158
2085.000000	49.832806
2084.000000	49.669545
2083.000000	49.617500
2082.000000	49.518125
2081.000000	49.381417
2080.000000	49.319459
2079.000000	49.326756
2078.000000	49.225772
2077.000000	49.194372
2076.000000	49.054563
2075.000000	48.933068
2074.000000	48.782702
2073.000000	48.735353
2072.000000	48.580812
2071.000000	48.511401
2070.000000	48.469917
2069.000000	48.249168
2068.000000	48.104818
2067.000000	48.004964
2066.000000	47.829207
2065.000000	47.579546
2064.000000	47.500815
2063.000000	47.291213
2062.000000	47.175691
2061.000000	47.060103
2060.000000	46.812091
2059.000000	46.697401
2058.000000	46.522015
2057.000000	46.409009
2056.000000	46.309972
2055.000000	46.133415
2054.000000	45.963084
2053.000000	45.839552
2052.000000	45.696380
2051.000000	45.536173
2050.000000	45.423114
2049.000000	45.352168
2048.000000	45.235666
2047.000000	45.167746
2046.000000	45.143026
2045.000000	45.081430
2044.000000	45.059362
2043.000000	45.082343
2042.000000	45.059432
2041.000000	45.100320
2040.000000	45.145751
2039.000000	45.149217
2038.000000	45.177347
2037.000000	45.162459
2036.000000	45.258866
2035.000000	45.402543
2034.000000	45.534961
2033.000000	45.629306
2032.000000	45.757067
2031.000000	45.809622
2030.000000	45.878862
2029.000000	46.045653
2028.000000	46.185841
2027.000000	46.325551
2026.000000	46.444476
2025.000000	46.530565
2024.000000	46.599166
2023.000000	46.680956
2022.000000	46.775034
2021.000000	46.806194
2020.000000	46.870619
2019.000000	46.906576
2018.000000	46.915626
2017.000000	46.939779
2016.000000	46.964922
2015.000000	46.972481
2014.000000	46.965526
2013.000000	46.970992
2012.000000	46.932078
2011.000000	46.909419
2010.000000	46.878358
2009.000000	46.815091
2008.000000	46.720545
2007.000000	46.590243
2006.000000	46.503181
2005.000000	46.457174
2004.000000	46.375836
2003.000000	46.316067
2002.000000	46.247725
2001.000000	46.144357
2000.000000	46.025291
1999.000000	45.948753
1998.000000	45.849037
1997.000000	45.741010
1996.000000	45.628233
1995.000000	45.509673
1994.000000	45.400620
1993.000000	45.335470
1992.000000	45.198768
1991.000000	45.110342
1990.000000	44.995540
1989.000000	44.883344
1988.000000	44.767878
1987.000000	44.631208
1986.000000	44.472488
1985.000000	44.397911
1984.000000	44.334969
1983.000000	44.220376
1982.000000	44.110808
1981.000000	44.049220
1980.000000	43.886437
1979.000000	43.794645
1978.000000	43.680846
1977.000000	43.554047
1976.000000	43.414584
1975.000000	43.320523
1974.000000	43.225730
1973.000000	43.088895
1972.000000	43.005521
1971.000000	42.909133
1970.000000	42.771385
1969.000000	42.691737
1968.000000	42.538188
1967.000000	42.441034
1966.000000	42.385265
1965.000000	42.279086
1964.000000	42.112298
1963.000000	42.012923
1962.000000	41.936870
1961.000000	41.810952
1960.000000	41.720373
1959.000000	41.636152
1958.000000	41.560085
1957.000000	41.465929
1956.000000	41.346001
1955.000000	41.295300
1954.000000	41.195583
1953.000000	41.101894
1952.000000	41.111032
1951.000000	41.016613
1950.000000	40.914711
1949.000000	40.905137
1948.000000	40.864823
1947.000000	40.866251
1946.000000	40.857676
1945.000000	40.795502
1944.000000	40.883368
1943.000000	40.845504
1942.000000	40.819087
1941.000000	40.913852
1940.000000	40.944639
1939.000000	41.066272
1938.000000	41.131425
1937.000000	41.230518
1936.000000	41.295722
1935.000000	41.333443
1934.000000	41.571114
1933.000000	41.728212
1932.000000	41.845043
1931.000000	42.039811
1930.000000	42.177265
1929.000000	42.322856
1928.000000	42.627066
1927.000000	42.830420
1926.000000	43.079525
1925.000000	43.279200
1924.000000	43.554205
1923.000000	43.752165
1922.000000	44.088885
1921.000000	44.455775
1920.000000	44.654156
1919.000000	44.994651
1918.000000	45.369547
1917.000000	45.656260
1916.000000	45.887935
1915.000000	46.284265
1914.000000	46.816875
1913.000000	47.223244
1912.000000	47.514398
1911.000000	47.902614
1910.000000	48.314193
1909.000000	48.695570
1908.000000	49.157969
1907.000000	49.654341
1906.000000	50.046894
1905.000000	50.466956
1904.000000	50.922763
1903.000000	51.457058
1902.000000	51.947243
1901.000000	52.374692
1900.000000	52.729819
1899.000000	53.254483
1898.000000	53.770012
1897.000000	54.195116
1896.000000	54.671448
1895.000000	55.086015
1894.000000	55.535214
1893.000000	55.962218
1892.000000	56.338417
1891.000000	56.737062
1890.000000	57.168238
1889.000000	57.550844
1888.000000	57.895938
1887.000000	58.184035
1886.000000	58.546855
1885.000000	58.903646
1884.000000	59.230691
1883.000000	59.513598
1882.000000	59.747857
1881.000000	60.023436
1880.000000	60.309521
1879.000000	60.595968
1878.000000	60.838479
1877.000000	61.102958
1876.000000	61.281816
1875.000000	61.521445
1874.000000	61.715879
1873.000000	61.830946
1872.000000	62.010687
1871.000000	62.220886
1870.000000	62.325876
1869.000000	62.465997
1868.000000	62.568193
1867.000000	62.714309
1866.000000	62.780216
1865.000000	62.793624
1864.000000	62.926093
1863.000000	62.935050
1862.000000	62.986874
1861.000000	63.019114
1860.000000	63.068650
1859.000000	63.126856
1858.000000	63.161275
1857.000000	63.166655
1856.000000	63.195541
1855.000000	63.250316
1854.000000	63.322486
1853.000000	63.307001
1852.000000	63.317341
1851.000000	63.351210
1850.000000	63.339703
1849.000000	63.301531
1848.000000	63.305451
1847.000000	63.287066
1846.000000	63.282103
1845.000000	63.305249
1844.000000	63.294806
1843.000000	63.265440
1842.000000	63.240807
1841.000000	63.239295
1840.000000	63.205856
1839.000000	63.226174
1838.000000	63.155560
1837.000000	63.082055
1836.000000	63.065994
1835.000000	63.054217
1834.000000	63.007915
1833.000000	62.967718
1832.000000	62.929562
1831.000000	62.882294
1830.000000	62.844258
1829.000000	62.835585
1828.000000	62.804199
1827.000000	62.743653
1826.000000	62.731057
1825.000000	62.710720
1824.000000	62.650913
1823.000000	62.623637
1822.000000	62.607304
1821.000000	62.572617
1820.000000	62.540841
1819.000000	62.502194
1818.000000	62.454643
1817.000000	62.441631
1816.000000	62.424427
1815.000000	62.379093
1814.000000	62.327662
1813.000000	62.300777
1812.000000	62.286550
1811.000000	62.270439
1810.000000	62.251978
1809.000000	62.223677
1808.000000	62.184730
1807.000000	62.146719
1806.000000	62.123543
1805.000000	62.078721
1804.000000	62.026410
1803.000000	62.018322
1802.000000	62.011721
1801.000000	61.993776
1800.000000	61.970022
1799.000000	61.943522
1798.000000	61.920465
1797.000000	61.890742
1796.000000	61.862453
1795.000000	61.860879
1794.000000	61.845626
1793.000000	61.826444
1792.000000	61.802424
1791.000000	61.768996
1790.000000	61.756952
1789.000000	61.721983
1788.000000	61.690805
1787.000000	61.661189
1786.000000	61.637325
1785.000000	61.632103
1784.000000	61.613432
1783.000000	61.565298
1782.000000	61.510739
1781.000000	61.485292
1780.000000	61.468260
1779.000000	61.471399
1778.000000	61.410825
1777.000000	61.341221
1776.000000	61.323313
1775.000000	61.283408
1774.000000	61.232824
1773.000000	61.185004
1772.000000	61.111478
1771.000000	61.098603
1770.000000	61.036279
1769.000000	60.974008
1768.000000	60.929683
1767.000000	60.913198
1766.000000	60.861237
1765.000000	60.814151
1764.000000	60.781351
1763.000000	60.727810
1762.000000	60.663732
1761.000000	60.619143
1760.000000	60.575533
1759.000000	60.541382
1758.000000	60.484372
1757.000000	60.433211
1756.000000	60.401302
1755.000000	60.364221
1754.000000	60.318308
1753.000000	60.262394
1752.000000	60.212204
1751.000000	60.181659
1750.000000	60.141572
1749.000000	60.077905
1748.000000	60.034358
1747.000000	59.982740
1746.000000	59.933600
1745.000000	59.873571
1744.000000	59.821778
1743.000000	59.792790
1742.000000	59.746925
1741.000000	59.716934
1740.000000	59.675678
1739.000000	59.636814
1738.000000	59.615953
1737.000000	59.569416
1736.000000	59.589514
1735.000000	59.497602
1734.000000	59.535531
1733.000000	59.542870
1732.000000	59.528250
1731.000000	59.557049
1730.000000	59.559027
1729.000000	59.574492
1728.000000	59.691910
1727.000000	59.697488
1726.000000	59.762698
1725.000000	59.802928
1724.000000	59.880505
1723.000000	59.992851
1722.000000	60.030542
1721.000000	60.102532
1720.000000	60.186549
1719.000000	60.338709
1718.000000	60.393537
1717.000000	60.465303
1716.000000	60.520087
1715.000000	60.615900
1714.000000	60.687982
1713.000000	60.717723
1712.000000	60.790306
1711.000000	60.844826
1710.000000	60.905720
1709.000000	60.936940
1708.000000	61.016433
1707.000000	61.021698
1706.000000	61.071692
1705.000000	61.087025
1704.000000	61.099099
1703.000000	61.130227
1702.000000	61.158417
1701.000000	61.183707
1700.000000	61.158989
1699.000000	61.201917
1698.000000	61.206000
1697.000000	61.265305
1696.000000	61.261984
1695.000000	61.273430
1694.000000	61.326446
1693.000000	61.328324
1692.000000	61.369787
1691.000000	61.444368
1690.000000	61.507904
1689.000000	61.582439
1688.000000	61.682032
1687.000000	61.748571
1686.000000	61.872781
1685.000000	61.940423
1684.000000	62.085312
1683.000000	62.200238
1682.000000	62.328671
1681.000000	62.479637
1680.000000	62.600443
1679.000000	62.743492
1678.000000	62.867896
1677.000000	62.981731
1676.000000	63.153743
1675.000000	63.300144
1674.000000	63.421455
1673.000000	63.559171
1672.000000	63.718300
1671.000000	63.815494
1670.000000	63.928261
1669.000000	64.080272
1668.000000	64.138534
1667.000000	64.265586
1666.000000	64.340337
1665.000000	64.421450
1664.000000	64.492718
1663.000000	64.540789
1662.000000	64.633290
1661.000000	64.701859
1660.000000	64.761028
1659.000000	64.769245
1658.000000	64.838432
1657.000000	64.862748
1656.000000	64.919668
1655.000000	64.926715
1654.000000	64.936592
1653.000000	64.946552
1652.000000	64.953288
1651.000000	64.947584
1650.000000	64.941959
1649.000000	64.954206
1648.000000	64.928580
1647.000000	64.913329
1646.000000	64.924605
1645.000000	64.910120
1644.000000	64.910565
1643.000000	64.875116
1642.000000	64.870094
1641.000000	64.876396
1640.000000	64.832426
1639.000000	64.806207
1638.000000	64.795434
1637.000000	64.775339
1636.000000	64.735541
1635.000000	64.701197
1634.000000	64.681881
1633.000000	64.661370
1632.000000	64.627012
1631.000000	64.590656
1630.000000	64.561015
1629.000000	64.514947
1628.000000	64.462352
1627.000000	64.439097
1626.000000	64.409120
1625.000000	64.381184
1624.000000	64.358040
1623.000000	64.320935
1622.000000	64.282794
1621.000000	64.222413
1620.000000	64.189462
1619.000000	64.143126
1618.000000	64.107871
1617.000000	64.080160
1616.000000	64.016563
1615.000000	63.959250
1614.000000	63.920468
1613.000000	63.882697
1612.000000	63.822503
1611.000000	63.764509
1610.000000	63.734919
1609.000000	63.702939
1608.000000	63.641944
1607.000000	63.599674
1606.000000	63.550389
1605.000000	63.495351
1604.000000	63.431665
1603.000000	63.381370
1602.000000	63.354233
1601.000000	63.306062
1600.000000	63.240234
1599.000000	63.175637
1598.000000	63.117443
1597.000000	63.091279
1596.000000	63.051789
1595.000000	62.998242
1594.000000	62.959101
1593.000000	62.916692
1592.000000	62.871817
1591.000000	62.826475
1590.000000	62.791188
1589.000000	62.741728
1588.000000	62.685186
1587.000000	62.651820
1586.000000	62.621298
1585.000000	62.596219
1584.000000	62.553248
1583.000000	62.498516
1582.000000	62.462246
1581.000000	62.430160
1580.000000	62.402545
1579.000000	62.373196
1578.000000	62.339115
1577.000000	62.288354
1576.000000	62.245824
1575.000000	62.221573
1574.000000	62.176182
1573.000000	62.126613
1572.000000	62.104994
1571.000000	62.073324
1570.000000	62.037027
1569.000000	62.000801
1568.000000	61.976391
1567.000000	61.943135
1566.000000	61.917845
1565.000000	61.910673
1564.000000	61.885895
1563.000000	61.857302
1562.000000	61.819515
1561.000000	61.808004
1560.000000	61.806838
1559.000000	61.787892
1558.000000	61.749032
1557.000000	61.733684
1556.000000	61.732232
1555.000000	61.718863
1554.000000	61.698884
1553.000000	61.675846
1552.000000	61.635085
1551.000000	61.595595
1550.000000	61.579185
1549.000000	61.555288
1548.000000	61.519896
1547.000000	61.460764
1546.000000	61.400205
1545.000000	61.360119
1544.000000	61.305570
1543.000000	61.248219
1542.000000	61.190062
1541.000000	61.123607
1540.000000	61.068853
1539.000000	60.985731
1538.000000	60.914798
1537.000000	60.835828
1536.000000	60.748115
1535.000000	60.675697
1534.000000	60.617126
1533.000000	60.563242
1532.000000	60.473935
1531.000000	60.410166
1530.000000	60.355857
1529.000000	60.279498
1528.000000	60.194148
1527.000000	60.148159
1526.000000	60.091520
1525.000000	60.046644
1524.000000	59.978825
1523.000000	59.933855
1522.000000	59.882053
1521.000000	59.851409
1520.000000	59.802013
1519.000000	59.800056
1518.000000	59.746791
1517.000000	59.691629
1516.000000	59.670567
1515.000000	59.627255
1514.000000	59.597566
1513.000000	59.574664
1512.000000	59.572452
1511.000000	59.531476
1510.000000	59.502398
1509.000000	59.515860
1508.000000	59.475882
1507.000000	59.466544
1506.000000	59.450642
1505.000000	59.429125
1504.000000	59.424352
1503.000000	59.419921
1502.000000	59.434652
1501.000000	59.422773
1500.000000	59.417274
1499.000000	59.412138
1498.000000	59.433552
1497.000000	59.444034
1496.000000	59.442855
1495.000000	59.464208
1494.000000	59.492330
1493.000000	59.517538
1492.000000	59.538357
1491.000000	59.565922
1490.000000	59.621449
1489.000000	59.665247
1488.000000	59.717979
1487.000000	59.743887
1486.000000	59.771294
1485.000000	59.839879
1484.000000	59.875036
1483.000000	59.944523
1482.000000	59.998195
1481.000000	60.054288
1480.000000	60.104288
1479.000000	60.142407
1478.000000	60.208899
1477.000000	60.267504
1476.000000	60.290624
1475.000000	60.331382
1474.000000	60.378657
1473.000000	60.438134
1472.000000	60.500904
1471.000000	60.553599
1470.000000	60.591248
