PE UV       SUBTECH     SPECTRUM    ASCII       PEDS        4.00        
   -1
RDAgneauUK 22.Sample.asc
18/03/05
11:35:49.00
18/03/05
11:35:49.00
Administrator

200.000000
1
Lambda 750
750N8071901
PerkinElmer UV WinLab 6.0.4.0738 / 1.61.00 Lambda 900

0
0
3350/servo 860.8/2
0
0
UV/VIS
1
1
1
CommonBeamDepol,150mm sphere / downward view
0
0
0
0
Program
Program
3350/servo 860.8/2
3350/0.2 860.8/0.2
3350/0.2 860.8/0.2
0
1
 
 
 
0
 
860.8
319.2
860.8
Front
100
on
 
 
0
0
0
 
0
 
 
 
0
 
 
0
0
0
0
0
 
 
 
 
0
0


0
0
#HDR
-1
-1
#GR
nm
%R
1.0
0.0
2350.000000
-1.000000
2151
8
69.973149
18.111057
#DATA
2350.000000	41.601236
2349.000000	41.374700
2348.000000	41.324024
2347.000000	42.016882
2346.000000	41.703334
2345.000000	41.817451
2344.000000	41.275405
2343.000000	40.982078
2342.000000	41.297872
2341.000000	41.692063
2340.000000	41.564379
2339.000000	41.929911
2338.000000	41.917950
2337.000000	41.678151
2336.000000	41.887142
2335.000000	42.000243
2334.000000	41.883994
2333.000000	42.197378
2332.000000	41.875916
2331.000000	41.961645
2330.000000	41.756660
2329.000000	41.949813
2328.000000	41.943093
2327.000000	41.614246
2326.000000	41.782526
2325.000000	41.572030
2324.000000	41.688210
2323.000000	41.910434
2322.000000	41.582406
2321.000000	41.725811
2320.000000	41.337740
2319.000000	41.299185
2318.000000	41.274141
2317.000000	41.567552
2316.000000	41.246904
2315.000000	41.071235
2314.000000	40.926654
2313.000000	40.966778
2312.000000	41.097253
2311.000000	40.833406
2310.000000	40.756852
2309.000000	40.872259
2308.000000	40.630413
2307.000000	40.666392
2306.000000	40.519064
2305.000000	40.470123
2304.000000	40.619772
2303.000000	40.663056
2302.000000	40.444615
2301.000000	40.175752
2300.000000	39.851600
2299.000000	39.702226
2298.000000	39.787992
2297.000000	39.685260
2296.000000	39.725150
2295.000000	39.626534
2294.000000	39.481249
2293.000000	39.305820
2292.000000	39.388898
2291.000000	39.252286
2290.000000	39.290956
2289.000000	39.136777
2288.000000	39.217477
2287.000000	39.138037
2286.000000	38.923229
2285.000000	38.851863
2284.000000	38.761066
2283.000000	38.704348
2282.000000	38.639077
2281.000000	38.852244
2280.000000	38.925198
2279.000000	38.945218
2278.000000	38.948337
2277.000000	38.711061
2276.000000	38.742503
2275.000000	38.863984
2274.000000	38.844552
2273.000000	38.942678
2272.000000	39.015543
2271.000000	38.953638
2270.000000	38.976074
2269.000000	39.183441
2268.000000	39.279831
2267.000000	39.239788
2266.000000	39.401348
2265.000000	39.443853
2264.000000	39.573313
2263.000000	39.585220
2262.000000	39.804307
2261.000000	40.044010
2260.000000	40.202911
2259.000000	40.284105
2258.000000	40.551248
2257.000000	40.824916
2256.000000	40.886725
2255.000000	41.165617
2254.000000	41.305804
2253.000000	41.494997
2252.000000	41.638935
2251.000000	41.817127
2250.000000	42.051357
2249.000000	42.292402
2248.000000	42.543733
2247.000000	42.692649
2246.000000	42.838539
2245.000000	42.892324
2244.000000	43.185302
2243.000000	43.672624
2242.000000	43.781686
2241.000000	43.747783
2240.000000	43.817938
2239.000000	43.995976
2238.000000	44.122859
2237.000000	44.329947
2236.000000	44.458498
2235.000000	44.486585
2234.000000	44.620839
2233.000000	44.626109
2232.000000	44.650495
2231.000000	44.797571
2230.000000	44.849952
2229.000000	44.921819
2228.000000	44.938537
2227.000000	44.835996
2226.000000	44.896022
2225.000000	45.017202
2224.000000	45.063842
2223.000000	44.898799
2222.000000	44.947664
2221.000000	44.875447
2220.000000	44.895438
2219.000000	44.984822
2218.000000	44.784799
2217.000000	44.628561
2216.000000	44.734249
2215.000000	44.657866
2214.000000	44.648725
2213.000000	44.671259
2212.000000	44.579060
2211.000000	44.424541
2210.000000	44.483470
2209.000000	44.385809
2208.000000	44.308522
2207.000000	44.345524
2206.000000	44.128150
2205.000000	44.009314
2204.000000	43.960753
2203.000000	43.923633
2202.000000	43.868053
2201.000000	43.788085
2200.000000	43.760989
2199.000000	43.603762
2198.000000	43.507107
2197.000000	43.468527
2196.000000	43.381441
2195.000000	43.313641
2194.000000	43.289955
2193.000000	43.162942
2192.000000	43.071993
2191.000000	42.951110
2190.000000	43.076585
2189.000000	43.121913
2188.000000	42.876723
2187.000000	42.797001
2186.000000	42.769982
2185.000000	42.682554
2184.000000	42.625758
2183.000000	42.630933
2182.000000	42.604617
2181.000000	42.578158
2180.000000	42.538267
2179.000000	42.533947
2178.000000	42.551497
2177.000000	42.597530
2176.000000	42.604276
2175.000000	42.685185
2174.000000	42.714337
2173.000000	42.560619
2172.000000	42.634832
2171.000000	42.834985
2170.000000	42.906022
2169.000000	42.910415
2168.000000	43.070935
2167.000000	43.156144
2166.000000	43.105335
2165.000000	43.265517
2164.000000	43.517426
2163.000000	43.538680
2162.000000	43.750151
2161.000000	43.768862
2160.000000	43.959105
2159.000000	44.209105
2158.000000	43.958611
2157.000000	44.088897
2156.000000	44.538193
2155.000000	44.573718
2154.000000	44.678280
2153.000000	44.903530
2152.000000	45.200756
2151.000000	45.391528
2150.000000	45.480974
2149.000000	45.534730
2148.000000	45.804332
2147.000000	45.934272
2146.000000	45.871134
2145.000000	46.152334
2144.000000	46.468782
2143.000000	46.273475
2142.000000	46.531167
2141.000000	46.778587
2140.000000	46.811114
2139.000000	46.866477
2138.000000	47.204514
2137.000000	47.313941
2136.000000	47.332470
2135.000000	47.408911
2134.000000	47.671160
2133.000000	47.602609
2132.000000	47.933772
2131.000000	47.920595
2130.000000	48.034947
2129.000000	48.147939
2128.000000	48.032262
2127.000000	48.170694
2126.000000	48.010991
2125.000000	48.174154
2124.000000	48.274821
2123.000000	48.305668
2122.000000	48.435055
2121.000000	48.440909
2120.000000	48.533571
2119.000000	48.495576
2118.000000	48.606131
2117.000000	48.623920
2116.000000	48.663095
2115.000000	48.799935
2114.000000	48.674274
2113.000000	48.682221
2112.000000	48.853847
2111.000000	48.695074
2110.000000	48.621434
2109.000000	48.781991
2108.000000	48.720940
2107.000000	48.914560
2106.000000	48.970674
2105.000000	48.971051
2104.000000	48.835512
2103.000000	48.974660
2102.000000	48.981870
2101.000000	48.912034
2100.000000	48.919893
2099.000000	48.793939
2098.000000	48.923374
2097.000000	48.944382
2096.000000	49.007525
2095.000000	48.898510
2094.000000	48.826349
2093.000000	48.800809
2092.000000	48.893671
2091.000000	48.898955
2090.000000	48.847013
2089.000000	48.800168
2088.000000	48.828874
2087.000000	48.833948
2086.000000	48.761871
2085.000000	48.705877
2084.000000	48.541974
2083.000000	48.489830
2082.000000	48.539106
2081.000000	48.461200
2080.000000	48.381374
2079.000000	48.348209
2078.000000	48.289901
2077.000000	48.081655
2076.000000	48.014714
2075.000000	47.987495
2074.000000	47.925604
2073.000000	47.772973
2072.000000	47.600534
2071.000000	47.562207
2070.000000	47.492923
2069.000000	47.273369
2068.000000	47.171981
2067.000000	47.003397
2066.000000	46.803198
2065.000000	46.713970
2064.000000	46.557381
2063.000000	46.329742
2062.000000	46.221030
2061.000000	46.092570
2060.000000	45.897444
2059.000000	45.746022
2058.000000	45.652671
2057.000000	45.547495
2056.000000	45.380683
2055.000000	45.206447
2054.000000	45.076013
2053.000000	44.944686
2052.000000	44.794095
2051.000000	44.677657
2050.000000	44.581485
2049.000000	44.420292
2048.000000	44.306149
2047.000000	44.300858
2046.000000	44.234359
2045.000000	44.123185
2044.000000	44.121251
2043.000000	44.111640
2042.000000	44.104670
2041.000000	44.171078
2040.000000	44.172795
2039.000000	44.183276
2038.000000	44.217183
2037.000000	44.220643
2036.000000	44.289372
2035.000000	44.439838
2034.000000	44.567457
2033.000000	44.679477
2032.000000	44.805010
2031.000000	44.858807
2030.000000	44.959385
2029.000000	45.085650
2028.000000	45.220101
2027.000000	45.368448
2026.000000	45.497978
2025.000000	45.584982
2024.000000	45.660159
2023.000000	45.830891
2022.000000	45.910297
2021.000000	45.927289
2020.000000	46.000597
2019.000000	46.034069
2018.000000	46.073073
2017.000000	46.147300
2016.000000	46.190848
2015.000000	46.206813
2014.000000	46.205057
2013.000000	46.190907
2012.000000	46.184740
2011.000000	46.189582
2010.000000	46.143269
2009.000000	46.087518
2008.000000	46.047774
2007.000000	45.940050
2006.000000	45.836627
2005.000000	45.828351
2004.000000	45.733483
2003.000000	45.625831
2002.000000	45.543859
2001.000000	45.445814
2000.000000	45.350676
1999.000000	45.346955
1998.000000	45.249452
1997.000000	45.144240
1996.000000	45.063388
1995.000000	44.954451
1994.000000	44.809978
1993.000000	44.731849
1992.000000	44.630554
1991.000000	44.560207
1990.000000	44.486620
1989.000000	44.355899
1988.000000	44.245672
1987.000000	44.130320
1986.000000	44.003555
1985.000000	43.913709
1984.000000	43.823184
1983.000000	43.738313
1982.000000	43.649396
1981.000000	43.559333
1980.000000	43.442322
1979.000000	43.338307
1978.000000	43.226738
1977.000000	43.141136
1976.000000	43.006976
1975.000000	42.936717
1974.000000	42.831706
1973.000000	42.725377
1972.000000	42.591322
1971.000000	42.488811
1970.000000	42.387331
1969.000000	42.285920
1968.000000	42.220597
1967.000000	42.121117
1966.000000	42.009536
1965.000000	41.930424
1964.000000	41.797454
1963.000000	41.678482
1962.000000	41.555000
1961.000000	41.479430
1960.000000	41.436014
1959.000000	41.304407
1958.000000	41.236786
1957.000000	41.173597
1956.000000	41.085717
1955.000000	40.967570
1954.000000	40.914740
1953.000000	40.871614
1952.000000	40.816706
1951.000000	40.708459
1950.000000	40.657162
1949.000000	40.660906
1948.000000	40.651404
1947.000000	40.616396
1946.000000	40.560358
1945.000000	40.498330
1944.000000	40.456423
1943.000000	40.545235
1942.000000	40.595041
1941.000000	40.509251
1940.000000	40.542814
1939.000000	40.658203
1938.000000	40.809737
1937.000000	40.920364
1936.000000	40.972121
1935.000000	41.042312
1934.000000	41.126061
1933.000000	41.344386
1932.000000	41.404617
1931.000000	41.601317
1930.000000	41.787324
1929.000000	41.938241
1928.000000	42.203267
1927.000000	42.417566
1926.000000	42.587266
1925.000000	42.770275
1924.000000	43.094877
1923.000000	43.413645
1922.000000	43.583365
1921.000000	43.915063
1920.000000	44.151288
1919.000000	44.448834
1918.000000	44.753551
1917.000000	45.087714
1916.000000	45.358619
1915.000000	45.778093
1914.000000	46.218873
1913.000000	46.574701
1912.000000	46.855996
1911.000000	47.196173
1910.000000	47.582927
1909.000000	48.071618
1908.000000	48.420369
1907.000000	48.833014
1906.000000	49.157280
1905.000000	49.658032
1904.000000	50.138848
1903.000000	50.514891
1902.000000	50.971873
1901.000000	51.425079
1900.000000	51.797043
1899.000000	52.331628
1898.000000	52.762323
1897.000000	53.158380
1896.000000	53.565304
1895.000000	53.970818
1894.000000	54.365267
1893.000000	54.775607
1892.000000	55.143450
1891.000000	55.502100
1890.000000	55.923864
1889.000000	56.298779
1888.000000	56.612590
1887.000000	56.979579
1886.000000	57.258529
1885.000000	57.632761
1884.000000	57.871836
1883.000000	58.215775
1882.000000	58.418360
1881.000000	58.660422
1880.000000	58.948021
1879.000000	59.172192
1878.000000	59.366872
1877.000000	59.616427
1876.000000	59.741369
1875.000000	59.996112
1874.000000	60.142400
1873.000000	60.296202
1872.000000	60.438367
1871.000000	60.645167
1870.000000	60.730869
1869.000000	60.834453
1868.000000	60.929830
1867.000000	61.073168
1866.000000	61.150622
1865.000000	61.204044
1864.000000	61.243853
1863.000000	61.262895
1862.000000	61.316651
1861.000000	61.388781
1860.000000	61.460023
1859.000000	61.464258
1858.000000	61.495431
1857.000000	61.461735
1856.000000	61.487669
1855.000000	61.568437
1854.000000	61.564561
1853.000000	61.610797
1852.000000	61.625105
1851.000000	61.632763
1850.000000	61.604578
1849.000000	61.564885
1848.000000	61.583092
1847.000000	61.607931
1846.000000	61.584439
1845.000000	61.592967
1844.000000	61.584793
1843.000000	61.551259
1842.000000	61.525649
1841.000000	61.500093
1840.000000	61.483670
1839.000000	61.514723
1838.000000	61.492041
1837.000000	61.416024
1836.000000	61.370443
1835.000000	61.324627
1834.000000	61.272384
1833.000000	61.227563
1832.000000	61.173763
1831.000000	61.169864
1830.000000	61.139527
1829.000000	61.151068
1828.000000	61.129646
1827.000000	61.050906
1826.000000	61.033143
1825.000000	61.024760
1824.000000	60.993382
1823.000000	60.951421
1822.000000	60.902709
1821.000000	60.879906
1820.000000	60.866125
1819.000000	60.831123
1818.000000	60.786524
1817.000000	60.763432
1816.000000	60.753626
1815.000000	60.724718
1814.000000	60.651409
1813.000000	60.634146
1812.000000	60.633441
1811.000000	60.609815
1810.000000	60.586586
1809.000000	60.565739
1808.000000	60.544365
1807.000000	60.508009
1806.000000	60.487409
1805.000000	60.434057
1804.000000	60.389317
1803.000000	60.394235
1802.000000	60.375882
1801.000000	60.369575
1800.000000	60.350403
1799.000000	60.328912
1798.000000	60.280516
1797.000000	60.257155
1796.000000	60.260597
1795.000000	60.246135
1794.000000	60.245935
1793.000000	60.227671
1792.000000	60.208095
1791.000000	60.176719
1790.000000	60.157673
1789.000000	60.140941
1788.000000	60.113953
1787.000000	60.087563
1786.000000	60.074660
1785.000000	60.036783
1784.000000	60.030043
1783.000000	60.003859
1782.000000	59.957675
1781.000000	59.941328
1780.000000	59.915775
1779.000000	59.903272
1778.000000	59.856874
1777.000000	59.779107
1776.000000	59.754126
1775.000000	59.688211
1774.000000	59.662239
1773.000000	59.652643
1772.000000	59.561360
1771.000000	59.526805
1770.000000	59.483262
1769.000000	59.410933
1768.000000	59.391313
1767.000000	59.351972
1766.000000	59.320724
1765.000000	59.281575
1764.000000	59.272089
1763.000000	59.186661
1762.000000	59.112553
1761.000000	59.064025
1760.000000	59.010532
1759.000000	58.984695
1758.000000	58.909401
1757.000000	58.864795
1756.000000	58.820567
1755.000000	58.797225
1754.000000	58.781809
1753.000000	58.737414
1752.000000	58.674478
1751.000000	58.620319
1750.000000	58.587469
1749.000000	58.557055
1748.000000	58.469445
1747.000000	58.420326
1746.000000	58.386391
1745.000000	58.341500
1744.000000	58.298814
1743.000000	58.269543
1742.000000	58.189245
1741.000000	58.141986
1740.000000	58.137140
1739.000000	58.111013
1738.000000	58.032068
1737.000000	58.030327
1736.000000	58.026938
1735.000000	58.007748
1734.000000	58.013188
1733.000000	58.003635
1732.000000	57.960050
1731.000000	58.018843
1730.000000	57.987936
1729.000000	58.057126
1728.000000	58.131755
1727.000000	58.159847
1726.000000	58.190059
1725.000000	58.237664
1724.000000	58.296550
1723.000000	58.372279
1722.000000	58.457850
1721.000000	58.491455
1720.000000	58.598202
1719.000000	58.712793
1718.000000	58.753206
1717.000000	58.833534
1716.000000	58.888100
1715.000000	58.982185
1714.000000	59.070001
1713.000000	59.112181
1712.000000	59.160739
1711.000000	59.200259
1710.000000	59.263636
1709.000000	59.302650
1708.000000	59.313648
1707.000000	59.383229
1706.000000	59.418313
1705.000000	59.437769
1704.000000	59.477522
1703.000000	59.466970
1702.000000	59.446780
1701.000000	59.499442
1700.000000	59.496504
1699.000000	59.492593
1698.000000	59.544096
1697.000000	59.582287
1696.000000	59.591989
1695.000000	59.589802
1694.000000	59.643182
1693.000000	59.661777
1692.000000	59.687167
1691.000000	59.744293
1690.000000	59.814058
1689.000000	59.836984
1688.000000	59.973143
1687.000000	60.041371
1686.000000	60.156981
1685.000000	60.247914
1684.000000	60.364233
1683.000000	60.483903
1682.000000	60.576453
1681.000000	60.684558
1680.000000	60.827091
1679.000000	60.971480
1678.000000	61.095762
1677.000000	61.206302
1676.000000	61.372528
1675.000000	61.516118
1674.000000	61.626406
1673.000000	61.755037
1672.000000	61.882587
1671.000000	62.007202
1670.000000	62.114601
1669.000000	62.239892
1668.000000	62.335044
1667.000000	62.445451
1666.000000	62.516957
1665.000000	62.597453
1664.000000	62.644147
1663.000000	62.685056
1662.000000	62.777113
1661.000000	62.846808
1660.000000	62.907681
1659.000000	62.920585
1658.000000	62.981345
1657.000000	62.992890
1656.000000	63.042014
1655.000000	63.078098
1654.000000	63.083354
1653.000000	63.077415
1652.000000	63.096683
1651.000000	63.115044
1650.000000	63.110379
1649.000000	63.111265
1648.000000	63.111533
1647.000000	63.120454
1646.000000	63.115946
1645.000000	63.094755
1644.000000	63.061691
1643.000000	63.041151
1642.000000	63.025600
1641.000000	63.016251
1640.000000	63.003291
1639.000000	62.991836
1638.000000	62.957748
1637.000000	62.954429
1636.000000	62.928884
1635.000000	62.910864
1634.000000	62.889689
1633.000000	62.844345
1632.000000	62.816286
1631.000000	62.799535
1630.000000	62.748199
1629.000000	62.715146
1628.000000	62.684551
1627.000000	62.656872
1626.000000	62.628069
1625.000000	62.583669
1624.000000	62.568307
1623.000000	62.535561
1622.000000	62.501078
1621.000000	62.453640
1620.000000	62.428296
1619.000000	62.384391
1618.000000	62.362472
1617.000000	62.324548
1616.000000	62.274246
1615.000000	62.231362
1614.000000	62.206009
1613.000000	62.162192
1612.000000	62.098678
1611.000000	62.052040
1610.000000	62.021865
1609.000000	61.988803
1608.000000	61.948469
1607.000000	61.907622
1606.000000	61.848886
1605.000000	61.817582
1604.000000	61.779046
1603.000000	61.714038
1602.000000	61.651550
1601.000000	61.617238
1600.000000	61.578198
1599.000000	61.511158
1598.000000	61.465045
1597.000000	61.437878
1596.000000	61.384921
1595.000000	61.356580
1594.000000	61.323756
1593.000000	61.274318
1592.000000	61.242830
1591.000000	61.199098
1590.000000	61.172920
1589.000000	61.137105
1588.000000	61.081861
1587.000000	61.039308
1586.000000	61.002704
1585.000000	60.979517
1584.000000	60.953816
1583.000000	60.906855
1582.000000	60.864759
1581.000000	60.826815
1580.000000	60.801383
1579.000000	60.783695
1578.000000	60.755066
1577.000000	60.709605
1576.000000	60.652025
1575.000000	60.624419
1574.000000	60.604146
1573.000000	60.580419
1572.000000	60.547997
1571.000000	60.494073
1570.000000	60.475397
1569.000000	60.441523
1568.000000	60.405855
1567.000000	60.380546
1566.000000	60.360900
1565.000000	60.333827
1564.000000	60.303989
1563.000000	60.286105
1562.000000	60.261962
1561.000000	60.260126
1560.000000	60.246029
1559.000000	60.221765
1558.000000	60.196672
1557.000000	60.173871
1556.000000	60.174534
1555.000000	60.177865
1554.000000	60.148635
1553.000000	60.132266
1552.000000	60.092489
1551.000000	60.054552
1550.000000	60.053316
1549.000000	60.044276
1548.000000	60.007119
1547.000000	59.929336
1546.000000	59.873843
1545.000000	59.853293
1544.000000	59.798519
1543.000000	59.744941
1542.000000	59.676242
1541.000000	59.612058
1540.000000	59.562274
1539.000000	59.503342
1538.000000	59.444225
1537.000000	59.347494
1536.000000	59.272912
1535.000000	59.215637
1534.000000	59.159899
1533.000000	59.099913
1532.000000	59.023795
1531.000000	58.940145
1530.000000	58.895569
1529.000000	58.823583
1528.000000	58.747266
1527.000000	58.700240
1526.000000	58.640428
1525.000000	58.604728
1524.000000	58.549715
1523.000000	58.484988
1522.000000	58.450258
1521.000000	58.414991
1520.000000	58.368677
1519.000000	58.358308
1518.000000	58.305260
1517.000000	58.244502
1516.000000	58.233687
1515.000000	58.220306
1514.000000	58.175922
1513.000000	58.144167
1512.000000	58.116964
1511.000000	58.094648
1510.000000	58.089864
1509.000000	58.101740
1508.000000	58.066378
1507.000000	58.060017
1506.000000	58.038798
1505.000000	58.034599
1504.000000	58.021596
1503.000000	58.006902
1502.000000	58.008247
1501.000000	58.010597
1500.000000	58.011640
1499.000000	58.010598
1498.000000	58.021895
1497.000000	58.043212
1496.000000	58.058208
1495.000000	58.074006
1494.000000	58.091481
1493.000000	58.125106
1492.000000	58.115879
1491.000000	58.178569
1490.000000	58.231243
1489.000000	58.282295
1488.000000	58.305845
1487.000000	58.348614
1486.000000	58.402706
1485.000000	58.466632
1484.000000	58.503492
1483.000000	58.572305
1482.000000	58.616986
1481.000000	58.669602
1480.000000	58.728553
1479.000000	58.788193
1478.000000	58.860211
1477.000000	58.936371
1476.000000	58.957365
1475.000000	59.017351
1474.000000	59.051796
1473.000000	59.122697
1472.000000	59.180553
1471.000000	59.226276
1470.000000	59.248968
