PE UV       SUBTECH     SPECTRUM    ASCII       PEDS        4.00        
   -1
RDAgneauUK 32.Sample.asc
18/03/05
11:46:05.00
18/03/05
11:46:05.00
Administrator

200.000000
1
Lambda 750
750N8071901
PerkinElmer UV WinLab 6.0.4.0738 / 1.61.00 Lambda 900

0
0
3350/servo 860.8/2
0
0
UV/VIS
1
1
1
CommonBeamDepol,150mm sphere / downward view
0
0
0
0
Program
Program
3350/servo 860.8/2
3350/0.2 860.8/0.2
3350/0.2 860.8/0.2
0
1
 
 
 
0
 
860.8
319.2
860.8
Front
100
on
 
 
0
0
0
 
0
 
 
 
0
 
 
0
0
0
0
0
 
 
 
 
0
0


0
0
#HDR
-1
-1
#GR
nm
%R
1.0
0.0
2350.000000
-1.000000
2151
8
73.021572
17.373390
#DATA
2350.000000	41.309055
2349.000000	41.184501
2348.000000	41.359794
2347.000000	41.737027
2346.000000	41.375350
2345.000000	41.193077
2344.000000	41.312190
2343.000000	41.269370
2342.000000	40.776645
2341.000000	41.326979
2340.000000	41.305873
2339.000000	41.469651
2338.000000	41.326915
2337.000000	41.588065
2336.000000	41.414903
2335.000000	41.800987
2334.000000	41.458146
2333.000000	41.953353
2332.000000	41.785084
2331.000000	41.587540
2330.000000	41.605496
2329.000000	41.523310
2328.000000	41.632003
2327.000000	41.634400
2326.000000	41.544919
2325.000000	41.525601
2324.000000	41.625100
2323.000000	41.472226
2322.000000	41.343007
2321.000000	41.364023
2320.000000	41.170864
2319.000000	41.369396
2318.000000	41.273939
2317.000000	41.277478
2316.000000	41.042957
2315.000000	40.896418
2314.000000	40.871325
2313.000000	41.042082
2312.000000	40.710380
2311.000000	40.893670
2310.000000	40.990837
2309.000000	40.648236
2308.000000	40.495677
2307.000000	40.215191
2306.000000	40.293269
2305.000000	40.114067
2304.000000	40.103599
2303.000000	40.286525
2302.000000	40.036297
2301.000000	39.809704
2300.000000	39.675401
2299.000000	39.724966
2298.000000	39.367810
2297.000000	39.518646
2296.000000	39.520784
2295.000000	39.333820
2294.000000	38.991293
2293.000000	38.932097
2292.000000	38.885249
2291.000000	38.799332
2290.000000	38.690210
2289.000000	38.665300
2288.000000	38.612896
2287.000000	38.651589
2286.000000	38.525342
2285.000000	38.548243
2284.000000	38.581672
2283.000000	38.539654
2282.000000	38.487384
2281.000000	38.533282
2280.000000	38.473637
2279.000000	38.393597
2278.000000	38.292506
2277.000000	38.215066
2276.000000	38.513632
2275.000000	38.609800
2274.000000	38.589708
2273.000000	38.565729
2272.000000	38.682163
2271.000000	38.629263
2270.000000	38.751942
2269.000000	38.890133
2268.000000	39.030846
2267.000000	39.088038
2266.000000	39.129317
2265.000000	39.313511
2264.000000	39.563886
2263.000000	39.584612
2262.000000	39.690879
2261.000000	39.782177
2260.000000	39.940930
2259.000000	40.104427
2258.000000	40.252983
2257.000000	40.518573
2256.000000	40.652439
2255.000000	40.875475
2254.000000	41.136574
2253.000000	41.193564
2252.000000	41.432917
2251.000000	41.707692
2250.000000	41.989661
2249.000000	42.163333
2248.000000	42.286734
2247.000000	42.482428
2246.000000	42.734944
2245.000000	42.994354
2244.000000	43.192486
2243.000000	43.414143
2242.000000	43.611210
2241.000000	43.775853
2240.000000	43.845808
2239.000000	43.930522
2238.000000	44.017537
2237.000000	44.139002
2236.000000	44.238064
2235.000000	44.481619
2234.000000	44.634022
2233.000000	44.555054
2232.000000	44.604301
2231.000000	44.741540
2230.000000	44.821884
2229.000000	44.874523
2228.000000	44.941271
2227.000000	45.043091
2226.000000	44.998256
2225.000000	44.980485
2224.000000	45.021156
2223.000000	45.004793
2222.000000	44.924965
2221.000000	44.773157
2220.000000	44.785575
2219.000000	44.909898
2218.000000	44.907230
2217.000000	44.767661
2216.000000	44.798496
2215.000000	44.707771
2214.000000	44.617232
2213.000000	44.649777
2212.000000	44.517369
2211.000000	44.265159
2210.000000	44.321792
2209.000000	44.167507
2208.000000	44.131548
2207.000000	44.160533
2206.000000	44.004321
2205.000000	43.991893
2204.000000	44.013844
2203.000000	43.958885
2202.000000	43.768517
2201.000000	43.649441
2200.000000	43.577364
2199.000000	43.555375
2198.000000	43.535548
2197.000000	43.394377
2196.000000	43.252943
2195.000000	43.185959
2194.000000	43.093509
2193.000000	42.957528
2192.000000	42.948791
2191.000000	42.988475
2190.000000	42.821041
2189.000000	42.808757
2188.000000	42.740674
2187.000000	42.710013
2186.000000	42.632814
2185.000000	42.422755
2184.000000	42.431612
2183.000000	42.481451
2182.000000	42.386726
2181.000000	42.386684
2180.000000	42.458707
2179.000000	42.310853
2178.000000	42.304443
2177.000000	42.355272
2176.000000	42.348204
2175.000000	42.444059
2174.000000	42.526128
2173.000000	42.641524
2172.000000	42.576960
2171.000000	42.532343
2170.000000	42.592017
2169.000000	42.715987
2168.000000	42.766378
2167.000000	42.892472
2166.000000	43.077225
2165.000000	43.164650
2164.000000	43.238197
2163.000000	43.306669
2162.000000	43.493337
2161.000000	43.647884
2160.000000	43.720640
2159.000000	43.848092
2158.000000	43.915967
2157.000000	44.254252
2156.000000	44.272355
2155.000000	44.401674
2154.000000	44.756770
2153.000000	44.999929
2152.000000	44.954537
2151.000000	45.194324
2150.000000	45.556377
2149.000000	45.535839
2148.000000	45.589234
2147.000000	45.952131
2146.000000	45.865185
2145.000000	46.023620
2144.000000	46.326454
2143.000000	46.314385
2142.000000	46.597261
2141.000000	46.724305
2140.000000	46.750640
2139.000000	46.984333
2138.000000	47.352993
2137.000000	47.281957
2136.000000	47.543049
2135.000000	47.510704
2134.000000	47.721201
2133.000000	47.657355
2132.000000	47.683029
2131.000000	47.979929
2130.000000	48.182375
2129.000000	48.124837
2128.000000	48.033270
2127.000000	48.083399
2126.000000	48.279012
2125.000000	48.282880
2124.000000	48.535151
2123.000000	48.443322
2122.000000	48.581737
2121.000000	48.604939
2120.000000	48.690851
2119.000000	48.632521
2118.000000	48.688705
2117.000000	48.648507
2116.000000	48.698688
2115.000000	48.789436
2114.000000	48.824198
2113.000000	48.873565
2112.000000	48.813102
2111.000000	48.719409
2110.000000	48.822720
2109.000000	48.981204
2108.000000	48.973396
2107.000000	49.098404
2106.000000	49.017395
2105.000000	48.880624
2104.000000	48.904047
2103.000000	49.020731
2102.000000	49.084224
2101.000000	49.107752
2100.000000	49.167430
2099.000000	49.062558
2098.000000	49.094712
2097.000000	49.134115
2096.000000	49.080207
2095.000000	49.039053
2094.000000	49.124872
2093.000000	49.081335
2092.000000	49.011532
2091.000000	49.022664
2090.000000	48.956797
2089.000000	49.020048
2088.000000	48.974425
2087.000000	49.011643
2086.000000	48.849973
2085.000000	48.841473
2084.000000	48.724796
2083.000000	48.644813
2082.000000	48.578137
2081.000000	48.530858
2080.000000	48.497041
2079.000000	48.470856
2078.000000	48.292633
2077.000000	48.159286
2076.000000	48.123076
2075.000000	48.031404
2074.000000	47.946534
2073.000000	47.814847
2072.000000	47.657882
2071.000000	47.549964
2070.000000	47.460930
2069.000000	47.283590
2068.000000	47.148091
2067.000000	46.961893
2066.000000	46.774048
2065.000000	46.663852
2064.000000	46.496726
2063.000000	46.316384
2062.000000	46.212327
2061.000000	46.009074
2060.000000	45.791892
2059.000000	45.670013
2058.000000	45.578598
2057.000000	45.516625
2056.000000	45.313373
2055.000000	45.080631
2054.000000	44.897850
2053.000000	44.820855
2052.000000	44.679994
2051.000000	44.526404
2050.000000	44.480486
2049.000000	44.354858
2048.000000	44.288017
2047.000000	44.239277
2046.000000	44.116357
2045.000000	43.953726
2044.000000	43.934965
2043.000000	43.971103
2042.000000	43.974060
2041.000000	44.020423
2040.000000	44.002062
2039.000000	44.017625
2038.000000	44.066122
2037.000000	44.120833
2036.000000	44.223240
2035.000000	44.368778
2034.000000	44.472764
2033.000000	44.566742
2032.000000	44.695586
2031.000000	44.778322
2030.000000	44.883918
2029.000000	45.064373
2028.000000	45.194460
2027.000000	45.285945
2026.000000	45.425904
2025.000000	45.569773
2024.000000	45.658233
2023.000000	45.722403
2022.000000	45.815263
2021.000000	45.917347
2020.000000	46.011756
2019.000000	46.051004
2018.000000	46.087981
2017.000000	46.127927
2016.000000	46.153518
2015.000000	46.199812
2014.000000	46.197450
2013.000000	46.171534
2012.000000	46.143249
2011.000000	46.105576
2010.000000	46.069497
2009.000000	46.043263
2008.000000	46.024022
2007.000000	45.947761
2006.000000	45.855402
2005.000000	45.773640
2004.000000	45.735310
2003.000000	45.681354
2002.000000	45.535229
2001.000000	45.436168
2000.000000	45.407520
1999.000000	45.302381
1998.000000	45.171801
1997.000000	45.087912
1996.000000	45.020953
1995.000000	44.921139
1994.000000	44.796271
1993.000000	44.686956
1992.000000	44.571030
1991.000000	44.491339
1990.000000	44.423424
1989.000000	44.327652
1988.000000	44.201977
1987.000000	44.095471
1986.000000	43.956123
1985.000000	43.839677
1984.000000	43.785910
1983.000000	43.656242
1982.000000	43.539174
1981.000000	43.439553
1980.000000	43.290086
1979.000000	43.172042
1978.000000	43.072388
1977.000000	42.965973
1976.000000	42.840906
1975.000000	42.779354
1974.000000	42.663202
1973.000000	42.596515
1972.000000	42.494784
1971.000000	42.358153
1970.000000	42.248580
1969.000000	42.157655
1968.000000	42.044180
1967.000000	41.901848
1966.000000	41.811463
1965.000000	41.696357
1964.000000	41.659837
1963.000000	41.518116
1962.000000	41.447041
1961.000000	41.319305
1960.000000	41.234119
1959.000000	41.117001
1958.000000	41.043395
1957.000000	40.936927
1956.000000	40.838331
1955.000000	40.775320
1954.000000	40.699183
1953.000000	40.612307
1952.000000	40.589668
1951.000000	40.534647
1950.000000	40.437276
1949.000000	40.405204
1948.000000	40.415953
1947.000000	40.353450
1946.000000	40.300788
1945.000000	40.278294
1944.000000	40.268734
1943.000000	40.299477
1942.000000	40.339438
1941.000000	40.365257
1940.000000	40.421608
1939.000000	40.477639
1938.000000	40.611369
1937.000000	40.638700
1936.000000	40.773621
1935.000000	40.838663
1934.000000	41.013354
1933.000000	41.153183
1932.000000	41.142450
1931.000000	41.383793
1930.000000	41.607149
1929.000000	41.797938
1928.000000	42.014687
1927.000000	42.252100
1926.000000	42.450183
1925.000000	42.693607
1924.000000	42.952002
1923.000000	43.238206
1922.000000	43.501121
1921.000000	43.885463
1920.000000	44.084644
1919.000000	44.481454
1918.000000	44.737850
1917.000000	45.145369
1916.000000	45.249780
1915.000000	45.835449
1914.000000	46.152271
1913.000000	46.612302
1912.000000	46.971827
1911.000000	47.398621
1910.000000	47.806707
1909.000000	48.202005
1908.000000	48.645856
1907.000000	49.111590
1906.000000	49.490556
1905.000000	49.933350
1904.000000	50.468149
1903.000000	50.883098
1902.000000	51.408706
1901.000000	51.940027
1900.000000	52.341973
1899.000000	52.824237
1898.000000	53.336537
1897.000000	53.707885
1896.000000	54.219073
1895.000000	54.648209
1894.000000	55.117847
1893.000000	55.564652
1892.000000	55.980769
1891.000000	56.363581
1890.000000	56.807021
1889.000000	57.187400
1888.000000	57.598993
1887.000000	57.902428
1886.000000	58.295027
1885.000000	58.616982
1884.000000	58.981720
1883.000000	59.290185
1882.000000	59.585165
1881.000000	59.863921
1880.000000	60.144083
1879.000000	60.426809
1878.000000	60.650793
1877.000000	60.891595
1876.000000	61.062157
1875.000000	61.306404
1874.000000	61.486947
1873.000000	61.664995
1872.000000	61.826845
1871.000000	62.013800
1870.000000	62.132659
1869.000000	62.262383
1868.000000	62.333722
1867.000000	62.442963
1866.000000	62.576340
1865.000000	62.599773
1864.000000	62.698188
1863.000000	62.711880
1862.000000	62.804760
1861.000000	62.865257
1860.000000	62.915061
1859.000000	62.955003
1858.000000	62.960693
1857.000000	62.960931
1856.000000	63.009760
1855.000000	63.080994
1854.000000	63.142308
1853.000000	63.120266
1852.000000	63.143944
1851.000000	63.164750
1850.000000	63.165431
1849.000000	63.140865
1848.000000	63.146277
1847.000000	63.125359
1846.000000	63.099470
1845.000000	63.112869
1844.000000	63.091675
1843.000000	63.058471
1842.000000	63.052472
1841.000000	63.024021
1840.000000	62.982976
1839.000000	62.991911
1838.000000	62.940834
1837.000000	62.871370
1836.000000	62.878039
1835.000000	62.841185
1834.000000	62.783070
1833.000000	62.755126
1832.000000	62.717739
1831.000000	62.672991
1830.000000	62.611062
1829.000000	62.596620
1828.000000	62.578566
1827.000000	62.501774
1826.000000	62.466876
1825.000000	62.470781
1824.000000	62.434519
1823.000000	62.385183
1822.000000	62.354794
1821.000000	62.310546
1820.000000	62.273759
1819.000000	62.235703
1818.000000	62.200022
1817.000000	62.165499
1816.000000	62.139839
1815.000000	62.095805
1814.000000	62.049081
1813.000000	62.025423
1812.000000	61.993106
1811.000000	61.989744
1810.000000	61.969422
1809.000000	61.942431
1808.000000	61.926291
1807.000000	61.895344
1806.000000	61.852376
1805.000000	61.804035
1804.000000	61.768178
1803.000000	61.758943
1802.000000	61.734241
1801.000000	61.724616
1800.000000	61.709697
1799.000000	61.667364
1798.000000	61.633654
1797.000000	61.608207
1796.000000	61.580435
1795.000000	61.572956
1794.000000	61.571666
1793.000000	61.540891
1792.000000	61.511835
1791.000000	61.498098
1790.000000	61.483060
1789.000000	61.458950
1788.000000	61.429181
1787.000000	61.386274
1786.000000	61.350139
1785.000000	61.322869
1784.000000	61.303356
1783.000000	61.283967
1782.000000	61.241842
1781.000000	61.209805
1780.000000	61.168893
1779.000000	61.132688
1778.000000	61.087644
1777.000000	61.033753
1776.000000	61.030214
1775.000000	60.957951
1774.000000	60.902944
1773.000000	60.888733
1772.000000	60.790242
1771.000000	60.719592
1770.000000	60.664322
1769.000000	60.606387
1768.000000	60.553062
1767.000000	60.525100
1766.000000	60.500382
1765.000000	60.453730
1764.000000	60.396952
1763.000000	60.353696
1762.000000	60.273779
1761.000000	60.239326
1760.000000	60.161435
1759.000000	60.104449
1758.000000	60.078596
1757.000000	60.013464
1756.000000	59.971974
1755.000000	59.934615
1754.000000	59.872185
1753.000000	59.801854
1752.000000	59.747374
1751.000000	59.719288
1750.000000	59.674133
1749.000000	59.598941
1748.000000	59.527104
1747.000000	59.482106
1746.000000	59.429099
1745.000000	59.361358
1744.000000	59.339917
1743.000000	59.296857
1742.000000	59.236328
1741.000000	59.194828
1740.000000	59.155622
1739.000000	59.119616
1738.000000	59.084167
1737.000000	59.042074
1736.000000	59.034773
1735.000000	59.001661
1734.000000	58.993904
1733.000000	58.981865
1732.000000	58.998342
1731.000000	59.021028
1730.000000	58.993470
1729.000000	59.044916
1728.000000	59.109365
1727.000000	59.171571
1726.000000	59.235303
1725.000000	59.289128
1724.000000	59.374521
1723.000000	59.435328
1722.000000	59.517480
1721.000000	59.598195
1720.000000	59.698452
1719.000000	59.795146
1718.000000	59.885649
1717.000000	59.960236
1716.000000	60.035761
1715.000000	60.103987
1714.000000	60.166488
1713.000000	60.234923
1712.000000	60.304106
1711.000000	60.404123
1710.000000	60.432231
1709.000000	60.475830
1708.000000	60.523281
1707.000000	60.576144
1706.000000	60.603837
1705.000000	60.634081
1704.000000	60.650336
1703.000000	60.685832
1702.000000	60.626771
1701.000000	60.711439
1700.000000	60.695101
1699.000000	60.684623
1698.000000	60.755069
1697.000000	60.781164
1696.000000	60.797606
1695.000000	60.761723
1694.000000	60.807699
1693.000000	60.890876
1692.000000	60.928755
1691.000000	60.988518
1690.000000	61.070458
1689.000000	61.109386
1688.000000	61.209032
1687.000000	61.303704
1686.000000	61.419871
1685.000000	61.519249
1684.000000	61.680699
1683.000000	61.791301
1682.000000	61.956321
1681.000000	62.101357
1680.000000	62.221613
1679.000000	62.365051
1678.000000	62.527761
1677.000000	62.661592
1676.000000	62.838736
1675.000000	62.996478
1674.000000	63.157435
1673.000000	63.317550
1672.000000	63.451036
1671.000000	63.561169
1670.000000	63.697862
1669.000000	63.858963
1668.000000	63.913858
1667.000000	64.077719
1666.000000	64.154966
1665.000000	64.253308
1664.000000	64.314760
1663.000000	64.383837
1662.000000	64.465561
1661.000000	64.531595
1660.000000	64.612679
1659.000000	64.619002
1658.000000	64.672927
1657.000000	64.705811
1656.000000	64.766858
1655.000000	64.797352
1654.000000	64.818501
1653.000000	64.841939
1652.000000	64.850104
1651.000000	64.835784
1650.000000	64.847397
1649.000000	64.849498
1648.000000	64.804610
1647.000000	64.834694
1646.000000	64.835110
1645.000000	64.826408
1644.000000	64.793881
1643.000000	64.779430
1642.000000	64.750983
1641.000000	64.714561
1640.000000	64.693744
1639.000000	64.691275
1638.000000	64.680693
1637.000000	64.680874
1636.000000	64.647669
1635.000000	64.605206
1634.000000	64.559912
1633.000000	64.524378
1632.000000	64.504227
1631.000000	64.471228
1630.000000	64.420701
1629.000000	64.375838
1628.000000	64.357220
1627.000000	64.308933
1626.000000	64.272147
1625.000000	64.235280
1624.000000	64.201692
1623.000000	64.184777
1622.000000	64.144006
1621.000000	64.074508
1620.000000	64.038801
1619.000000	64.007378
1618.000000	63.955480
1617.000000	63.911215
1616.000000	63.867108
1615.000000	63.828177
1614.000000	63.779541
1613.000000	63.716501
1612.000000	63.667700
1611.000000	63.615201
1610.000000	63.569771
1609.000000	63.537359
1608.000000	63.488545
1607.000000	63.437753
1606.000000	63.383283
1605.000000	63.335346
1604.000000	63.273201
1603.000000	63.201307
1602.000000	63.150718
1601.000000	63.108732
1600.000000	63.064930
1599.000000	63.001154
1598.000000	62.947740
1597.000000	62.912843
1596.000000	62.845979
1595.000000	62.796699
1594.000000	62.757738
1593.000000	62.706615
1592.000000	62.669843
1591.000000	62.634237
1590.000000	62.582412
1589.000000	62.516207
1588.000000	62.485240
1587.000000	62.447720
1586.000000	62.403301
1585.000000	62.369595
1584.000000	62.337467
1583.000000	62.296351
1582.000000	62.242973
1581.000000	62.196590
1580.000000	62.159942
1579.000000	62.128462
1578.000000	62.088901
1577.000000	62.047038
1576.000000	62.009589
1575.000000	61.969631
1574.000000	61.932941
1573.000000	61.895642
1572.000000	61.858496
1571.000000	61.828560
1570.000000	61.794287
1569.000000	61.757674
1568.000000	61.720297
1567.000000	61.681385
1566.000000	61.662985
1565.000000	61.640496
1564.000000	61.597381
1563.000000	61.581846
1562.000000	61.545201
1561.000000	61.515222
1560.000000	61.529934
1559.000000	61.499352
1558.000000	61.475838
1557.000000	61.471619
1556.000000	61.462642
1555.000000	61.458294
1554.000000	61.426444
1553.000000	61.406749
1552.000000	61.381451
1551.000000	61.342405
1550.000000	61.315241
1549.000000	61.281886
1548.000000	61.241232
1547.000000	61.191413
1546.000000	61.139067
1545.000000	61.086805
1544.000000	61.023955
1543.000000	60.974093
1542.000000	60.906487
1541.000000	60.837523
1540.000000	60.745979
1539.000000	60.672581
1538.000000	60.606586
1537.000000	60.519847
1536.000000	60.426735
1535.000000	60.354608
1534.000000	60.292520
1533.000000	60.224084
1532.000000	60.124863
1531.000000	60.052371
1530.000000	59.991419
1529.000000	59.901370
1528.000000	59.837676
1527.000000	59.761283
1526.000000	59.708666
1525.000000	59.673231
1524.000000	59.606741
1523.000000	59.556882
1522.000000	59.491803
1521.000000	59.436164
1520.000000	59.407295
1519.000000	59.389882
1518.000000	59.339620
1517.000000	59.272948
1516.000000	59.251422
1515.000000	59.223023
1514.000000	59.172878
1513.000000	59.146347
1512.000000	59.143485
1511.000000	59.100742
1510.000000	59.085921
1509.000000	59.089341
1508.000000	59.048314
1507.000000	59.020493
1506.000000	59.028519
1505.000000	59.007055
1504.000000	58.990206
1503.000000	58.993753
1502.000000	58.989009
1501.000000	58.984613
1500.000000	59.004795
1499.000000	58.992092
1498.000000	59.015888
1497.000000	59.019465
1496.000000	59.023840
1495.000000	59.059646
1494.000000	59.098421
1493.000000	59.117700
1492.000000	59.151118
1491.000000	59.207369
1490.000000	59.238374
1489.000000	59.307489
1488.000000	59.348767
1487.000000	59.392660
1486.000000	59.462362
1485.000000	59.499356
1484.000000	59.562270
1483.000000	59.643406
1482.000000	59.702077
1481.000000	59.765102
1480.000000	59.845545
1479.000000	59.905062
1478.000000	59.954189
1477.000000	60.035170
1476.000000	60.093494
1475.000000	60.154164
1474.000000	60.196911
1473.000000	60.244088
1472.000000	60.333490
1471.000000	60.383070
1470.000000	60.423982
