PE UV       SUBTECH     SPECTRUM    ASCII       PEDS        4.00        
   -1
RDAgneauUK 42.Sample.asc
18/03/05
11:56:11.00
18/03/05
11:56:11.00
Administrator

200.000000
1
Lambda 750
750N8071901
PerkinElmer UV WinLab 6.0.4.0738 / 1.61.00 Lambda 900

0
0
3350/servo 860.8/2
0
0
UV/VIS
1
1
1
CommonBeamDepol,150mm sphere / downward view
0
0
0
0
Program
Program
3350/servo 860.8/2
3350/0.2 860.8/0.2
3350/0.2 860.8/0.2
0
1
 
 
 
0
 
860.8
319.2
860.8
Front
100
on
 
 
0
0
0
 
0
 
 
 
0
 
 
0
0
0
0
0
 
 
 
 
0
0


0
0
#HDR
-1
-1
#GR
nm
%R
1.0
0.0
2350.000000
-1.000000
2151
8
69.629638
16.907284
#DATA
2350.000000	41.554790
2349.000000	41.620496
2348.000000	41.686885
2347.000000	42.205140
2346.000000	42.030509
2345.000000	41.602911
2344.000000	41.699905
2343.000000	41.526192
2342.000000	41.607158
2341.000000	41.872223
2340.000000	42.055440
2339.000000	41.938012
2338.000000	42.320934
2337.000000	42.410366
2336.000000	42.038775
2335.000000	42.067909
2334.000000	41.861305
2333.000000	42.225515
2332.000000	42.415641
2331.000000	41.909473
2330.000000	41.969686
2329.000000	42.077815
2328.000000	41.991482
2327.000000	41.716741
2326.000000	41.922437
2325.000000	41.787991
2324.000000	42.078013
2323.000000	41.867647
2322.000000	41.796252
2321.000000	41.884731
2320.000000	42.182735
2319.000000	41.671861
2318.000000	41.526107
2317.000000	41.766204
2316.000000	41.628686
2315.000000	41.461912
2314.000000	41.206637
2313.000000	41.083074
2312.000000	41.118774
2311.000000	41.469321
2310.000000	41.196006
2309.000000	40.993956
2308.000000	40.981474
2307.000000	40.976339
2306.000000	40.982510
2305.000000	40.659831
2304.000000	40.717396
2303.000000	40.879810
2302.000000	40.704647
2301.000000	40.528430
2300.000000	40.230457
2299.000000	40.266059
2298.000000	40.222880
2297.000000	39.878966
2296.000000	40.032613
2295.000000	39.990983
2294.000000	39.623304
2293.000000	39.700312
2292.000000	39.578146
2291.000000	39.448435
2290.000000	39.535873
2289.000000	39.413533
2288.000000	39.487114
2287.000000	39.528899
2286.000000	39.359648
2285.000000	39.248171
2284.000000	39.247863
2283.000000	39.183046
2282.000000	39.068840
2281.000000	39.086372
2280.000000	39.313988
2279.000000	39.302794
2278.000000	39.116832
2277.000000	39.074359
2276.000000	39.094908
2275.000000	39.117357
2274.000000	39.261459
2273.000000	39.393903
2272.000000	39.412134
2271.000000	39.341288
2270.000000	39.334279
2269.000000	39.510397
2268.000000	39.741810
2267.000000	39.785807
2266.000000	39.780897
2265.000000	39.977375
2264.000000	40.038884
2263.000000	40.165794
2262.000000	40.190532
2261.000000	40.277414
2260.000000	40.408169
2259.000000	40.592471
2258.000000	40.849817
2257.000000	41.124974
2256.000000	41.252980
2255.000000	41.469445
2254.000000	41.768523
2253.000000	41.858706
2252.000000	42.016772
2251.000000	42.238943
2250.000000	42.494983
2249.000000	42.669876
2248.000000	42.794649
2247.000000	43.029549
2246.000000	43.267804
2245.000000	43.429094
2244.000000	43.609150
2243.000000	43.892718
2242.000000	44.071180
2241.000000	44.177447
2240.000000	44.234562
2239.000000	44.230027
2238.000000	44.331982
2237.000000	44.489863
2236.000000	44.585286
2235.000000	44.699328
2234.000000	44.815442
2233.000000	44.907289
2232.000000	44.920366
2231.000000	44.825434
2230.000000	44.886430
2229.000000	45.094091
2228.000000	45.265854
2227.000000	45.260318
2226.000000	45.137813
2225.000000	45.175326
2224.000000	45.273827
2223.000000	45.161555
2222.000000	45.189050
2221.000000	45.149776
2220.000000	45.143237
2219.000000	45.268096
2218.000000	45.086010
2217.000000	45.029055
2216.000000	45.045064
2215.000000	44.994043
2214.000000	44.949576
2213.000000	45.034838
2212.000000	44.879109
2211.000000	44.622909
2210.000000	44.677180
2209.000000	44.669075
2208.000000	44.659833
2207.000000	44.584339
2206.000000	44.365675
2205.000000	44.378506
2204.000000	44.281127
2203.000000	44.154696
2202.000000	44.064594
2201.000000	44.102745
2200.000000	44.043973
2199.000000	43.990760
2198.000000	43.851131
2197.000000	43.904327
2196.000000	43.690747
2195.000000	43.632338
2194.000000	43.582651
2193.000000	43.529932
2192.000000	43.464698
2191.000000	43.314324
2190.000000	43.312900
2189.000000	43.401006
2188.000000	43.264422
2187.000000	42.962085
2186.000000	43.048866
2185.000000	42.905484
2184.000000	42.941862
2183.000000	43.083628
2182.000000	42.923323
2181.000000	42.965154
2180.000000	42.892946
2179.000000	42.787062
2178.000000	42.714482
2177.000000	42.923573
2176.000000	42.726248
2175.000000	42.952484
2174.000000	43.003773
2173.000000	42.810406
2172.000000	43.066497
2171.000000	43.158012
2170.000000	43.118924
2169.000000	43.169351
2168.000000	43.272156
2167.000000	43.369204
2166.000000	43.476727
2165.000000	43.710924
2164.000000	43.853613
2163.000000	43.777652
2162.000000	43.886533
2161.000000	44.002543
2160.000000	44.223707
2159.000000	44.302436
2158.000000	44.420429
2157.000000	44.582745
2156.000000	44.584009
2155.000000	44.931992
2154.000000	45.118553
2153.000000	45.296498
2152.000000	45.465728
2151.000000	45.472427
2150.000000	45.691335
2149.000000	45.699885
2148.000000	45.829453
2147.000000	46.006817
2146.000000	46.263745
2145.000000	46.437783
2144.000000	46.576866
2143.000000	46.684085
2142.000000	47.011357
2141.000000	46.926226
2140.000000	47.014875
2139.000000	47.134598
2138.000000	47.466169
2137.000000	47.518765
2136.000000	47.550713
2135.000000	47.805582
2134.000000	47.749854
2133.000000	47.692038
2132.000000	48.009852
2131.000000	47.912939
2130.000000	48.129095
2129.000000	48.219364
2128.000000	48.073209
2127.000000	48.288870
2126.000000	48.251251
2125.000000	48.366545
2124.000000	48.422715
2123.000000	48.363999
2122.000000	48.576185
2121.000000	48.668369
2120.000000	48.627010
2119.000000	48.660475
2118.000000	48.746144
2117.000000	48.776381
2116.000000	48.703225
2115.000000	48.796906
2114.000000	48.750549
2113.000000	48.820094
2112.000000	48.941200
2111.000000	48.772521
2110.000000	48.839376
2109.000000	48.940897
2108.000000	48.855711
2107.000000	49.006381
2106.000000	49.001417
2105.000000	48.955088
2104.000000	48.954313
2103.000000	49.126513
2102.000000	49.151820
2101.000000	49.083906
2100.000000	49.007425
2099.000000	49.026594
2098.000000	49.184629
2097.000000	49.020032
2096.000000	48.977603
2095.000000	49.082732
2094.000000	49.036124
2093.000000	48.982296
2092.000000	49.062117
2091.000000	48.884907
2090.000000	48.929907
2089.000000	49.029454
2088.000000	48.897303
2087.000000	48.909337
2086.000000	48.886488
2085.000000	48.800116
2084.000000	48.715898
2083.000000	48.691146
2082.000000	48.609989
2081.000000	48.518120
2080.000000	48.494815
2079.000000	48.459624
2078.000000	48.235279
2077.000000	48.199517
2076.000000	48.110339
2075.000000	48.070458
2074.000000	47.970496
2073.000000	47.829108
2072.000000	47.742437
2071.000000	47.652260
2070.000000	47.533218
2069.000000	47.428295
2068.000000	47.309249
2067.000000	47.160101
2066.000000	47.010080
2065.000000	46.908672
2064.000000	46.711093
2063.000000	46.469697
2062.000000	46.376278
2061.000000	46.250755
2060.000000	46.084361
2059.000000	45.951176
2058.000000	45.819537
2057.000000	45.679070
2056.000000	45.551642
2055.000000	45.346940
2054.000000	45.138471
2053.000000	45.051507
2052.000000	44.931078
2051.000000	44.824252
2050.000000	44.720271
2049.000000	44.613454
2048.000000	44.537718
2047.000000	44.457544
2046.000000	44.370796
2045.000000	44.320280
2044.000000	44.284062
2043.000000	44.277694
2042.000000	44.279220
2041.000000	44.259163
2040.000000	44.326212
2039.000000	44.387832
2038.000000	44.380199
2037.000000	44.353351
2036.000000	44.459512
2035.000000	44.578612
2034.000000	44.699762
2033.000000	44.800322
2032.000000	44.895064
2031.000000	45.013796
2030.000000	45.128552
2029.000000	45.258704
2028.000000	45.369893
2027.000000	45.478014
2026.000000	45.617900
2025.000000	45.695905
2024.000000	45.760426
2023.000000	45.884832
2022.000000	45.990726
2021.000000	46.075109
2020.000000	46.119596
2019.000000	46.131825
2018.000000	46.203188
2017.000000	46.254715
2016.000000	46.253638
2015.000000	46.259264
2014.000000	46.223212
2013.000000	46.216974
2012.000000	46.186464
2011.000000	46.141390
2010.000000	46.088574
2009.000000	46.066507
2008.000000	46.021281
2007.000000	45.939948
2006.000000	45.882702
2005.000000	45.839821
2004.000000	45.770134
2003.000000	45.691505
2002.000000	45.609748
2001.000000	45.529273
2000.000000	45.429446
1999.000000	45.333756
1998.000000	45.187940
1997.000000	45.068223
1996.000000	45.039734
1995.000000	44.972325
1994.000000	44.839221
1993.000000	44.750233
1992.000000	44.678193
1991.000000	44.568028
1990.000000	44.452279
1989.000000	44.354375
1988.000000	44.259187
1987.000000	44.160902
1986.000000	44.050377
1985.000000	43.955955
1984.000000	43.884427
1983.000000	43.766855
1982.000000	43.657625
1981.000000	43.571626
1980.000000	43.436635
1979.000000	43.308040
1978.000000	43.246756
1977.000000	43.145301
1976.000000	43.059184
1975.000000	42.926050
1974.000000	42.837092
1973.000000	42.764808
1972.000000	42.660525
1971.000000	42.517564
1970.000000	42.366406
1969.000000	42.318723
1968.000000	42.215824
1967.000000	42.139601
1966.000000	42.054940
1965.000000	41.965067
1964.000000	41.793798
1963.000000	41.737895
1962.000000	41.629952
1961.000000	41.502276
1960.000000	41.397524
1959.000000	41.300548
1958.000000	41.254154
1957.000000	41.158665
1956.000000	41.041541
1955.000000	40.979960
1954.000000	40.968756
1953.000000	40.850707
1952.000000	40.777327
1951.000000	40.682991
1950.000000	40.644168
1949.000000	40.685369
1948.000000	40.683285
1947.000000	40.596810
1946.000000	40.541180
1945.000000	40.556080
1944.000000	40.583715
1943.000000	40.592742
1942.000000	40.590678
1941.000000	40.576279
1940.000000	40.614463
1939.000000	40.694194
1938.000000	40.826774
1937.000000	40.942670
1936.000000	41.020985
1935.000000	41.024066
1934.000000	41.149576
1933.000000	41.353819
1932.000000	41.438871
1931.000000	41.631537
1930.000000	41.792391
1929.000000	41.983961
1928.000000	42.114858
1927.000000	42.377416
1926.000000	42.619204
1925.000000	42.752652
1924.000000	43.075624
1923.000000	43.237598
1922.000000	43.566653
1921.000000	43.923680
1920.000000	44.130221
1919.000000	44.451367
1918.000000	44.751221
1917.000000	45.014049
1916.000000	45.249273
1915.000000	45.708576
1914.000000	46.093474
1913.000000	46.366324
1912.000000	46.765094
1911.000000	47.051379
1910.000000	47.467133
1909.000000	47.890434
1908.000000	48.327801
1907.000000	48.627454
1906.000000	49.047676
1905.000000	49.457929
1904.000000	49.983018
1903.000000	50.359029
1902.000000	50.741288
1901.000000	51.238866
1900.000000	51.611988
1899.000000	52.076096
1898.000000	52.513189
1897.000000	52.886570
1896.000000	53.308441
1895.000000	53.703552
1894.000000	54.116165
1893.000000	54.500689
1892.000000	54.911881
1891.000000	55.216968
1890.000000	55.660663
1889.000000	55.940408
1888.000000	56.301949
1887.000000	56.612244
1886.000000	56.918130
1885.000000	57.175862
1884.000000	57.502381
1883.000000	57.798332
1882.000000	58.103410
1881.000000	58.308984
1880.000000	58.630415
1879.000000	58.836304
1878.000000	59.081747
1877.000000	59.325865
1876.000000	59.451055
1875.000000	59.650164
1874.000000	59.771675
1873.000000	59.881325
1872.000000	60.018071
1871.000000	60.255791
1870.000000	60.322987
1869.000000	60.429958
1868.000000	60.539213
1867.000000	60.653033
1866.000000	60.730310
1865.000000	60.807028
1864.000000	60.861074
1863.000000	60.857969
1862.000000	60.918593
1861.000000	60.975323
1860.000000	61.021445
1859.000000	61.102414
1858.000000	61.109259
1857.000000	61.080761
1856.000000	61.127445
1855.000000	61.180070
1854.000000	61.209775
1853.000000	61.258594
1852.000000	61.263728
1851.000000	61.266325
1850.000000	61.215124
1849.000000	61.219155
1848.000000	61.246518
1847.000000	61.238649
1846.000000	61.203176
1845.000000	61.208612
1844.000000	61.217616
1843.000000	61.169418
1842.000000	61.159815
1841.000000	61.153791
1840.000000	61.127730
1839.000000	61.095216
1838.000000	61.120322
1837.000000	61.057658
1836.000000	61.028172
1835.000000	60.986229
1834.000000	60.919564
1833.000000	60.912829
1832.000000	60.870927
1831.000000	60.814810
1830.000000	60.786845
1829.000000	60.793381
1828.000000	60.752408
1827.000000	60.698327
1826.000000	60.680666
1825.000000	60.667082
1824.000000	60.631679
1823.000000	60.586644
1822.000000	60.553961
1821.000000	60.531627
1820.000000	60.498621
1819.000000	60.473942
1818.000000	60.464951
1817.000000	60.437795
1816.000000	60.397409
1815.000000	60.372333
1814.000000	60.352538
1813.000000	60.313035
1812.000000	60.285205
1811.000000	60.273104
1810.000000	60.254807
1809.000000	60.246229
1808.000000	60.217612
1807.000000	60.181100
1806.000000	60.162943
1805.000000	60.114909
1804.000000	60.096066
1803.000000	60.098919
1802.000000	60.061344
1801.000000	60.036450
1800.000000	59.993116
1799.000000	59.972344
1798.000000	59.975532
1797.000000	59.959087
1796.000000	59.931678
1795.000000	59.918415
1794.000000	59.923539
1793.000000	59.886875
1792.000000	59.854431
1791.000000	59.833601
1790.000000	59.795733
1789.000000	59.787217
1788.000000	59.786517
1787.000000	59.760650
1786.000000	59.733754
1785.000000	59.731307
1784.000000	59.685435
1783.000000	59.665957
1782.000000	59.649276
1781.000000	59.623600
1780.000000	59.602902
1779.000000	59.579896
1778.000000	59.513481
1777.000000	59.490221
1776.000000	59.475448
1775.000000	59.396874
1774.000000	59.356125
1773.000000	59.343570
1772.000000	59.292022
1771.000000	59.252094
1770.000000	59.189901
1769.000000	59.132350
1768.000000	59.105674
1767.000000	59.084000
1766.000000	59.037565
1765.000000	58.965839
1764.000000	58.942431
1763.000000	58.903866
1762.000000	58.849030
1761.000000	58.794801
1760.000000	58.720217
1759.000000	58.721032
1758.000000	58.675136
1757.000000	58.628014
1756.000000	58.582446
1755.000000	58.552258
1754.000000	58.506600
1753.000000	58.462268
1752.000000	58.405264
1751.000000	58.360603
1750.000000	58.348165
1749.000000	58.345084
1748.000000	58.268615
1747.000000	58.192294
1746.000000	58.140994
1745.000000	58.106312
1744.000000	58.075706
1743.000000	58.046510
1742.000000	57.963847
1741.000000	57.953837
1740.000000	57.880311
1739.000000	57.873791
1738.000000	57.830846
1737.000000	57.792896
1736.000000	57.782316
1735.000000	57.769981
1734.000000	57.763745
1733.000000	57.773649
1732.000000	57.810490
1731.000000	57.817188
1730.000000	57.794544
1729.000000	57.846595
1728.000000	57.901926
1727.000000	57.922935
1726.000000	57.994051
1725.000000	58.021482
1724.000000	58.080570
1723.000000	58.175369
1722.000000	58.248077
1721.000000	58.305577
1720.000000	58.359939
1719.000000	58.459239
1718.000000	58.535612
1717.000000	58.558459
1716.000000	58.658934
1715.000000	58.717395
1714.000000	58.798240
1713.000000	58.860224
1712.000000	58.934239
1711.000000	58.955650
1710.000000	59.017450
1709.000000	59.051080
1708.000000	59.065143
1707.000000	59.112283
1706.000000	59.160074
1705.000000	59.183686
1704.000000	59.184065
1703.000000	59.195683
1702.000000	59.209828
1701.000000	59.249346
1700.000000	59.256237
1699.000000	59.266327
1698.000000	59.311728
1697.000000	59.333109
1696.000000	59.368734
1695.000000	59.368919
1694.000000	59.413812
1693.000000	59.444424
1692.000000	59.447924
1691.000000	59.510836
1690.000000	59.554067
1689.000000	59.608729
1688.000000	59.656760
1687.000000	59.759003
1686.000000	59.860929
1685.000000	59.980799
1684.000000	60.074528
1683.000000	60.153120
1682.000000	60.307240
1681.000000	60.432642
1680.000000	60.510181
1679.000000	60.656180
1678.000000	60.780799
1677.000000	60.875102
1676.000000	61.051634
1675.000000	61.168694
1674.000000	61.298132
1673.000000	61.447428
1672.000000	61.566074
1671.000000	61.661910
1670.000000	61.793057
1669.000000	61.908995
1668.000000	61.967651
1667.000000	62.066776
1666.000000	62.142256
1665.000000	62.250209
1664.000000	62.312378
1663.000000	62.351367
1662.000000	62.426130
1661.000000	62.472591
1660.000000	62.545332
1659.000000	62.564304
1658.000000	62.612485
1657.000000	62.624031
1656.000000	62.661612
1655.000000	62.698432
1654.000000	62.727863
1653.000000	62.736179
1652.000000	62.755373
1651.000000	62.724857
1650.000000	62.733551
1649.000000	62.717292
1648.000000	62.716694
1647.000000	62.718351
1646.000000	62.716874
1645.000000	62.724904
1644.000000	62.693174
1643.000000	62.675758
1642.000000	62.662382
1641.000000	62.659198
1640.000000	62.620522
1639.000000	62.612752
1638.000000	62.591915
1637.000000	62.608226
1636.000000	62.555377
1635.000000	62.522945
1634.000000	62.505822
1633.000000	62.485020
1632.000000	62.449148
1631.000000	62.426638
1630.000000	62.399191
1629.000000	62.374119
1628.000000	62.343685
1627.000000	62.293974
1626.000000	62.254388
1625.000000	62.228042
1624.000000	62.205592
1623.000000	62.161888
1622.000000	62.140514
1621.000000	62.100920
1620.000000	62.063970
1619.000000	62.029398
1618.000000	61.989611
1617.000000	61.953172
1616.000000	61.917909
1615.000000	61.877100
1614.000000	61.833248
1613.000000	61.807681
1612.000000	61.761278
1611.000000	61.720055
1610.000000	61.687410
1609.000000	61.639483
1608.000000	61.602307
1607.000000	61.554359
1606.000000	61.511020
1605.000000	61.473932
1604.000000	61.423261
1603.000000	61.371461
1602.000000	61.334307
1601.000000	61.281319
1600.000000	61.230736
1599.000000	61.185627
1598.000000	61.146636
1597.000000	61.114887
1596.000000	61.064085
1595.000000	61.035043
1594.000000	60.999040
1593.000000	60.955196
1592.000000	60.930890
1591.000000	60.878025
1590.000000	60.839568
1589.000000	60.795931
1588.000000	60.756327
1587.000000	60.732853
1586.000000	60.693918
1585.000000	60.656622
1584.000000	60.629587
1583.000000	60.604265
1582.000000	60.566073
1581.000000	60.520425
1580.000000	60.495491
1579.000000	60.475268
1578.000000	60.440954
1577.000000	60.405196
1576.000000	60.370348
1575.000000	60.336978
1574.000000	60.305927
1573.000000	60.270125
1572.000000	60.233027
1571.000000	60.200721
1570.000000	60.172200
1569.000000	60.150319
1568.000000	60.129578
1567.000000	60.083910
1566.000000	60.079368
1565.000000	60.051885
1564.000000	60.014258
1563.000000	60.012779
1562.000000	59.997688
1561.000000	59.965418
1560.000000	59.955026
1559.000000	59.923894
1558.000000	59.915162
1557.000000	59.890712
1556.000000	59.882224
1555.000000	59.874493
1554.000000	59.846882
1553.000000	59.838927
1552.000000	59.816442
1551.000000	59.774390
1550.000000	59.748609
1549.000000	59.729904
1548.000000	59.695497
1547.000000	59.654813
1546.000000	59.623556
1545.000000	59.577646
1544.000000	59.522279
1543.000000	59.471525
1542.000000	59.420659
1541.000000	59.352848
1540.000000	59.293651
1539.000000	59.215240
1538.000000	59.160658
1537.000000	59.096920
1536.000000	59.023108
1535.000000	58.963794
1534.000000	58.909726
1533.000000	58.851325
1532.000000	58.785165
1531.000000	58.702123
1530.000000	58.646761
1529.000000	58.568590
1528.000000	58.507927
1527.000000	58.452396
1526.000000	58.405949
1525.000000	58.372727
1524.000000	58.302977
1523.000000	58.261056
1522.000000	58.231199
1521.000000	58.174405
1520.000000	58.123652
1519.000000	58.121212
1518.000000	58.101371
1517.000000	58.036379
1516.000000	58.028679
1515.000000	58.001605
1514.000000	57.943952
1513.000000	57.930769
1512.000000	57.911052
1511.000000	57.883186
1510.000000	57.884263
1509.000000	57.894416
1508.000000	57.846153
1507.000000	57.838766
1506.000000	57.811555
1505.000000	57.800691
1504.000000	57.806349
1503.000000	57.811926
1502.000000	57.810229
1501.000000	57.794916
1500.000000	57.788865
1499.000000	57.792409
1498.000000	57.788056
1497.000000	57.838688
1496.000000	57.825827
1495.000000	57.856305
1494.000000	57.870331
1493.000000	57.911494
1492.000000	57.926926
1491.000000	57.969218
1490.000000	57.990464
1489.000000	58.029521
1488.000000	58.099533
1487.000000	58.123557
1486.000000	58.166494
1485.000000	58.207336
1484.000000	58.250561
1483.000000	58.327375
1482.000000	58.351393
1481.000000	58.427768
1480.000000	58.478428
1479.000000	58.508469
1478.000000	58.562204
1477.000000	58.647043
1476.000000	58.688644
1475.000000	58.718472
1474.000000	58.754292
1473.000000	58.814494
1472.000000	58.886387
1471.000000	58.908943
1470.000000	58.949614
