PE UV       SUBTECH     SPECTRUM    ASCII       PEDS        4.00        
   -1
RDChevreUK 12.Sample.asc
18/03/05
13:35:56.00
18/03/05
13:35:56.00
Administrator

200.000000
1
Lambda 750
750N8071901
PerkinElmer UV WinLab 6.0.4.0738 / 1.61.00 Lambda 900

0
0
3350/servo 860.8/2
0
0
UV/VIS
1
1
1
CommonBeamDepol,150mm sphere / downward view
0
0
0
0
Program
Program
3350/servo 860.8/2
3350/0.2 860.8/0.2
3350/0.2 860.8/0.2
0
1
 
 
 
0
 
860.8
319.2
860.8
Front
100
on
 
 
0
0
0
 
0
 
 
 
0
 
 
0
0
0
0
0
 
 
 
 
0
0


0
0
#HDR
-1
-1
#GR
nm
%R
1.0
0.0
2350.000000
-1.000000
2151
8
62.931119
9.815558
#DATA
2350.000000	13.207420
2349.000000	12.847870
2348.000000	12.722266
2347.000000	13.443690
2346.000000	13.736394
2345.000000	13.248699
2344.000000	12.945679
2343.000000	13.060159
2342.000000	13.070719
2341.000000	13.080907
2340.000000	13.646298
2339.000000	13.621054
2338.000000	13.792682
2337.000000	13.805832
2336.000000	14.086624
2335.000000	13.867278
2334.000000	13.953130
2333.000000	14.181074
2332.000000	14.478922
2331.000000	13.879196
2330.000000	13.564551
2329.000000	14.186522
2328.000000	13.801645
2327.000000	14.137310
2326.000000	13.816619
2325.000000	13.727700
2324.000000	13.676046
2323.000000	13.753068
2322.000000	13.794589
2321.000000	13.527587
2320.000000	13.503747
2319.000000	13.347854
2318.000000	13.473418
2317.000000	13.589460
2316.000000	13.511653
2315.000000	13.595251
2314.000000	13.202890
2313.000000	13.138017
2312.000000	13.023233
2311.000000	13.112657
2310.000000	13.101884
2309.000000	13.137030
2308.000000	12.722539
2307.000000	12.730018
2306.000000	13.046928
2305.000000	12.795660
2304.000000	12.781885
2303.000000	12.678381
2302.000000	12.407941
2301.000000	12.768130
2300.000000	12.595361
2299.000000	12.696400
2298.000000	12.426762
2297.000000	12.393964
2296.000000	12.441907
2295.000000	12.528142
2294.000000	12.665533
2293.000000	12.463365
2292.000000	12.428197
2291.000000	12.291029
2290.000000	12.212225
2289.000000	12.244019
2288.000000	12.323491
2287.000000	12.472391
2286.000000	12.181406
2285.000000	12.077858
2284.000000	12.099366
2283.000000	12.051961
2282.000000	11.981112
2281.000000	12.240964
2280.000000	12.428623
2279.000000	12.397236
2278.000000	12.135777
2277.000000	12.186564
2276.000000	12.315066
2275.000000	12.303144
2274.000000	12.272821
2273.000000	12.410538
2272.000000	12.569859
2271.000000	12.415034
2270.000000	12.245088
2269.000000	12.524767
2268.000000	12.581419
2267.000000	12.649294
2266.000000	12.644254
2265.000000	12.860429
2264.000000	13.144544
2263.000000	13.051829
2262.000000	13.053826
2261.000000	13.215906
2260.000000	13.333124
2259.000000	13.522056
2258.000000	13.851224
2257.000000	13.942052
2256.000000	13.966085
2255.000000	14.079701
2254.000000	14.203369
2253.000000	14.368201
2252.000000	14.636164
2251.000000	14.731220
2250.000000	14.764060
2249.000000	15.008420
2248.000000	15.111848
2247.000000	15.270680
2246.000000	15.384997
2245.000000	15.610975
2244.000000	15.800337
2243.000000	15.944617
2242.000000	16.153264
2241.000000	16.283043
2240.000000	16.360305
2239.000000	16.477416
2238.000000	16.539787
2237.000000	16.572800
2236.000000	16.689318
2235.000000	16.835438
2234.000000	16.951844
2233.000000	16.795482
2232.000000	16.780430
2231.000000	16.927399
2230.000000	17.041922
2229.000000	17.127359
2228.000000	17.173913
2227.000000	17.222534
2226.000000	17.033985
2225.000000	16.922668
2224.000000	16.930575
2223.000000	16.823192
2222.000000	16.963805
2221.000000	17.035750
2220.000000	16.903453
2219.000000	16.851021
2218.000000	16.887288
2217.000000	16.948511
2216.000000	17.070970
2215.000000	16.976980
2214.000000	16.774967
2213.000000	16.799107
2212.000000	16.783904
2211.000000	16.467759
2210.000000	16.396324
2209.000000	16.445746
2208.000000	16.220838
2207.000000	16.191182
2206.000000	16.164764
2205.000000	16.202011
2204.000000	16.279539
2203.000000	16.093669
2202.000000	16.043630
2201.000000	15.903818
2200.000000	15.937128
2199.000000	15.957897
2198.000000	15.898710
2197.000000	15.810765
2196.000000	15.573961
2195.000000	15.735638
2194.000000	15.632414
2193.000000	15.456121
2192.000000	15.502922
2191.000000	15.445729
2190.000000	15.334449
2189.000000	15.308270
2188.000000	15.282914
2187.000000	15.222026
2186.000000	15.243319
2185.000000	15.219642
2184.000000	15.197553
2183.000000	15.136178
2182.000000	15.077146
2181.000000	14.938611
2180.000000	15.005355
2179.000000	14.828798
2178.000000	14.811420
2177.000000	15.054981
2176.000000	14.824393
2175.000000	15.142199
2174.000000	14.894404
2173.000000	14.986536
2172.000000	15.159779
2171.000000	15.343613
2170.000000	15.266794
2169.000000	15.163730
2168.000000	15.308154
2167.000000	15.368141
2166.000000	15.349015
2165.000000	15.416957
2164.000000	15.648682
2163.000000	15.553751
2162.000000	15.546235
2161.000000	15.633819
2160.000000	15.920341
2159.000000	15.954309
2158.000000	16.037014
2157.000000	16.243347
2156.000000	16.351840
2155.000000	16.444804
2154.000000	16.660782
2153.000000	16.637797
2152.000000	16.831787
2151.000000	16.876429
2150.000000	17.294822
2149.000000	17.047204
2148.000000	17.154756
2147.000000	17.346541
2146.000000	17.562426
2145.000000	17.852863
2144.000000	17.895896
2143.000000	17.988646
2142.000000	18.149586
2141.000000	18.374766
2140.000000	18.535718
2139.000000	18.531308
2138.000000	18.702138
2137.000000	18.894177
2136.000000	18.765998
2135.000000	18.950557
2134.000000	19.141125
2133.000000	18.879688
2132.000000	18.970352
2131.000000	19.120106
2130.000000	19.457190
2129.000000	19.560412
2128.000000	19.306135
2127.000000	19.501864
2126.000000	19.581887
2125.000000	19.607114
2124.000000	19.806303
2123.000000	19.769258
2122.000000	19.945325
2121.000000	20.017696
2120.000000	20.116450
2119.000000	20.106952
2118.000000	20.148008
2117.000000	20.068340
2116.000000	20.245057
2115.000000	20.224800
2114.000000	20.342986
2113.000000	20.059819
2112.000000	20.198142
2111.000000	20.290641
2110.000000	20.189354
2109.000000	20.332480
2108.000000	20.501251
2107.000000	20.483107
2106.000000	20.411569
2105.000000	20.411761
2104.000000	20.423100
2103.000000	20.518626
2102.000000	20.586093
2101.000000	20.481039
2100.000000	20.641110
2099.000000	20.555424
2098.000000	20.498619
2097.000000	20.620233
2096.000000	20.504446
2095.000000	20.467249
2094.000000	20.512792
2093.000000	20.497926
2092.000000	20.440711
2091.000000	20.512844
2090.000000	20.518230
2089.000000	20.484322
2088.000000	20.443990
2087.000000	20.393319
2086.000000	20.354855
2085.000000	20.341951
2084.000000	20.251785
2083.000000	20.179505
2082.000000	20.108014
2081.000000	19.989991
2080.000000	19.955292
2079.000000	19.960130
2078.000000	19.768804
2077.000000	19.664406
2076.000000	19.665150
2075.000000	19.629096
2074.000000	19.394258
2073.000000	19.175985
2072.000000	19.217780
2071.000000	19.139300
2070.000000	19.039529
2069.000000	18.922078
2068.000000	18.799774
2067.000000	18.670206
2066.000000	18.486381
2065.000000	18.369267
2064.000000	18.209692
2063.000000	18.013445
2062.000000	17.938873
2061.000000	17.759410
2060.000000	17.636873
2059.000000	17.540585
2058.000000	17.477252
2057.000000	17.352848
2056.000000	17.244119
2055.000000	17.152352
2054.000000	17.017830
2053.000000	16.878014
2052.000000	16.701073
2051.000000	16.620889
2050.000000	16.572927
2049.000000	16.512434
2048.000000	16.428226
2047.000000	16.389757
2046.000000	16.411502
2045.000000	16.376710
2044.000000	16.353440
2043.000000	16.328907
2042.000000	16.336668
2041.000000	16.460883
2040.000000	16.513419
2039.000000	16.489196
2038.000000	16.542336
2037.000000	16.602354
2036.000000	16.667949
2035.000000	16.762140
2034.000000	16.838715
2033.000000	16.977194
2032.000000	17.091499
2031.000000	17.174579
2030.000000	17.293310
2029.000000	17.410537
2028.000000	17.494287
2027.000000	17.599511
2026.000000	17.716444
2025.000000	17.806889
2024.000000	17.906122
2023.000000	18.024837
2022.000000	18.130581
2021.000000	18.197793
2020.000000	18.260219
2019.000000	18.308549
2018.000000	18.327044
2017.000000	18.351789
2016.000000	18.374191
2015.000000	18.420575
2014.000000	18.452793
2013.000000	18.457030
2012.000000	18.437457
2011.000000	18.430259
2010.000000	18.339271
2009.000000	18.307580
2008.000000	18.262468
2007.000000	18.192915
2006.000000	18.186016
2005.000000	18.152732
2004.000000	18.025284
2003.000000	17.938833
2002.000000	17.928119
2001.000000	17.855188
2000.000000	17.765953
1999.000000	17.677042
1998.000000	17.581135
1997.000000	17.548290
1996.000000	17.495493
1995.000000	17.441527
1994.000000	17.312088
1993.000000	17.228137
1992.000000	17.161933
1991.000000	17.079166
1990.000000	17.031279
1989.000000	16.919704
1988.000000	16.838534
1987.000000	16.814681
1986.000000	16.683645
1985.000000	16.583614
1984.000000	16.500828
1983.000000	16.423655
1982.000000	16.334695
1981.000000	16.324260
1980.000000	16.211160
1979.000000	16.119105
1978.000000	16.087355
1977.000000	16.005405
1976.000000	15.927392
1975.000000	15.824233
1974.000000	15.738284
1973.000000	15.720897
1972.000000	15.653882
1971.000000	15.579048
1970.000000	15.537985
1969.000000	15.508998
1968.000000	15.422303
1967.000000	15.417638
1966.000000	15.347095
1965.000000	15.242911
1964.000000	15.185631
1963.000000	15.115556
1962.000000	15.065964
1961.000000	14.997482
1960.000000	14.921243
1959.000000	14.857190
1958.000000	14.881223
1957.000000	14.801599
1956.000000	14.725778
1955.000000	14.724898
1954.000000	14.691560
1953.000000	14.650845
1952.000000	14.596468
1951.000000	14.600521
1950.000000	14.652801
1949.000000	14.587066
1948.000000	14.579995
1947.000000	14.557330
1946.000000	14.438592
1945.000000	14.571243
1944.000000	14.461310
1943.000000	14.547003
1942.000000	14.574861
1941.000000	14.518914
1940.000000	14.666677
1939.000000	14.712293
1938.000000	14.777967
1937.000000	14.903212
1936.000000	15.008516
1935.000000	15.063371
1934.000000	15.123172
1933.000000	15.282144
1932.000000	15.379611
1931.000000	15.509365
1930.000000	15.566124
1929.000000	15.716906
1928.000000	15.915877
1927.000000	16.147828
1926.000000	16.257127
1925.000000	16.470642
1924.000000	16.678792
1923.000000	16.991445
1922.000000	17.246615
1921.000000	17.481198
1920.000000	17.567355
1919.000000	17.899516
1918.000000	18.170408
1917.000000	18.471116
1916.000000	18.715064
1915.000000	19.169208
1914.000000	19.482752
1913.000000	19.850447
1912.000000	20.186201
1911.000000	20.556804
1910.000000	20.988021
1909.000000	21.262140
1908.000000	21.792831
1907.000000	22.223901
1906.000000	22.685854
1905.000000	23.216438
1904.000000	23.693567
1903.000000	24.175693
1902.000000	24.752963
1901.000000	25.335857
1900.000000	25.816635
1899.000000	26.406693
1898.000000	26.939000
1897.000000	27.551877
1896.000000	28.073001
1895.000000	28.580945
1894.000000	29.161046
1893.000000	29.697824
1892.000000	30.304244
1891.000000	30.794230
1890.000000	31.343323
1889.000000	31.854903
1888.000000	32.401748
1887.000000	32.846795
1886.000000	33.371437
1885.000000	33.856705
1884.000000	34.307703
1883.000000	34.823159
1882.000000	35.207873
1881.000000	35.559177
1880.000000	36.058123
1879.000000	36.451439
1878.000000	36.779440
1877.000000	37.202083
1876.000000	37.594785
1875.000000	37.911289
1874.000000	38.151943
1873.000000	38.411909
1872.000000	38.674598
1871.000000	38.962523
1870.000000	39.170398
1869.000000	39.399318
1868.000000	39.544881
1867.000000	39.729424
1866.000000	39.852354
1865.000000	39.936793
1864.000000	40.080222
1863.000000	40.149334
1862.000000	40.294016
1861.000000	40.364718
1860.000000	40.465000
1859.000000	40.532117
1858.000000	40.519508
1857.000000	40.566754
1856.000000	40.621937
1855.000000	40.702525
1854.000000	40.709794
1853.000000	40.721560
1852.000000	40.742890
1851.000000	40.719809
1850.000000	40.726272
1849.000000	40.722600
1848.000000	40.721791
1847.000000	40.693930
1846.000000	40.658595
1845.000000	40.639856
1844.000000	40.635076
1843.000000	40.588203
1842.000000	40.534991
1841.000000	40.482635
1840.000000	40.417448
1839.000000	40.408812
1838.000000	40.329483
1837.000000	40.240788
1836.000000	40.188118
1835.000000	40.098996
1834.000000	39.998865
1833.000000	39.968750
1832.000000	39.930757
1831.000000	39.859519
1830.000000	39.794472
1829.000000	39.738994
1828.000000	39.681315
1827.000000	39.610459
1826.000000	39.554015
1825.000000	39.485136
1824.000000	39.421761
1823.000000	39.360231
1822.000000	39.291694
1821.000000	39.221312
1820.000000	39.172218
1819.000000	39.132155
1818.000000	39.088905
1817.000000	39.031143
1816.000000	38.977106
1815.000000	38.901589
1814.000000	38.837386
1813.000000	38.811900
1812.000000	38.796920
1811.000000	38.747510
1810.000000	38.694136
1809.000000	38.647058
1808.000000	38.575766
1807.000000	38.530146
1806.000000	38.485490
1805.000000	38.404872
1804.000000	38.360329
1803.000000	38.334656
1802.000000	38.288095
1801.000000	38.240356
1800.000000	38.205220
1799.000000	38.176587
1798.000000	38.130197
1797.000000	38.082253
1796.000000	38.043237
1795.000000	38.010997
1794.000000	37.985916
1793.000000	37.951064
1792.000000	37.905870
1791.000000	37.856703
1790.000000	37.815809
1789.000000	37.797550
1788.000000	37.751315
1787.000000	37.705704
1786.000000	37.668879
1785.000000	37.628378
1784.000000	37.584108
1783.000000	37.523982
1782.000000	37.450534
1781.000000	37.383923
1780.000000	37.325437
1779.000000	37.277654
1778.000000	37.199354
1777.000000	37.099203
1776.000000	36.999137
1775.000000	36.909976
1774.000000	36.806077
1773.000000	36.741300
1772.000000	36.640075
1771.000000	36.542737
1770.000000	36.441059
1769.000000	36.335486
1768.000000	36.228446
1767.000000	36.134029
1766.000000	36.056620
1765.000000	35.955466
1764.000000	35.883061
1763.000000	35.786218
1762.000000	35.719559
1761.000000	35.608581
1760.000000	35.505467
1759.000000	35.428315
1758.000000	35.321392
1757.000000	35.236410
1756.000000	35.189049
1755.000000	35.126033
1754.000000	34.980085
1753.000000	34.865691
1752.000000	34.787243
1751.000000	34.708297
1750.000000	34.590194
1749.000000	34.509325
1748.000000	34.389402
1747.000000	34.289659
1746.000000	34.183474
1745.000000	34.088317
1744.000000	34.010714
1743.000000	33.944203
1742.000000	33.802539
1741.000000	33.693994
1740.000000	33.633255
1739.000000	33.532271
1738.000000	33.459055
1737.000000	33.407232
1736.000000	33.373207
1735.000000	33.322369
1734.000000	33.318037
1733.000000	33.265302
1732.000000	33.227974
1731.000000	33.264795
1730.000000	33.289241
1729.000000	33.329476
1728.000000	33.413024
1727.000000	33.462333
1726.000000	33.574332
1725.000000	33.666728
1724.000000	33.794030
1723.000000	33.927922
1722.000000	34.067371
1721.000000	34.193624
1720.000000	34.292304
1719.000000	34.465307
1718.000000	34.596116
1717.000000	34.745299
1716.000000	34.873735
1715.000000	34.986542
1714.000000	35.188289
1713.000000	35.269032
1712.000000	35.417661
1711.000000	35.495979
1710.000000	35.584638
1709.000000	35.656919
1708.000000	35.755036
1707.000000	35.797094
1706.000000	35.864360
1705.000000	35.932296
1704.000000	36.014341
1703.000000	36.046947
1702.000000	36.055290
1701.000000	36.137836
1700.000000	36.137672
1699.000000	36.197400
1698.000000	36.271756
1697.000000	36.339276
1696.000000	36.432877
1695.000000	36.438356
1694.000000	36.521396
1693.000000	36.659455
1692.000000	36.770166
1691.000000	36.926508
1690.000000	37.078442
1689.000000	37.221684
1688.000000	37.408204
1687.000000	37.579613
1686.000000	37.822639
1685.000000	38.027710
1684.000000	38.285804
1683.000000	38.550646
1682.000000	38.841572
1681.000000	39.104023
1680.000000	39.354406
1679.000000	39.657596
1678.000000	39.958242
1677.000000	40.254366
1676.000000	40.575377
1675.000000	40.888744
1674.000000	41.183307
1673.000000	41.460240
1672.000000	41.757261
1671.000000	42.027873
1670.000000	42.273140
1669.000000	42.556339
1668.000000	42.751246
1667.000000	42.973161
1666.000000	43.191621
1665.000000	43.350148
1664.000000	43.521681
1663.000000	43.646109
1662.000000	43.778006
1661.000000	43.927450
1660.000000	44.046254
1659.000000	44.137557
1658.000000	44.264857
1657.000000	44.323622
1656.000000	44.392707
1655.000000	44.430409
1654.000000	44.503591
1653.000000	44.544537
1652.000000	44.561675
1651.000000	44.578114
1650.000000	44.587189
1649.000000	44.571068
1648.000000	44.544800
1647.000000	44.559280
1646.000000	44.524863
1645.000000	44.508651
1644.000000	44.500407
1643.000000	44.450364
1642.000000	44.414469
1641.000000	44.393081
1640.000000	44.336581
1639.000000	44.285735
1638.000000	44.246299
1637.000000	44.188378
1636.000000	44.136711
1635.000000	44.087203
1634.000000	44.029865
1633.000000	43.950269
1632.000000	43.901991
1631.000000	43.815193
1630.000000	43.745694
1629.000000	43.690598
1628.000000	43.626697
1627.000000	43.549618
1626.000000	43.482333
1625.000000	43.424958
1624.000000	43.329289
1623.000000	43.261399
1622.000000	43.199054
1621.000000	43.093913
1620.000000	43.014486
1619.000000	42.935336
1618.000000	42.854853
1617.000000	42.776896
1616.000000	42.690932
1615.000000	42.593881
1614.000000	42.500383
1613.000000	42.410736
1612.000000	42.303958
1611.000000	42.208286
1610.000000	42.119310
1609.000000	42.029650
1608.000000	41.948794
1607.000000	41.849326
1606.000000	41.728837
1605.000000	41.631908
1604.000000	41.524873
1603.000000	41.436609
1602.000000	41.349221
1601.000000	41.235989
1600.000000	41.143368
1599.000000	41.036586
1598.000000	40.946502
1597.000000	40.868606
1596.000000	40.766903
1595.000000	40.674273
1594.000000	40.601611
1593.000000	40.513416
1592.000000	40.418720
1591.000000	40.336371
1590.000000	40.261832
1589.000000	40.169968
1588.000000	40.075921
1587.000000	40.007669
1586.000000	39.933191
1585.000000	39.853840
1584.000000	39.784220
1583.000000	39.707757
1582.000000	39.630482
1581.000000	39.569940
1580.000000	39.515665
1579.000000	39.448259
1578.000000	39.384697
1577.000000	39.308248
1576.000000	39.227779
1575.000000	39.166948
1574.000000	39.090941
1573.000000	39.014952
1572.000000	38.949268
1571.000000	38.885446
1570.000000	38.856840
1569.000000	38.796030
1568.000000	38.723023
1567.000000	38.645777
1566.000000	38.583152
1565.000000	38.548750
1564.000000	38.508187
1563.000000	38.472008
1562.000000	38.429852
1561.000000	38.397866
1560.000000	38.350379
1559.000000	38.295374
1558.000000	38.264861
1557.000000	38.250292
1556.000000	38.201740
1555.000000	38.181636
1554.000000	38.151507
1553.000000	38.092992
1552.000000	38.027615
1551.000000	37.980765
1550.000000	37.920811
1549.000000	37.850955
1548.000000	37.791961
1547.000000	37.712319
1546.000000	37.607878
1545.000000	37.516708
1544.000000	37.432588
1543.000000	37.327201
1542.000000	37.212343
1541.000000	37.088596
1540.000000	36.966722
1539.000000	36.846359
1538.000000	36.725895
1537.000000	36.594141
1536.000000	36.446354
1535.000000	36.330879
1534.000000	36.194516
1533.000000	36.088181
1532.000000	35.949446
1531.000000	35.835224
1530.000000	35.709975
1529.000000	35.584014
1528.000000	35.474433
1527.000000	35.366518
1526.000000	35.254499
1525.000000	35.165535
1524.000000	35.061071
1523.000000	34.991765
1522.000000	34.896226
1521.000000	34.823338
1520.000000	34.744458
1519.000000	34.710930
1518.000000	34.630823
1517.000000	34.562870
1516.000000	34.498629
1515.000000	34.447836
1514.000000	34.379213
1513.000000	34.327264
1512.000000	34.295611
1511.000000	34.260658
1510.000000	34.241009
1509.000000	34.222634
1508.000000	34.180490
1507.000000	34.157975
1506.000000	34.133416
1505.000000	34.113333
1504.000000	34.117229
1503.000000	34.139681
1502.000000	34.109042
1501.000000	34.105566
1500.000000	34.116056
1499.000000	34.120814
1498.000000	34.150333
1497.000000	34.173745
1496.000000	34.181642
1495.000000	34.241536
1494.000000	34.294285
1493.000000	34.346856
1492.000000	34.407621
1491.000000	34.461095
1490.000000	34.521065
1489.000000	34.615494
1488.000000	34.707126
1487.000000	34.795714
1486.000000	34.871194
1485.000000	34.995082
1484.000000	35.072340
1483.000000	35.204032
1482.000000	35.294034
1481.000000	35.408775
1480.000000	35.535821
1479.000000	35.634864
1478.000000	35.712895
1477.000000	35.817284
1476.000000	35.938468
1475.000000	36.027430
1474.000000	36.123661
1473.000000	36.228918
1472.000000	36.327150
1471.000000	36.403554
1470.000000	36.506241
