PE UV       SUBTECH     SPECTRUM    ASCII       PEDS        4.00        
   -1
RDChevreUK 42.Sample.asc
18/03/05
14:05:51.00
18/03/05
14:05:51.00
Administrator

200.000000
1
Lambda 750
750N8071901
PerkinElmer UV WinLab 6.0.4.0738 / 1.61.00 Lambda 900

0
0
3350/servo 860.8/2
0
0
UV/VIS
1
1
1
CommonBeamDepol,150mm sphere / downward view
0
0
0
0
Program
Program
3350/servo 860.8/2
3350/0.2 860.8/0.2
3350/0.2 860.8/0.2
0
1
 
 
 
0
 
860.8
319.2
860.8
Front
100
on
 
 
0
0
0
 
0
 
 
 
0
 
 
0
0
0
0
0
 
 
 
 
0
0


0
0
#HDR
-1
-1
#GR
nm
%R
1.0
0.0
2350.000000
-1.000000
2151
8
58.311305
10.414542
#DATA
2350.000000	14.670948
2349.000000	14.877400
2348.000000	14.615995
2347.000000	15.012804
2346.000000	14.805861
2345.000000	14.606844
2344.000000	14.504240
2343.000000	14.246885
2342.000000	14.683930
2341.000000	14.916774
2340.000000	15.172601
2339.000000	14.934997
2338.000000	15.077419
2337.000000	14.958248
2336.000000	15.436398
2335.000000	15.419448
2334.000000	15.465326
2333.000000	15.686316
2332.000000	15.857095
2331.000000	15.480467
2330.000000	15.410005
2329.000000	15.555077
2328.000000	15.263556
2327.000000	15.211488
2326.000000	15.462250
2325.000000	15.610450
2324.000000	15.455588
2323.000000	15.536217
2322.000000	15.555251
2321.000000	15.501810
2320.000000	15.367386
2319.000000	14.903315
2318.000000	14.840145
2317.000000	14.777018
2316.000000	14.539084
2315.000000	14.649825
2314.000000	14.733895
2313.000000	14.677789
2312.000000	14.456419
2311.000000	14.590947
2310.000000	14.550546
2309.000000	14.330771
2308.000000	14.545670
2307.000000	14.404706
2306.000000	14.345044
2305.000000	14.132310
2304.000000	14.100014
2303.000000	14.295722
2302.000000	14.150934
2301.000000	14.013645
2300.000000	13.999982
2299.000000	14.041519
2298.000000	14.003535
2297.000000	13.703435
2296.000000	13.869327
2295.000000	13.855335
2294.000000	13.859894
2293.000000	14.064430
2292.000000	13.982076
2291.000000	13.911254
2290.000000	13.854830
2289.000000	13.762433
2288.000000	13.798138
2287.000000	13.845575
2286.000000	13.770624
2285.000000	13.657512
2284.000000	13.668810
2283.000000	13.641107
2282.000000	13.690443
2281.000000	13.793610
2280.000000	13.735239
2279.000000	13.871234
2278.000000	13.880742
2277.000000	13.868234
2276.000000	13.952546
2275.000000	13.851143
2274.000000	13.935586
2273.000000	14.199019
2272.000000	14.071232
2271.000000	14.068698
2270.000000	14.105887
2269.000000	14.204953
2268.000000	14.272303
2267.000000	14.225353
2266.000000	14.266320
2265.000000	14.506670
2264.000000	14.676984
2263.000000	14.572203
2262.000000	14.606212
2261.000000	14.795607
2260.000000	14.853140
2259.000000	14.924067
2258.000000	15.297044
2257.000000	15.412641
2256.000000	15.320694
2255.000000	15.509427
2254.000000	15.721873
2253.000000	15.745952
2252.000000	15.986754
2251.000000	16.277610
2250.000000	16.502093
2249.000000	16.590709
2248.000000	16.667326
2247.000000	16.741415
2246.000000	16.871375
2245.000000	17.090003
2244.000000	17.334344
2243.000000	17.597399
2242.000000	17.586456
2241.000000	17.570008
2240.000000	17.803033
2239.000000	17.858116
2238.000000	17.840547
2237.000000	17.988107
2236.000000	18.036447
2235.000000	18.096487
2234.000000	18.246830
2233.000000	18.348661
2232.000000	18.465199
2231.000000	18.476193
2230.000000	18.393043
2229.000000	18.440516
2228.000000	18.507994
2227.000000	18.411102
2226.000000	18.410996
2225.000000	18.345789
2224.000000	18.364980
2223.000000	18.364061
2222.000000	18.320512
2221.000000	18.424830
2220.000000	18.439402
2219.000000	18.363300
2218.000000	18.338007
2217.000000	18.200510
2216.000000	18.097510
2215.000000	18.207705
2214.000000	18.202568
2213.000000	18.115105
2212.000000	18.045994
2211.000000	18.007919
2210.000000	17.937388
2209.000000	17.955519
2208.000000	17.914653
2207.000000	17.941547
2206.000000	17.808691
2205.000000	17.778548
2204.000000	17.562254
2203.000000	17.507803
2202.000000	17.609677
2201.000000	17.538082
2200.000000	17.444821
2199.000000	17.430066
2198.000000	17.377033
2197.000000	17.363375
2196.000000	17.130710
2195.000000	17.071329
2194.000000	17.005008
2193.000000	17.017830
2192.000000	16.902820
2191.000000	16.745783
2190.000000	16.719951
2189.000000	16.709110
2188.000000	16.658788
2187.000000	16.622415
2186.000000	16.835658
2185.000000	16.669848
2184.000000	16.699327
2183.000000	16.801827
2182.000000	16.742193
2181.000000	16.723002
2180.000000	16.541085
2179.000000	16.477386
2178.000000	16.364375
2177.000000	16.405138
2176.000000	16.501392
2175.000000	16.455960
2174.000000	16.468271
2173.000000	16.376275
2172.000000	16.436897
2171.000000	16.699195
2170.000000	16.803018
2169.000000	16.998993
2168.000000	17.062129
2167.000000	16.887336
2166.000000	16.957235
2165.000000	17.011411
2164.000000	16.924050
2163.000000	17.059304
2162.000000	17.327983
2161.000000	17.494388
2160.000000	17.640155
2159.000000	17.645664
2158.000000	17.822287
2157.000000	17.973731
2156.000000	18.102442
2155.000000	17.970463
2154.000000	18.030331
2153.000000	18.360578
2152.000000	18.397019
2151.000000	18.493704
2150.000000	18.471390
2149.000000	18.468460
2148.000000	18.731468
2147.000000	18.907815
2146.000000	19.033657
2145.000000	19.277487
2144.000000	19.297554
2143.000000	19.530423
2142.000000	19.559829
2141.000000	19.822250
2140.000000	19.665610
2139.000000	19.928279
2138.000000	20.065686
2137.000000	20.308163
2136.000000	20.146760
2135.000000	20.251252
2134.000000	20.269578
2133.000000	20.391209
2132.000000	20.503563
2131.000000	20.771078
2130.000000	20.872339
2129.000000	20.801475
2128.000000	20.831068
2127.000000	20.917756
2126.000000	21.059183
2125.000000	21.134319
2124.000000	21.060676
2123.000000	21.179200
2122.000000	21.406795
2121.000000	21.461340
2120.000000	21.361859
2119.000000	21.281831
2118.000000	21.328678
2117.000000	21.473946
2116.000000	21.469840
2115.000000	21.659225
2114.000000	21.591780
2113.000000	21.619078
2112.000000	21.763417
2111.000000	21.674174
2110.000000	21.561106
2109.000000	21.732327
2108.000000	21.680825
2107.000000	21.616579
2106.000000	21.794487
2105.000000	21.728258
2104.000000	21.836392
2103.000000	21.906324
2102.000000	21.839393
2101.000000	21.790337
2100.000000	21.908210
2099.000000	21.829120
2098.000000	21.789417
2097.000000	21.806976
2096.000000	21.735588
2095.000000	21.762161
2094.000000	21.788144
2093.000000	21.741325
2092.000000	21.875383
2091.000000	21.793690
2090.000000	21.751736
2089.000000	21.796723
2088.000000	21.691479
2087.000000	21.711364
2086.000000	21.698332
2085.000000	21.618430
2084.000000	21.601412
2083.000000	21.393265
2082.000000	21.356207
2081.000000	21.306521
2080.000000	21.255151
2079.000000	21.148047
2078.000000	21.139027
2077.000000	21.050147
2076.000000	20.988337
2075.000000	20.919369
2074.000000	20.768122
2073.000000	20.705779
2072.000000	20.575726
2071.000000	20.418451
2070.000000	20.344347
2069.000000	20.258223
2068.000000	20.052397
2067.000000	19.957139
2066.000000	19.840223
2065.000000	19.689956
2064.000000	19.589049
2063.000000	19.448821
2062.000000	19.407752
2061.000000	19.211723
2060.000000	19.015524
2059.000000	18.973523
2058.000000	18.903054
2057.000000	18.778314
2056.000000	18.649034
2055.000000	18.570234
2054.000000	18.485754
2053.000000	18.325311
2052.000000	18.165159
2051.000000	18.149007
2050.000000	18.210800
2049.000000	18.060361
2048.000000	17.825643
2047.000000	17.768838
2046.000000	17.794810
2045.000000	17.817417
2044.000000	17.810441
2043.000000	17.838675
2042.000000	17.847380
2041.000000	17.869527
2040.000000	17.940752
2039.000000	18.003862
2038.000000	18.011102
2037.000000	18.046662
2036.000000	18.134698
2035.000000	18.223886
2034.000000	18.262851
2033.000000	18.351095
2032.000000	18.509444
2031.000000	18.587421
2030.000000	18.675008
2029.000000	18.775412
2028.000000	18.832072
2027.000000	18.973793
2026.000000	19.090726
2025.000000	19.192716
2024.000000	19.295775
2023.000000	19.337854
2022.000000	19.380424
2021.000000	19.450661
2020.000000	19.475978
2019.000000	19.511846
2018.000000	19.555378
2017.000000	19.570075
2016.000000	19.603823
2015.000000	19.632333
2014.000000	19.668245
2013.000000	19.622950
2012.000000	19.623440
2011.000000	19.609086
2010.000000	19.528260
2009.000000	19.488872
2008.000000	19.477070
2007.000000	19.406953
2006.000000	19.357153
2005.000000	19.296490
2004.000000	19.221460
2003.000000	19.147254
2002.000000	19.097675
2001.000000	19.043829
2000.000000	18.986067
1999.000000	18.932623
1998.000000	18.801012
1997.000000	18.735842
1996.000000	18.684978
1995.000000	18.527599
1994.000000	18.441689
1993.000000	18.427558
1992.000000	18.339907
1991.000000	18.269026
1990.000000	18.202434
1989.000000	18.083416
1988.000000	17.997976
1987.000000	17.898142
1986.000000	17.827083
1985.000000	17.798485
1984.000000	17.716051
1983.000000	17.624342
1982.000000	17.590624
1981.000000	17.561678
1980.000000	17.454235
1979.000000	17.341254
1978.000000	17.299495
1977.000000	17.201061
1976.000000	17.163320
1975.000000	17.091160
1974.000000	16.994545
1973.000000	16.958402
1972.000000	16.911721
1971.000000	16.892745
1970.000000	16.736364
1969.000000	16.751026
1968.000000	16.680175
1967.000000	16.660945
1966.000000	16.608362
1965.000000	16.492081
1964.000000	16.396663
1963.000000	16.370954
1962.000000	16.347460
1961.000000	16.227108
1960.000000	16.237521
1959.000000	16.148007
1958.000000	16.073054
1957.000000	16.100742
1956.000000	16.046187
1955.000000	15.987780
1954.000000	15.941240
1953.000000	15.922409
1952.000000	15.908860
1951.000000	15.889653
1950.000000	15.857303
1949.000000	15.762237
1948.000000	15.773293
1947.000000	15.792801
1946.000000	15.798948
1945.000000	15.834221
1944.000000	15.858879
1943.000000	15.954552
1942.000000	15.872359
1941.000000	15.816074
1940.000000	15.962248
1939.000000	16.064448
1938.000000	16.122728
1937.000000	16.164715
1936.000000	16.277981
1935.000000	16.313448
1934.000000	16.361130
1933.000000	16.517204
1932.000000	16.689029
1931.000000	16.764510
1930.000000	16.860185
1929.000000	17.020075
1928.000000	17.141548
1927.000000	17.373411
1926.000000	17.563971
1925.000000	17.704216
1924.000000	17.916739
1923.000000	18.163705
1922.000000	18.369677
1921.000000	18.636319
1920.000000	18.895068
1919.000000	19.009081
1918.000000	19.345065
1917.000000	19.559876
1916.000000	19.833936
1915.000000	20.260899
1914.000000	20.490708
1913.000000	20.872670
1912.000000	21.186016
1911.000000	21.543105
1910.000000	21.913461
1909.000000	22.386046
1908.000000	22.706239
1907.000000	23.137512
1906.000000	23.649788
1905.000000	24.056990
1904.000000	24.497760
1903.000000	24.964127
1902.000000	25.483351
1901.000000	26.022116
1900.000000	26.542567
1899.000000	27.053737
1898.000000	27.632357
1897.000000	28.028763
1896.000000	28.578918
1895.000000	29.130888
1894.000000	29.661075
1893.000000	30.191560
1892.000000	30.718694
1891.000000	31.183637
1890.000000	31.656344
1889.000000	32.132711
1888.000000	32.580503
1887.000000	33.075911
1886.000000	33.541383
1885.000000	33.989853
1884.000000	34.430922
1883.000000	34.826199
1882.000000	35.179914
1881.000000	35.558063
1880.000000	35.930676
1879.000000	36.255133
1878.000000	36.635814
1877.000000	36.946361
1876.000000	37.238472
1875.000000	37.613228
1874.000000	37.825852
1873.000000	38.079501
1872.000000	38.324924
1871.000000	38.507257
1870.000000	38.652251
1869.000000	38.912750
1868.000000	39.025239
1867.000000	39.153004
1866.000000	39.320938
1865.000000	39.440777
1864.000000	39.533251
1863.000000	39.638594
1862.000000	39.727011
1861.000000	39.769448
1860.000000	39.810527
1859.000000	39.864767
1858.000000	39.930019
1857.000000	39.995039
1856.000000	40.029462
1855.000000	40.050959
1854.000000	40.070714
1853.000000	40.080243
1852.000000	40.086374
1851.000000	40.116474
1850.000000	40.158293
1849.000000	40.087126
1848.000000	40.071426
1847.000000	40.073532
1846.000000	40.023123
1845.000000	40.023025
1844.000000	40.004111
1843.000000	39.944714
1842.000000	39.933941
1841.000000	39.921262
1840.000000	39.854221
1839.000000	39.813885
1838.000000	39.738480
1837.000000	39.688754
1836.000000	39.639247
1835.000000	39.562363
1834.000000	39.457171
1833.000000	39.415686
1832.000000	39.376166
1831.000000	39.288067
1830.000000	39.234234
1829.000000	39.178941
1828.000000	39.146792
1827.000000	39.107947
1826.000000	39.068129
1825.000000	39.025236
1824.000000	38.962812
1823.000000	38.868725
1822.000000	38.814865
1821.000000	38.778509
1820.000000	38.726810
1819.000000	38.672314
1818.000000	38.649660
1817.000000	38.601119
1816.000000	38.542361
1815.000000	38.503748
1814.000000	38.443660
1813.000000	38.396130
1812.000000	38.356957
1811.000000	38.327382
1810.000000	38.311103
1809.000000	38.264519
1808.000000	38.199071
1807.000000	38.173083
1806.000000	38.143867
1805.000000	38.086537
1804.000000	38.036016
1803.000000	37.978328
1802.000000	37.938327
1801.000000	37.914947
1800.000000	37.904181
1799.000000	37.875351
1798.000000	37.842574
1797.000000	37.823880
1796.000000	37.789543
1795.000000	37.766831
1794.000000	37.750237
1793.000000	37.713746
1792.000000	37.686481
1791.000000	37.665134
1790.000000	37.599904
1789.000000	37.580827
1788.000000	37.582722
1787.000000	37.533057
1786.000000	37.478471
1785.000000	37.456344
1784.000000	37.440699
1783.000000	37.381996
1782.000000	37.296893
1781.000000	37.254050
1780.000000	37.210585
1779.000000	37.165326
1778.000000	37.089663
1777.000000	36.984867
1776.000000	36.927131
1775.000000	36.847322
1774.000000	36.761998
1773.000000	36.680847
1772.000000	36.613872
1771.000000	36.521714
1770.000000	36.406636
1769.000000	36.315181
1768.000000	36.238397
1767.000000	36.157688
1766.000000	36.096432
1765.000000	35.991417
1764.000000	35.937700
1763.000000	35.882819
1762.000000	35.786582
1761.000000	35.724862
1760.000000	35.617064
1759.000000	35.535872
1758.000000	35.475030
1757.000000	35.390337
1756.000000	35.327149
1755.000000	35.252579
1754.000000	35.156077
1753.000000	35.077990
1752.000000	35.008644
1751.000000	34.911054
1750.000000	34.820867
1749.000000	34.737640
1748.000000	34.660695
1747.000000	34.565105
1746.000000	34.457401
1745.000000	34.335082
1744.000000	34.285816
1743.000000	34.190901
1742.000000	34.095353
1741.000000	34.016071
1740.000000	33.934463
1739.000000	33.872365
1738.000000	33.799060
1737.000000	33.746579
1736.000000	33.679670
1735.000000	33.658512
1734.000000	33.615602
1733.000000	33.629524
1732.000000	33.569029
1731.000000	33.590429
1730.000000	33.624960
1729.000000	33.664458
1728.000000	33.730600
1727.000000	33.780382
1726.000000	33.878095
1725.000000	33.967190
1724.000000	34.039965
1723.000000	34.184850
1722.000000	34.280800
1721.000000	34.442544
1720.000000	34.542038
1719.000000	34.696623
1718.000000	34.821427
1717.000000	34.930612
1716.000000	35.027562
1715.000000	35.178535
1714.000000	35.279451
1713.000000	35.385773
1712.000000	35.486697
1711.000000	35.598999
1710.000000	35.649813
1709.000000	35.790318
1708.000000	35.868122
1707.000000	35.959215
1706.000000	36.004848
1705.000000	36.051673
1704.000000	36.122649
1703.000000	36.126343
1702.000000	36.145301
1701.000000	36.216125
1700.000000	36.290846
1699.000000	36.271604
1698.000000	36.373271
1697.000000	36.445283
1696.000000	36.498462
1695.000000	36.521187
1694.000000	36.628212
1693.000000	36.701180
1692.000000	36.803764
1691.000000	36.926102
1690.000000	37.091538
1689.000000	37.183523
1688.000000	37.348419
1687.000000	37.537897
1686.000000	37.716544
1685.000000	37.936574
1684.000000	38.128973
1683.000000	38.380028
1682.000000	38.610224
1681.000000	38.838913
1680.000000	39.100432
1679.000000	39.347373
1678.000000	39.580956
1677.000000	39.809114
1676.000000	40.084949
1675.000000	40.359587
1674.000000	40.596699
1673.000000	40.858321
1672.000000	41.071737
1671.000000	41.310283
1670.000000	41.550579
1669.000000	41.767402
1668.000000	41.926590
1667.000000	42.125327
1666.000000	42.294896
1665.000000	42.437489
1664.000000	42.543622
1663.000000	42.703075
1662.000000	42.829166
1661.000000	42.925040
1660.000000	43.027293
1659.000000	43.129889
1658.000000	43.198866
1657.000000	43.246566
1656.000000	43.340084
1655.000000	43.392668
1654.000000	43.410133
1653.000000	43.427580
1652.000000	43.464392
1651.000000	43.469946
1650.000000	43.462896
1649.000000	43.457329
1648.000000	43.414966
1647.000000	43.419531
1646.000000	43.412475
1645.000000	43.388951
1644.000000	43.386538
1643.000000	43.357838
1642.000000	43.307367
1641.000000	43.288642
1640.000000	43.268115
1639.000000	43.208838
1638.000000	43.184613
1637.000000	43.150481
1636.000000	43.087115
1635.000000	43.032323
1634.000000	42.971719
1633.000000	42.917144
1632.000000	42.871813
1631.000000	42.810047
1630.000000	42.746962
1629.000000	42.687811
1628.000000	42.640327
1627.000000	42.584799
1626.000000	42.536206
1625.000000	42.473541
1624.000000	42.402970
1623.000000	42.336702
1622.000000	42.260513
1621.000000	42.183049
1620.000000	42.119851
1619.000000	42.042323
1618.000000	41.973377
1617.000000	41.923543
1616.000000	41.841385
1615.000000	41.761590
1614.000000	41.693477
1613.000000	41.618311
1612.000000	41.535627
1611.000000	41.467430
1610.000000	41.386796
1609.000000	41.315993
1608.000000	41.236179
1607.000000	41.138742
1606.000000	41.037785
1605.000000	40.969364
1604.000000	40.885333
1603.000000	40.796396
1602.000000	40.724576
1601.000000	40.637809
1600.000000	40.546850
1599.000000	40.449231
1598.000000	40.378966
1597.000000	40.309763
1596.000000	40.220376
1595.000000	40.154743
1594.000000	40.082533
1593.000000	40.003591
1592.000000	39.936050
1591.000000	39.864145
1590.000000	39.793456
1589.000000	39.715577
1588.000000	39.655739
1587.000000	39.589528
1586.000000	39.505110
1585.000000	39.452835
1584.000000	39.402064
1583.000000	39.337611
1582.000000	39.266886
1581.000000	39.214768
1580.000000	39.163322
1579.000000	39.103218
1578.000000	39.038637
1577.000000	38.973610
1576.000000	38.912934
1575.000000	38.864597
1574.000000	38.796273
1573.000000	38.730626
1572.000000	38.677004
1571.000000	38.620699
1570.000000	38.579815
1569.000000	38.515070
1568.000000	38.459120
1567.000000	38.412017
1566.000000	38.361659
1565.000000	38.310519
1564.000000	38.282346
1563.000000	38.256288
1562.000000	38.204316
1561.000000	38.173843
1560.000000	38.144374
1559.000000	38.099937
1558.000000	38.061841
1557.000000	38.024332
1556.000000	38.006495
1555.000000	37.988719
1554.000000	37.940432
1553.000000	37.889623
1552.000000	37.844564
1551.000000	37.788819
1550.000000	37.735147
1549.000000	37.686975
1548.000000	37.648877
1547.000000	37.555232
1546.000000	37.462046
1545.000000	37.381522
1544.000000	37.294671
1543.000000	37.214934
1542.000000	37.130090
1541.000000	37.009798
1540.000000	36.889451
1539.000000	36.768579
1538.000000	36.678431
1537.000000	36.545669
1536.000000	36.438244
1535.000000	36.330575
1534.000000	36.217130
1533.000000	36.104814
1532.000000	35.988390
1531.000000	35.881064
1530.000000	35.784323
1529.000000	35.686154
1528.000000	35.575138
1527.000000	35.482124
1526.000000	35.391515
1525.000000	35.312121
1524.000000	35.225867
1523.000000	35.163264
1522.000000	35.074516
1521.000000	35.004488
1520.000000	34.920012
1519.000000	34.895169
1518.000000	34.839784
1517.000000	34.800305
1516.000000	34.754051
1515.000000	34.707924
1514.000000	34.648509
1513.000000	34.614702
1512.000000	34.583281
1511.000000	34.530640
1510.000000	34.505136
1509.000000	34.491860
1508.000000	34.483287
1507.000000	34.452874
1506.000000	34.427918
1505.000000	34.422811
1504.000000	34.397497
1503.000000	34.415508
1502.000000	34.401100
1501.000000	34.430914
1500.000000	34.410655
1499.000000	34.418529
1498.000000	34.461374
1497.000000	34.473936
1496.000000	34.491010
1495.000000	34.537756
1494.000000	34.571432
1493.000000	34.622138
1492.000000	34.672338
1491.000000	34.721667
1490.000000	34.776854
1489.000000	34.848792
1488.000000	34.941028
1487.000000	34.997241
1486.000000	35.072821
1485.000000	35.142831
1484.000000	35.231258
1483.000000	35.348354
1482.000000	35.403963
1481.000000	35.511186
1480.000000	35.608111
1479.000000	35.683225
1478.000000	35.750514
1477.000000	35.855516
1476.000000	35.932485
1475.000000	36.000665
1474.000000	36.087778
1473.000000	36.162208
1472.000000	36.260225
1471.000000	36.333396
1470.000000	36.395947
