PE UV       SUBTECH     SPECTRUM    ASCII       PEDS        4.00        
   -1
RDChevreUK 22.Sample.asc
18/03/05
13:45:56.00
18/03/05
13:45:56.00
Administrator

200.000000
1
Lambda 750
750N8071901
PerkinElmer UV WinLab 6.0.4.0738 / 1.61.00 Lambda 900

0
0
3350/servo 860.8/2
0
0
UV/VIS
1
1
1
CommonBeamDepol,150mm sphere / downward view
0
0
0
0
Program
Program
3350/servo 860.8/2
3350/0.2 860.8/0.2
3350/0.2 860.8/0.2
0
1
 
 
 
0
 
860.8
319.2
860.8
Front
100
on
 
 
0
0
0
 
0
 
 
 
0
 
 
0
0
0
0
0
 
 
 
 
0
0


0
0
#HDR
-1
-1
#GR
nm
%R
1.0
0.0
2350.000000
-1.000000
2151
8
62.632832
10.311273
#DATA
2350.000000	16.158153
2349.000000	16.216966
2348.000000	15.960026
2347.000000	16.863696
2346.000000	15.823412
2345.000000	15.993554
2344.000000	16.037669
2343.000000	15.751779
2342.000000	16.071481
2341.000000	16.466230
2340.000000	16.103934
2339.000000	16.445195
2338.000000	16.587697
2337.000000	16.691320
2336.000000	16.786172
2335.000000	16.765182
2334.000000	16.492482
2333.000000	16.876583
2332.000000	17.255015
2331.000000	16.881137
2330.000000	16.672370
2329.000000	16.983230
2328.000000	16.970957
2327.000000	16.611283
2326.000000	16.541857
2325.000000	16.770769
2324.000000	16.396465
2323.000000	16.303538
2322.000000	16.444201
2321.000000	16.632434
2320.000000	16.301631
2319.000000	16.391091
2318.000000	16.469366
2317.000000	16.652967
2316.000000	16.270462
2315.000000	15.934346
2314.000000	15.932723
2313.000000	16.090032
2312.000000	15.855699
2311.000000	15.919287
2310.000000	15.772224
2309.000000	15.609294
2308.000000	15.688543
2307.000000	15.709502
2306.000000	15.599379
2305.000000	15.676870
2304.000000	15.399712
2303.000000	15.464145
2302.000000	15.537028
2301.000000	15.334214
2300.000000	15.106343
2299.000000	15.127766
2298.000000	15.368240
2297.000000	15.307881
2296.000000	15.306590
2295.000000	15.094684
2294.000000	15.062963
2293.000000	14.990887
2292.000000	14.944010
2291.000000	14.960350
2290.000000	14.996055
2289.000000	14.802291
2288.000000	14.836689
2287.000000	14.924600
2286.000000	14.870088
2285.000000	14.948758
2284.000000	15.013657
2283.000000	14.949149
2282.000000	14.839279
2281.000000	14.799045
2280.000000	15.004538
2279.000000	15.065011
2278.000000	15.041450
2277.000000	14.873169
2276.000000	15.136327
2275.000000	15.135637
2274.000000	15.008341
2273.000000	15.190131
2272.000000	15.306489
2271.000000	15.193076
2270.000000	15.238512
2269.000000	15.470514
2268.000000	15.597923
2267.000000	15.570848
2266.000000	15.529085
2265.000000	15.626984
2264.000000	15.689218
2263.000000	15.721904
2262.000000	15.854536
2261.000000	16.159407
2260.000000	16.157686
2259.000000	16.234924
2258.000000	16.530236
2257.000000	16.662848
2256.000000	16.588672
2255.000000	16.817702
2254.000000	17.194594
2253.000000	17.279288
2252.000000	17.426957
2251.000000	17.647017
2250.000000	17.840670
2249.000000	18.128386
2248.000000	18.281604
2247.000000	18.430473
2246.000000	18.655576
2245.000000	18.695961
2244.000000	18.886360
2243.000000	19.045989
2242.000000	19.075865
2241.000000	19.171519
2240.000000	19.309911
2239.000000	19.411569
2238.000000	19.519108
2237.000000	19.743425
2236.000000	19.748533
2235.000000	19.740148
2234.000000	19.816228
2233.000000	19.980092
2232.000000	20.147943
2231.000000	20.015766
2230.000000	19.963035
2229.000000	20.054163
2228.000000	20.121488
2227.000000	20.191877
2226.000000	20.236699
2225.000000	20.065481
2224.000000	20.035427
2223.000000	20.054801
2222.000000	20.114491
2221.000000	20.025385
2220.000000	20.093728
2219.000000	20.091227
2218.000000	19.972777
2217.000000	19.876997
2216.000000	19.799103
2215.000000	19.700913
2214.000000	19.753101
2213.000000	19.875645
2212.000000	19.777101
2211.000000	19.608429
2210.000000	19.552146
2209.000000	19.402050
2208.000000	19.262023
2207.000000	19.347272
2206.000000	19.315616
2205.000000	19.285398
2204.000000	19.218739
2203.000000	19.291677
2202.000000	19.247516
2201.000000	19.120797
2200.000000	19.025236
2199.000000	18.840486
2198.000000	18.776309
2197.000000	18.724893
2196.000000	18.669145
2195.000000	18.485048
2194.000000	18.476787
2193.000000	18.502395
2192.000000	18.506769
2191.000000	18.467072
2190.000000	18.266270
2189.000000	18.257861
2188.000000	18.100156
2187.000000	18.093728
2186.000000	18.102010
2185.000000	18.081267
2184.000000	18.018365
2183.000000	18.064677
2182.000000	17.952971
2181.000000	17.916780
2180.000000	17.877510
2179.000000	17.832727
2178.000000	17.801633
2177.000000	17.823314
2176.000000	17.878462
2175.000000	17.911404
2174.000000	18.009001
2173.000000	17.780559
2172.000000	17.905607
2171.000000	18.109068
2170.000000	18.093649
2169.000000	18.248950
2168.000000	18.288227
2167.000000	18.389156
2166.000000	18.561915
2165.000000	18.444761
2164.000000	18.640631
2163.000000	18.640412
2162.000000	18.721785
2161.000000	18.772973
2160.000000	18.967001
2159.000000	19.026757
2158.000000	19.178708
2157.000000	19.178103
2156.000000	19.417131
2155.000000	19.641404
2154.000000	19.747337
2153.000000	19.920942
2152.000000	20.053196
2151.000000	20.040268
2150.000000	20.110369
2149.000000	20.191692
2148.000000	20.333402
2147.000000	20.687428
2146.000000	20.797179
2145.000000	20.956214
2144.000000	21.172056
2143.000000	21.073007
2142.000000	21.372078
2141.000000	21.473667
2140.000000	21.738339
2139.000000	21.780675
2138.000000	22.196142
2137.000000	22.152580
2136.000000	22.042773
2135.000000	22.329435
2134.000000	22.360621
2133.000000	22.278290
2132.000000	22.624228
2131.000000	22.914954
2130.000000	22.832397
2129.000000	22.784129
2128.000000	22.782014
2127.000000	22.789095
2126.000000	22.838317
2125.000000	22.937682
2124.000000	23.132205
2123.000000	22.834174
2122.000000	23.162840
2121.000000	23.267890
2120.000000	23.197496
2119.000000	23.332368
2118.000000	23.594018
2117.000000	23.340159
2116.000000	23.337817
2115.000000	23.613148
2114.000000	23.653336
2113.000000	23.539395
2112.000000	23.751101
2111.000000	23.608818
2110.000000	23.657043
2109.000000	23.754867
2108.000000	23.650522
2107.000000	23.741801
2106.000000	23.767180
2105.000000	23.602270
2104.000000	23.733366
2103.000000	23.867892
2102.000000	23.768651
2101.000000	23.870986
2100.000000	23.721428
2099.000000	23.916555
2098.000000	23.929721
2097.000000	23.929944
2096.000000	23.923319
2095.000000	23.862414
2094.000000	23.943380
2093.000000	23.766211
2092.000000	23.739212
2091.000000	23.641230
2090.000000	23.732199
2089.000000	23.724667
2088.000000	23.710387
2087.000000	23.599331
2086.000000	23.714457
2085.000000	23.664900
2084.000000	23.479584
2083.000000	23.436871
2082.000000	23.437912
2081.000000	23.362299
2080.000000	23.281697
2079.000000	23.244181
2078.000000	23.077631
2077.000000	23.040059
2076.000000	22.925811
2075.000000	22.706206
2074.000000	22.680390
2073.000000	22.670692
2072.000000	22.490667
2071.000000	22.397077
2070.000000	22.261583
2069.000000	22.092943
2068.000000	21.926675
2067.000000	21.832015
2066.000000	21.697303
2065.000000	21.533697
2064.000000	21.432275
2063.000000	21.338065
2062.000000	21.195729
2061.000000	21.054288
2060.000000	20.908373
2059.000000	20.751994
2058.000000	20.613914
2057.000000	20.533629
2056.000000	20.425625
2055.000000	20.244405
2054.000000	20.146013
2053.000000	20.043964
2052.000000	19.970639
2051.000000	19.922936
2050.000000	19.762869
2049.000000	19.608389
2048.000000	19.621163
2047.000000	19.622333
2046.000000	19.523717
2045.000000	19.486297
2044.000000	19.489954
2043.000000	19.563705
2042.000000	19.587316
2041.000000	19.566826
2040.000000	19.633197
2039.000000	19.677999
2038.000000	19.700330
2037.000000	19.725310
2036.000000	19.780297
2035.000000	19.950207
2034.000000	20.042845
2033.000000	20.094324
2032.000000	20.259108
2031.000000	20.374508
2030.000000	20.439814
2029.000000	20.561675
2028.000000	20.772977
2027.000000	20.926006
2026.000000	20.986052
2025.000000	21.099293
2024.000000	21.187679
2023.000000	21.267432
2022.000000	21.358691
2021.000000	21.420209
2020.000000	21.467310
2019.000000	21.522243
2018.000000	21.539048
2017.000000	21.570596
2016.000000	21.579939
2015.000000	21.574758
2014.000000	21.563739
2013.000000	21.575143
2012.000000	21.602207
2011.000000	21.570350
2010.000000	21.537375
2009.000000	21.492845
2008.000000	21.423112
2007.000000	21.364228
2006.000000	21.252386
2005.000000	21.240715
2004.000000	21.217659
2003.000000	21.121228
2002.000000	21.067849
2001.000000	21.006146
2000.000000	20.923734
1999.000000	20.861992
1998.000000	20.758114
1997.000000	20.650479
1996.000000	20.590367
1995.000000	20.480475
1994.000000	20.328757
1993.000000	20.228874
1992.000000	20.195188
1991.000000	20.089163
1990.000000	20.037755
1989.000000	19.949643
1988.000000	19.888547
1987.000000	19.788611
1986.000000	19.705863
1985.000000	19.591698
1984.000000	19.494553
1983.000000	19.453865
1982.000000	19.394009
1981.000000	19.332160
1980.000000	19.263194
1979.000000	19.156856
1978.000000	19.080261
1977.000000	18.940390
1976.000000	18.899692
1975.000000	18.851101
1974.000000	18.719530
1973.000000	18.700076
1972.000000	18.624304
1971.000000	18.519678
1970.000000	18.488832
1969.000000	18.400191
1968.000000	18.370912
1967.000000	18.311410
1966.000000	18.228192
1965.000000	18.171290
1964.000000	18.094991
1963.000000	18.031886
1962.000000	18.007881
1961.000000	17.884210
1960.000000	17.835112
1959.000000	17.774733
1958.000000	17.736071
1957.000000	17.705727
1956.000000	17.620278
1955.000000	17.618001
1954.000000	17.477754
1953.000000	17.447596
1952.000000	17.443012
1951.000000	17.419464
1950.000000	17.416913
1949.000000	17.380191
1948.000000	17.444599
1947.000000	17.380423
1946.000000	17.329273
1945.000000	17.344741
1944.000000	17.317150
1943.000000	17.371642
1942.000000	17.372899
1941.000000	17.421298
1940.000000	17.498508
1939.000000	17.594936
1938.000000	17.656019
1937.000000	17.859460
1936.000000	17.931873
1935.000000	18.004681
1934.000000	18.041708
1933.000000	18.216628
1932.000000	18.256663
1931.000000	18.364042
1930.000000	18.573270
1929.000000	18.662951
1928.000000	18.901327
1927.000000	19.137468
1926.000000	19.322011
1925.000000	19.478719
1924.000000	19.826908
1923.000000	20.001560
1922.000000	20.260994
1921.000000	20.542699
1920.000000	20.759984
1919.000000	20.961481
1918.000000	21.234078
1917.000000	21.703957
1916.000000	21.892171
1915.000000	22.440432
1914.000000	22.805367
1913.000000	23.126406
1912.000000	23.380622
1911.000000	23.793138
1910.000000	24.233498
1909.000000	24.623109
1908.000000	25.107827
1907.000000	25.579082
1906.000000	26.045478
1905.000000	26.627200
1904.000000	27.115847
1903.000000	27.616818
1902.000000	28.109318
1901.000000	28.692650
1900.000000	29.216444
1899.000000	29.819059
1898.000000	30.322029
1897.000000	30.919897
1896.000000	31.445277
1895.000000	31.953405
1894.000000	32.553943
1893.000000	33.078400
1892.000000	33.609802
1891.000000	34.135983
1890.000000	34.670988
1889.000000	35.192254
1888.000000	35.700612
1887.000000	36.138122
1886.000000	36.670234
1885.000000	37.147510
1884.000000	37.564599
1883.000000	37.975158
1882.000000	38.363859
1881.000000	38.855810
1880.000000	39.261331
1879.000000	39.640450
1878.000000	39.974658
1877.000000	40.300426
1876.000000	40.603505
1875.000000	40.928746
1874.000000	41.210143
1873.000000	41.441832
1872.000000	41.700553
1871.000000	41.979953
1870.000000	42.127236
1869.000000	42.403638
1868.000000	42.531378
1867.000000	42.665611
1866.000000	42.802336
1865.000000	42.854583
1864.000000	42.964786
1863.000000	43.067453
1862.000000	43.209665
1861.000000	43.211014
1860.000000	43.310744
1859.000000	43.365262
1858.000000	43.427543
1857.000000	43.427961
1856.000000	43.468088
1855.000000	43.479529
1854.000000	43.514048
1853.000000	43.563386
1852.000000	43.549137
1851.000000	43.572713
1850.000000	43.586721
1849.000000	43.575401
1848.000000	43.526573
1847.000000	43.519389
1846.000000	43.525359
1845.000000	43.478877
1844.000000	43.429910
1843.000000	43.405985
1842.000000	43.377724
1841.000000	43.343064
1840.000000	43.273784
1839.000000	43.227572
1838.000000	43.180071
1837.000000	43.074498
1836.000000	43.022547
1835.000000	42.979483
1834.000000	42.897428
1833.000000	42.838136
1832.000000	42.780536
1831.000000	42.712926
1830.000000	42.641871
1829.000000	42.593295
1828.000000	42.524698
1827.000000	42.466374
1826.000000	42.411647
1825.000000	42.360953
1824.000000	42.313667
1823.000000	42.277231
1822.000000	42.218885
1821.000000	42.145271
1820.000000	42.077763
1819.000000	42.048338
1818.000000	42.003650
1817.000000	41.925359
1816.000000	41.884369
1815.000000	41.855213
1814.000000	41.807022
1813.000000	41.760438
1812.000000	41.686411
1811.000000	41.640815
1810.000000	41.620877
1809.000000	41.564156
1808.000000	41.537354
1807.000000	41.496088
1806.000000	41.419282
1805.000000	41.373937
1804.000000	41.329285
1803.000000	41.285686
1802.000000	41.233763
1801.000000	41.189950
1800.000000	41.152659
1799.000000	41.109241
1798.000000	41.092825
1797.000000	41.071258
1796.000000	41.010309
1795.000000	40.995913
1794.000000	41.003234
1793.000000	40.946022
1792.000000	40.904086
1791.000000	40.898038
1790.000000	40.860308
1789.000000	40.799275
1788.000000	40.763950
1787.000000	40.716770
1786.000000	40.688393
1785.000000	40.665466
1784.000000	40.595797
1783.000000	40.550576
1782.000000	40.481314
1781.000000	40.412956
1780.000000	40.363485
1779.000000	40.316916
1778.000000	40.240934
1777.000000	40.135091
1776.000000	40.059920
1775.000000	39.972928
1774.000000	39.870161
1773.000000	39.800027
1772.000000	39.694100
1771.000000	39.586501
1770.000000	39.511248
1769.000000	39.405086
1768.000000	39.333617
1767.000000	39.250490
1766.000000	39.141200
1765.000000	39.049053
1764.000000	38.991463
1763.000000	38.902749
1762.000000	38.774797
1761.000000	38.712724
1760.000000	38.641459
1759.000000	38.553775
1758.000000	38.433660
1757.000000	38.360956
1756.000000	38.283298
1755.000000	38.213814
1754.000000	38.112797
1753.000000	38.007942
1752.000000	37.934871
1751.000000	37.832399
1750.000000	37.750789
1749.000000	37.674574
1748.000000	37.545017
1747.000000	37.440987
1746.000000	37.368151
1745.000000	37.259290
1744.000000	37.125695
1743.000000	37.047878
1742.000000	36.990089
1741.000000	36.895167
1740.000000	36.836969
1739.000000	36.688267
1738.000000	36.619008
1737.000000	36.557483
1736.000000	36.556747
1735.000000	36.511113
1734.000000	36.472672
1733.000000	36.464400
1732.000000	36.464386
1731.000000	36.480212
1730.000000	36.457107
1729.000000	36.513225
1728.000000	36.604424
1727.000000	36.656224
1726.000000	36.760334
1725.000000	36.851581
1724.000000	36.983773
1723.000000	37.119509
1722.000000	37.227883
1721.000000	37.350706
1720.000000	37.513565
1719.000000	37.632552
1718.000000	37.782654
1717.000000	37.914606
1716.000000	38.047647
1715.000000	38.155286
1714.000000	38.276949
1713.000000	38.415756
1712.000000	38.539431
1711.000000	38.625965
1710.000000	38.696526
1709.000000	38.770780
1708.000000	38.863883
1707.000000	38.946223
1706.000000	39.009921
1705.000000	39.054990
1704.000000	39.115081
1703.000000	39.155985
1702.000000	39.152006
1701.000000	39.239720
1700.000000	39.270082
1699.000000	39.313550
1698.000000	39.379946
1697.000000	39.468217
1696.000000	39.501997
1695.000000	39.585133
1694.000000	39.647183
1693.000000	39.748089
1692.000000	39.844395
1691.000000	39.982765
1690.000000	40.133660
1689.000000	40.265523
1688.000000	40.447685
1687.000000	40.629736
1686.000000	40.845697
1685.000000	41.072744
1684.000000	41.300102
1683.000000	41.569812
1682.000000	41.822405
1681.000000	42.059824
1680.000000	42.337637
1679.000000	42.586147
1678.000000	42.851169
1677.000000	43.130345
1676.000000	43.432569
1675.000000	43.743471
1674.000000	43.975866
1673.000000	44.234713
1672.000000	44.498646
1671.000000	44.733051
1670.000000	44.957041
1669.000000	45.238117
1668.000000	45.412663
1667.000000	45.614553
1666.000000	45.785709
1665.000000	45.943217
1664.000000	46.071025
1663.000000	46.223500
1662.000000	46.359587
1661.000000	46.458791
1660.000000	46.563925
1659.000000	46.674126
1658.000000	46.741650
1657.000000	46.816868
1656.000000	46.894995
1655.000000	46.940753
1654.000000	46.979750
1653.000000	47.000462
1652.000000	47.024906
1651.000000	47.036009
1650.000000	47.041235
1649.000000	47.051691
1648.000000	47.062350
1647.000000	47.039778
1646.000000	47.007976
1645.000000	46.993705
1644.000000	46.977748
1643.000000	46.956464
1642.000000	46.912349
1641.000000	46.868608
1640.000000	46.828283
1639.000000	46.787266
1638.000000	46.767868
1637.000000	46.716811
1636.000000	46.639344
1635.000000	46.598885
1634.000000	46.545449
1633.000000	46.479045
1632.000000	46.433497
1631.000000	46.366110
1630.000000	46.277427
1629.000000	46.222882
1628.000000	46.180504
1627.000000	46.118408
1626.000000	46.054882
1625.000000	45.984559
1624.000000	45.904211
1623.000000	45.836123
1622.000000	45.782349
1621.000000	45.698075
1620.000000	45.624124
1619.000000	45.549849
1618.000000	45.460015
1617.000000	45.402197
1616.000000	45.319526
1615.000000	45.228424
1614.000000	45.157500
1613.000000	45.082860
1612.000000	44.998291
1611.000000	44.907581
1610.000000	44.819093
1609.000000	44.729959
1608.000000	44.653361
1607.000000	44.567181
1606.000000	44.464635
1605.000000	44.363253
1604.000000	44.264224
1603.000000	44.173465
1602.000000	44.086620
1601.000000	43.990804
1600.000000	43.904703
1599.000000	43.812273
1598.000000	43.724235
1597.000000	43.647404
1596.000000	43.566994
1595.000000	43.475800
1594.000000	43.398060
1593.000000	43.323132
1592.000000	43.239876
1591.000000	43.153796
1590.000000	43.078585
1589.000000	43.005273
1588.000000	42.933806
1587.000000	42.876736
1586.000000	42.807524
1585.000000	42.725803
1584.000000	42.660174
1583.000000	42.587376
1582.000000	42.505877
1581.000000	42.448638
1580.000000	42.380760
1579.000000	42.293883
1578.000000	42.246494
1577.000000	42.200186
1576.000000	42.134209
1575.000000	42.062963
1574.000000	41.985586
1573.000000	41.943723
1572.000000	41.899234
1571.000000	41.818862
1570.000000	41.766371
1569.000000	41.702801
1568.000000	41.645326
1567.000000	41.613052
1566.000000	41.562664
1565.000000	41.508125
1564.000000	41.474451
1563.000000	41.438540
1562.000000	41.388483
1561.000000	41.358234
1560.000000	41.326647
1559.000000	41.298115
1558.000000	41.261379
1557.000000	41.230873
1556.000000	41.186804
1555.000000	41.148816
1554.000000	41.099963
1553.000000	41.056710
1552.000000	41.012205
1551.000000	40.956891
1550.000000	40.915866
1549.000000	40.866895
1548.000000	40.795917
1547.000000	40.709461
1546.000000	40.617806
1545.000000	40.535431
1544.000000	40.432188
1543.000000	40.331425
1542.000000	40.231465
1541.000000	40.115752
1540.000000	40.004928
1539.000000	39.895914
1538.000000	39.775560
1537.000000	39.642808
1536.000000	39.510611
1535.000000	39.378341
1534.000000	39.276903
1533.000000	39.167379
1532.000000	39.044342
1531.000000	38.919781
1530.000000	38.818401
1529.000000	38.691806
1528.000000	38.578735
1527.000000	38.475822
1526.000000	38.370980
1525.000000	38.285526
1524.000000	38.198583
1523.000000	38.116980
1522.000000	38.041854
1521.000000	37.963131
1520.000000	37.899357
1519.000000	37.843697
1518.000000	37.776912
1517.000000	37.682083
1516.000000	37.657433
1515.000000	37.617377
1514.000000	37.575984
1513.000000	37.524380
1512.000000	37.481881
1511.000000	37.434622
1510.000000	37.413682
1509.000000	37.409099
1508.000000	37.345609
1507.000000	37.324869
1506.000000	37.321402
1505.000000	37.310355
1504.000000	37.297242
1503.000000	37.300992
1502.000000	37.275314
1501.000000	37.296962
1500.000000	37.294965
1499.000000	37.300628
1498.000000	37.329325
1497.000000	37.369320
1496.000000	37.390847
1495.000000	37.450038
1494.000000	37.485430
1493.000000	37.524660
1492.000000	37.571555
1491.000000	37.632999
1490.000000	37.709806
1489.000000	37.796365
1488.000000	37.899083
1487.000000	37.963350
1486.000000	38.073186
1485.000000	38.124385
1484.000000	38.254456
1483.000000	38.360438
1482.000000	38.430858
1481.000000	38.531823
1480.000000	38.648233
1479.000000	38.768301
1478.000000	38.864835
1477.000000	38.960649
1476.000000	39.063839
1475.000000	39.163728
1474.000000	39.256431
1473.000000	39.348557
1472.000000	39.457014
1471.000000	39.527002
1470.000000	39.603388
