PE UV       SUBTECH     SPECTRUM    ASCII       PEDS        4.00        
   -1
RDChevreUK 52.Sample.asc
18/03/05
14:15:46.00
18/03/05
14:15:46.00
Administrator

200.000000
1
Lambda 750
750N8071901
PerkinElmer UV WinLab 6.0.4.0738 / 1.61.00 Lambda 900

0
0
3350/servo 860.8/2
0
0
UV/VIS
1
1
1
CommonBeamDepol,150mm sphere / downward view
0
0
0
0
Program
Program
3350/servo 860.8/2
3350/0.2 860.8/0.2
3350/0.2 860.8/0.2
0
1
 
 
 
0
 
860.8
319.2
860.8
Front
100
on
 
 
0
0
0
 
0
 
 
 
0
 
 
0
0
0
0
0
 
 
 
 
0
0


0
0
#HDR
-1
-1
#GR
nm
%R
1.0
0.0
2350.000000
-1.000000
2151
8
57.341788
9.731262
#DATA
2350.000000	11.448788
2349.000000	11.111963
2348.000000	11.134105
2347.000000	11.861924
2346.000000	11.637636
2345.000000	11.339213
2344.000000	10.982785
2343.000000	10.804338
2342.000000	10.857094
2341.000000	11.086677
2340.000000	11.333731
2339.000000	11.834801
2338.000000	11.515240
2337.000000	11.808771
2336.000000	12.142418
2335.000000	12.520634
2334.000000	12.534916
2333.000000	12.580085
2332.000000	12.155773
2331.000000	12.000481
2330.000000	12.326182
2329.000000	11.900808
2328.000000	11.972865
2327.000000	12.181081
2326.000000	12.028039
2325.000000	12.078612
2324.000000	12.117034
2323.000000	11.782551
2322.000000	11.956257
2321.000000	11.835136
2320.000000	11.931006
2319.000000	11.951909
2318.000000	11.991488
2317.000000	11.631414
2316.000000	11.522684
2315.000000	11.304293
2314.000000	11.255654
2313.000000	11.035898
2312.000000	11.312505
2311.000000	11.346541
2310.000000	11.007986
2309.000000	11.390788
2308.000000	11.236196
2307.000000	11.152233
2306.000000	10.961471
2305.000000	11.121965
2304.000000	11.200859
2303.000000	11.057289
2302.000000	11.171145
2301.000000	11.043227
2300.000000	10.799007
2299.000000	10.817802
2298.000000	10.867940
2297.000000	10.749438
2296.000000	10.561511
2295.000000	10.676819
2294.000000	10.834706
2293.000000	10.583704
2292.000000	10.552728
2291.000000	10.504427
2290.000000	10.418091
2289.000000	10.397260
2288.000000	10.586295
2287.000000	10.711183
2286.000000	10.675638
2285.000000	10.575579
2284.000000	10.542388
2283.000000	10.555234
2282.000000	10.565345
2281.000000	10.589294
2280.000000	10.424840
2279.000000	10.494898
2278.000000	10.451945
2277.000000	10.461405
2276.000000	10.591052
2275.000000	10.659206
2274.000000	10.835829
2273.000000	11.042882
2272.000000	10.886855
2271.000000	10.824645
2270.000000	10.854053
2269.000000	10.883197
2268.000000	10.911115
2267.000000	10.945392
2266.000000	11.060964
2265.000000	11.125976
2264.000000	11.116630
2263.000000	11.268876
2262.000000	11.411081
2261.000000	11.555268
2260.000000	11.676709
2259.000000	11.666500
2258.000000	11.699623
2257.000000	11.831408
2256.000000	12.026317
2255.000000	12.239498
2254.000000	12.471169
2253.000000	12.480793
2252.000000	12.555475
2251.000000	12.720619
2250.000000	12.950451
2249.000000	13.224164
2248.000000	13.303021
2247.000000	13.419703
2246.000000	13.680999
2245.000000	13.738504
2244.000000	13.862618
2243.000000	14.138184
2242.000000	14.105833
2241.000000	14.071794
2240.000000	14.180911
2239.000000	14.240554
2238.000000	14.395134
2237.000000	14.629173
2236.000000	14.695786
2235.000000	14.730210
2234.000000	14.820340
2233.000000	14.786677
2232.000000	14.869552
2231.000000	14.891050
2230.000000	14.851897
2229.000000	14.977046
2228.000000	15.051518
2227.000000	15.036789
2226.000000	15.029372
2225.000000	15.000426
2224.000000	14.950576
2223.000000	14.926949
2222.000000	15.027143
2221.000000	14.959429
2220.000000	14.800757
2219.000000	14.890918
2218.000000	14.789046
2217.000000	14.679787
2216.000000	14.738336
2215.000000	14.791173
2214.000000	14.739385
2213.000000	14.683905
2212.000000	14.656007
2211.000000	14.588784
2210.000000	14.447161
2209.000000	14.421636
2208.000000	14.349744
2207.000000	14.276403
2206.000000	14.302869
2205.000000	14.201183
2204.000000	14.152522
2203.000000	14.050672
2202.000000	14.104854
2201.000000	14.072271
2200.000000	14.069881
2199.000000	13.916924
2198.000000	13.852680
2197.000000	13.769955
2196.000000	13.595800
2195.000000	13.586940
2194.000000	13.542147
2193.000000	13.534913
2192.000000	13.394617
2191.000000	13.355151
2190.000000	13.485830
2189.000000	13.404190
2188.000000	13.485936
2187.000000	13.322543
2186.000000	13.400600
2185.000000	13.099535
2184.000000	13.005013
2183.000000	12.981602
2182.000000	12.996014
2181.000000	13.122442
2180.000000	13.004715
2179.000000	12.860783
2178.000000	12.928859
2177.000000	12.899620
2176.000000	12.961857
2175.000000	13.249172
2174.000000	13.233756
2173.000000	13.077223
2172.000000	13.125076
2171.000000	13.246614
2170.000000	13.259965
2169.000000	13.566406
2168.000000	13.441257
2167.000000	13.521123
2166.000000	13.356259
2165.000000	13.269660
2164.000000	13.554711
2163.000000	13.776442
2162.000000	13.715728
2161.000000	13.853566
2160.000000	14.099005
2159.000000	14.052178
2158.000000	14.256277
2157.000000	14.371503
2156.000000	14.404579
2155.000000	14.481488
2154.000000	14.726867
2153.000000	14.780461
2152.000000	14.852360
2151.000000	14.974797
2150.000000	14.961269
2149.000000	15.294329
2148.000000	15.272348
2147.000000	15.167680
2146.000000	15.347512
2145.000000	15.602532
2144.000000	15.773609
2143.000000	15.882796
2142.000000	15.888583
2141.000000	16.034805
2140.000000	16.066033
2139.000000	16.366304
2138.000000	16.488969
2137.000000	16.480695
2136.000000	16.588809
2135.000000	16.661516
2134.000000	16.920741
2133.000000	16.725127
2132.000000	16.978842
2131.000000	17.112829
2130.000000	17.071598
2129.000000	17.150216
2128.000000	17.331690
2127.000000	17.275493
2126.000000	17.482844
2125.000000	17.210309
2124.000000	17.244319
2123.000000	17.433282
2122.000000	17.501903
2121.000000	17.459275
2120.000000	17.867259
2119.000000	17.645581
2118.000000	17.803324
2117.000000	17.735070
2116.000000	17.905296
2115.000000	17.987706
2114.000000	17.868736
2113.000000	18.096038
2112.000000	18.128666
2111.000000	17.947965
2110.000000	17.985405
2109.000000	18.001422
2108.000000	17.842635
2107.000000	17.972922
2106.000000	18.057321
2105.000000	17.980233
2104.000000	18.206566
2103.000000	18.225465
2102.000000	18.194880
2101.000000	18.249737
2100.000000	18.264591
2099.000000	18.340295
2098.000000	18.147126
2097.000000	18.253524
2096.000000	18.150022
2095.000000	18.197536
2094.000000	18.277410
2093.000000	18.186242
2092.000000	18.170184
2091.000000	18.169056
2090.000000	18.082658
2089.000000	18.175483
2088.000000	18.008141
2087.000000	18.077203
2086.000000	18.104365
2085.000000	18.049973
2084.000000	18.000586
2083.000000	17.846571
2082.000000	17.809210
2081.000000	17.638798
2080.000000	17.598140
2079.000000	17.547258
2078.000000	17.449560
2077.000000	17.499318
2076.000000	17.422403
2075.000000	17.192722
2074.000000	17.052076
2073.000000	17.013235
2072.000000	16.893311
2071.000000	16.855608
2070.000000	16.809453
2069.000000	16.702320
2068.000000	16.493546
2067.000000	16.390208
2066.000000	16.170497
2065.000000	16.084790
2064.000000	15.962036
2063.000000	15.718604
2062.000000	15.562089
2061.000000	15.533576
2060.000000	15.455502
2059.000000	15.361524
2058.000000	15.233916
2057.000000	15.229224
2056.000000	15.145856
2055.000000	15.005182
2054.000000	14.851021
2053.000000	14.755871
2052.000000	14.659694
2051.000000	14.608338
2050.000000	14.522142
2049.000000	14.412270
2048.000000	14.363656
2047.000000	14.378056
2046.000000	14.363331
2045.000000	14.313234
2044.000000	14.289314
2043.000000	14.322903
2042.000000	14.336222
2041.000000	14.397375
2040.000000	14.395356
2039.000000	14.392168
2038.000000	14.500126
2037.000000	14.559389
2036.000000	14.629814
2035.000000	14.713768
2034.000000	14.746967
2033.000000	14.834122
2032.000000	14.919251
2031.000000	15.040617
2030.000000	15.127468
2029.000000	15.275432
2028.000000	15.385551
2027.000000	15.440127
2026.000000	15.600738
2025.000000	15.675424
2024.000000	15.725885
2023.000000	15.825862
2022.000000	15.927255
2021.000000	16.011537
2020.000000	16.075729
2019.000000	16.053052
2018.000000	16.105049
2017.000000	16.199932
2016.000000	16.183737
2015.000000	16.153499
2014.000000	16.169457
2013.000000	16.169312
2012.000000	16.169472
2011.000000	16.178828
2010.000000	16.112898
2009.000000	16.048328
2008.000000	16.033838
2007.000000	15.936417
2006.000000	15.846786
2005.000000	15.831417
2004.000000	15.790804
2003.000000	15.749566
2002.000000	15.666571
2001.000000	15.631933
2000.000000	15.584975
1999.000000	15.542268
1998.000000	15.444472
1997.000000	15.313954
1996.000000	15.258343
1995.000000	15.181435
1994.000000	15.093297
1993.000000	15.009578
1992.000000	14.919750
1991.000000	14.868774
1990.000000	14.814954
1989.000000	14.778627
1988.000000	14.671769
1987.000000	14.623781
1986.000000	14.534698
1985.000000	14.433343
1984.000000	14.355475
1983.000000	14.282203
1982.000000	14.245747
1981.000000	14.224206
1980.000000	14.151657
1979.000000	14.079346
1978.000000	13.987524
1977.000000	13.897463
1976.000000	13.834096
1975.000000	13.770494
1974.000000	13.715114
1973.000000	13.650970
1972.000000	13.588376
1971.000000	13.538194
1970.000000	13.473276
1969.000000	13.445180
1968.000000	13.384115
1967.000000	13.328228
1966.000000	13.298513
1965.000000	13.266649
1964.000000	13.204247
1963.000000	13.090426
1962.000000	13.076892
1961.000000	13.023277
1960.000000	13.012989
1959.000000	12.975410
1958.000000	12.858849
1957.000000	12.809715
1956.000000	12.792286
1955.000000	12.731706
1954.000000	12.704946
1953.000000	12.703055
1952.000000	12.669238
1951.000000	12.672354
1950.000000	12.645703
1949.000000	12.611597
1948.000000	12.597800
1947.000000	12.583458
1946.000000	12.604150
1945.000000	12.579038
1944.000000	12.581067
1943.000000	12.665704
1942.000000	12.698273
1941.000000	12.680867
1940.000000	12.714201
1939.000000	12.812870
1938.000000	12.914977
1937.000000	12.964420
1936.000000	12.979217
1935.000000	13.050596
1934.000000	13.178361
1933.000000	13.234800
1932.000000	13.394455
1931.000000	13.420836
1930.000000	13.536161
1929.000000	13.753179
1928.000000	13.877080
1927.000000	14.004376
1926.000000	14.240740
1925.000000	14.432612
1924.000000	14.554007
1923.000000	14.681667
1922.000000	14.972435
1921.000000	15.284594
1920.000000	15.419051
1919.000000	15.619200
1918.000000	15.961900
1917.000000	16.319740
1916.000000	16.409181
1915.000000	16.835746
1914.000000	17.250307
1913.000000	17.564279
1912.000000	17.858638
1911.000000	18.076154
1910.000000	18.586765
1909.000000	18.848456
1908.000000	19.252646
1907.000000	19.674937
1906.000000	20.162106
1905.000000	20.581453
1904.000000	21.019820
1903.000000	21.596725
1902.000000	22.046180
1901.000000	22.541756
1900.000000	23.015875
1899.000000	23.539868
1898.000000	24.183927
1897.000000	24.642792
1896.000000	25.186563
1895.000000	25.651360
1894.000000	26.151843
1893.000000	26.653540
1892.000000	27.173048
1891.000000	27.727872
1890.000000	28.234012
1889.000000	28.723523
1888.000000	29.228987
1887.000000	29.625186
1886.000000	30.065648
1885.000000	30.573803
1884.000000	31.043410
1883.000000	31.472672
1882.000000	31.846648
1881.000000	32.185572
1880.000000	32.619675
1879.000000	33.032392
1878.000000	33.343057
1877.000000	33.665620
1876.000000	33.964541
1875.000000	34.300039
1874.000000	34.521514
1873.000000	34.733158
1872.000000	34.990170
1871.000000	35.207841
1870.000000	35.360670
1869.000000	35.532675
1868.000000	35.700950
1867.000000	35.889460
1866.000000	36.019818
1865.000000	36.090947
1864.000000	36.237142
1863.000000	36.349571
1862.000000	36.444703
1861.000000	36.507668
1860.000000	36.571390
1859.000000	36.629246
1858.000000	36.697102
1857.000000	36.751946
1856.000000	36.810432
1855.000000	36.832826
1854.000000	36.856679
1853.000000	36.870012
1852.000000	36.915813
1851.000000	36.901488
1850.000000	36.856341
1849.000000	36.838786
1848.000000	36.871240
1847.000000	36.874742
1846.000000	36.814984
1845.000000	36.758337
1844.000000	36.752280
1843.000000	36.718055
1842.000000	36.658951
1841.000000	36.608717
1840.000000	36.587060
1839.000000	36.522749
1838.000000	36.442335
1837.000000	36.390930
1836.000000	36.324949
1835.000000	36.268886
1834.000000	36.204166
1833.000000	36.138240
1832.000000	36.088248
1831.000000	36.022339
1830.000000	35.954901
1829.000000	35.911596
1828.000000	35.885709
1827.000000	35.781758
1826.000000	35.738500
1825.000000	35.698241
1824.000000	35.637712
1823.000000	35.574174
1822.000000	35.500898
1821.000000	35.457387
1820.000000	35.430532
1819.000000	35.390632
1818.000000	35.337565
1817.000000	35.290269
1816.000000	35.242052
1815.000000	35.204740
1814.000000	35.153341
1813.000000	35.096348
1812.000000	35.031764
1811.000000	34.999234
1810.000000	34.973216
1809.000000	34.932708
1808.000000	34.884439
1807.000000	34.841043
1806.000000	34.799823
1805.000000	34.755589
1804.000000	34.721228
1803.000000	34.694319
1802.000000	34.655278
1801.000000	34.602377
1800.000000	34.580774
1799.000000	34.566940
1798.000000	34.540950
1797.000000	34.494269
1796.000000	34.459238
1795.000000	34.439779
1794.000000	34.426263
1793.000000	34.390991
1792.000000	34.353290
1791.000000	34.347213
1790.000000	34.298269
1789.000000	34.270368
1788.000000	34.245293
1787.000000	34.215187
1786.000000	34.178372
1785.000000	34.147902
1784.000000	34.098215
1783.000000	34.029078
1782.000000	33.976297
1781.000000	33.937041
1780.000000	33.873778
1779.000000	33.810712
1778.000000	33.741762
1777.000000	33.640395
1776.000000	33.564617
1775.000000	33.479831
1774.000000	33.380628
1773.000000	33.321886
1772.000000	33.196667
1771.000000	33.095487
1770.000000	33.014958
1769.000000	32.957658
1768.000000	32.871856
1767.000000	32.769600
1766.000000	32.724529
1765.000000	32.630636
1764.000000	32.530412
1763.000000	32.448652
1762.000000	32.353273
1761.000000	32.271267
1760.000000	32.190757
1759.000000	32.105819
1758.000000	32.039339
1757.000000	31.959561
1756.000000	31.878716
1755.000000	31.782621
1754.000000	31.746125
1753.000000	31.632267
1752.000000	31.553836
1751.000000	31.468450
1750.000000	31.377209
1749.000000	31.311793
1748.000000	31.223532
1747.000000	31.122595
1746.000000	31.024890
1745.000000	30.917649
1744.000000	30.799868
1743.000000	30.686050
1742.000000	30.638545
1741.000000	30.555369
1740.000000	30.471686
1739.000000	30.397703
1738.000000	30.321234
1737.000000	30.292815
1736.000000	30.222059
1735.000000	30.139615
1734.000000	30.146955
1733.000000	30.142257
1732.000000	30.117668
1731.000000	30.124415
1730.000000	30.131222
1729.000000	30.198817
1728.000000	30.230763
1727.000000	30.286721
1726.000000	30.399908
1725.000000	30.486547
1724.000000	30.568748
1723.000000	30.713080
1722.000000	30.841876
1721.000000	30.958068
1720.000000	31.057135
1719.000000	31.249118
1718.000000	31.378812
1717.000000	31.478309
1716.000000	31.575543
1715.000000	31.709365
1714.000000	31.862180
1713.000000	31.920803
1712.000000	32.038120
1711.000000	32.152238
1710.000000	32.245244
1709.000000	32.335548
1708.000000	32.429154
1707.000000	32.487062
1706.000000	32.555165
1705.000000	32.627288
1704.000000	32.659833
1703.000000	32.716677
1702.000000	32.725680
1701.000000	32.795604
1700.000000	32.805496
1699.000000	32.895386
1698.000000	32.934751
1697.000000	33.005327
1696.000000	33.073089
1695.000000	33.132819
1694.000000	33.209493
1693.000000	33.313063
1692.000000	33.419239
1691.000000	33.544223
1690.000000	33.673186
1689.000000	33.810141
1688.000000	33.988800
1687.000000	34.171404
1686.000000	34.365961
1685.000000	34.581902
1684.000000	34.811671
1683.000000	35.061340
1682.000000	35.296632
1681.000000	35.559234
1680.000000	35.803439
1679.000000	36.069313
1678.000000	36.383420
1677.000000	36.605284
1676.000000	36.905441
1675.000000	37.152868
1674.000000	37.417906
1673.000000	37.671571
1672.000000	37.940219
1671.000000	38.196156
1670.000000	38.411664
1669.000000	38.671014
1668.000000	38.849803
1667.000000	39.060627
1666.000000	39.211861
1665.000000	39.371855
1664.000000	39.508292
1663.000000	39.640825
1662.000000	39.787929
1661.000000	39.885137
1660.000000	39.994764
1659.000000	40.078783
1658.000000	40.185069
1657.000000	40.248422
1656.000000	40.311485
1655.000000	40.359496
1654.000000	40.385216
1653.000000	40.431441
1652.000000	40.450541
1651.000000	40.461062
1650.000000	40.461467
1649.000000	40.451238
1648.000000	40.420505
1647.000000	40.420549
1646.000000	40.415530
1645.000000	40.383671
1644.000000	40.356422
1643.000000	40.346012
1642.000000	40.304534
1641.000000	40.260946
1640.000000	40.226456
1639.000000	40.175249
1638.000000	40.133063
1637.000000	40.107311
1636.000000	40.055321
1635.000000	39.995535
1634.000000	39.944109
1633.000000	39.888498
1632.000000	39.834960
1631.000000	39.778474
1630.000000	39.703891
1629.000000	39.660373
1628.000000	39.608354
1627.000000	39.534006
1626.000000	39.454017
1625.000000	39.390087
1624.000000	39.321464
1623.000000	39.282685
1622.000000	39.222810
1621.000000	39.137302
1620.000000	39.074868
1619.000000	38.984145
1618.000000	38.899677
1617.000000	38.828137
1616.000000	38.754586
1615.000000	38.676510
1614.000000	38.608405
1613.000000	38.535263
1612.000000	38.439580
1611.000000	38.335428
1610.000000	38.261970
1609.000000	38.179922
1608.000000	38.095765
1607.000000	38.010302
1606.000000	37.943931
1605.000000	37.866162
1604.000000	37.757531
1603.000000	37.646054
1602.000000	37.556103
1601.000000	37.493405
1600.000000	37.417154
1599.000000	37.313725
1598.000000	37.213848
1597.000000	37.146095
1596.000000	37.075612
1595.000000	36.994049
1594.000000	36.913691
1593.000000	36.836612
1592.000000	36.769883
1591.000000	36.697039
1590.000000	36.613830
1589.000000	36.544170
1588.000000	36.483377
1587.000000	36.405790
1586.000000	36.342076
1585.000000	36.277456
1584.000000	36.207360
1583.000000	36.138564
1582.000000	36.074752
1581.000000	36.025217
1580.000000	35.968705
1579.000000	35.900687
1578.000000	35.846399
1577.000000	35.773814
1576.000000	35.695615
1575.000000	35.631848
1574.000000	35.582109
1573.000000	35.520571
1572.000000	35.459339
1571.000000	35.406508
1570.000000	35.347814
1569.000000	35.292447
1568.000000	35.248268
1567.000000	35.189989
1566.000000	35.150005
1565.000000	35.107741
1564.000000	35.054848
1563.000000	35.030426
1562.000000	34.981209
1561.000000	34.932560
1560.000000	34.911183
1559.000000	34.862307
1558.000000	34.813829
1557.000000	34.772965
1556.000000	34.755797
1555.000000	34.716037
1554.000000	34.670851
1553.000000	34.636014
1552.000000	34.587882
1551.000000	34.533646
1550.000000	34.492776
1549.000000	34.422479
1548.000000	34.361694
1547.000000	34.273020
1546.000000	34.198079
1545.000000	34.126400
1544.000000	34.002097
1543.000000	33.923604
1542.000000	33.808934
1541.000000	33.692299
1540.000000	33.587692
1539.000000	33.482640
1538.000000	33.362238
1537.000000	33.255961
1536.000000	33.134119
1535.000000	33.003592
1534.000000	32.896435
1533.000000	32.789707
1532.000000	32.663281
1531.000000	32.546010
1530.000000	32.462489
1529.000000	32.353595
1528.000000	32.244884
1527.000000	32.145765
1526.000000	32.064287
1525.000000	31.980620
1524.000000	31.873055
1523.000000	31.796469
1522.000000	31.730314
1521.000000	31.682329
1520.000000	31.604467
1519.000000	31.554118
1518.000000	31.519729
1517.000000	31.433414
1516.000000	31.389225
1515.000000	31.351331
1514.000000	31.290971
1513.000000	31.265448
1512.000000	31.220007
1511.000000	31.187100
1510.000000	31.185084
1509.000000	31.148913
1508.000000	31.113665
1507.000000	31.099729
1506.000000	31.090398
1505.000000	31.069985
1504.000000	31.052752
1503.000000	31.072612
1502.000000	31.075966
1501.000000	31.076490
1500.000000	31.077650
1499.000000	31.075302
1498.000000	31.108397
1497.000000	31.139984
1496.000000	31.167897
1495.000000	31.192100
1494.000000	31.240090
1493.000000	31.276264
1492.000000	31.343082
1491.000000	31.397922
1490.000000	31.462957
1489.000000	31.532405
1488.000000	31.611021
1487.000000	31.687107
1486.000000	31.780158
1485.000000	31.858984
1484.000000	31.932007
1483.000000	32.043266
1482.000000	32.085919
1481.000000	32.203189
1480.000000	32.312288
1479.000000	32.405820
1478.000000	32.480445
1477.000000	32.575651
1476.000000	32.641319
1475.000000	32.720504
1474.000000	32.805596
1473.000000	32.906716
1472.000000	32.982416
1471.000000	33.038609
1470.000000	33.131838
