PE UV       SUBTECH     SPECTRUM    ASCII       PEDS        4.00        
   -1
RDChevreUK 62.Sample.asc
18/03/05
14:25:46.00
18/03/05
14:25:46.00
Administrator

200.000000
1
Lambda 750
750N8071901
PerkinElmer UV WinLab 6.0.4.0738 / 1.61.00 Lambda 900

0
0
3350/servo 860.8/2
0
0
UV/VIS
1
1
1
CommonBeamDepol,150mm sphere / downward view
0
0
0
0
Program
Program
3350/servo 860.8/2
3350/0.2 860.8/0.2
3350/0.2 860.8/0.2
0
1
 
 
 
0
 
860.8
319.2
860.8
Front
100
on
 
 
0
0
0
 
0
 
 
 
0
 
 
0
0
0
0
0
 
 
 
 
0
0


0
0
#HDR
-1
-1
#GR
nm
%R
1.0
0.0
2350.000000
-1.000000
2151
8
58.670316
12.769432
#DATA
2350.000000	14.368590
2349.000000	14.431012
2348.000000	14.130664
2347.000000	14.819182
2346.000000	14.960694
2345.000000	14.324437
2344.000000	14.322340
2343.000000	13.809468
2342.000000	14.678583
2341.000000	14.255140
2340.000000	14.496328
2339.000000	14.745728
2338.000000	14.828636
2337.000000	15.054805
2336.000000	14.972123
2335.000000	15.188332
2334.000000	14.870269
2333.000000	14.985112
2332.000000	15.477870
2331.000000	15.128404
2330.000000	15.056041
2329.000000	15.149721
2328.000000	14.882817
2327.000000	14.694149
2326.000000	15.052234
2325.000000	14.975617
2324.000000	15.177823
2323.000000	15.142012
2322.000000	15.075947
2321.000000	15.016463
2320.000000	14.782156
2319.000000	14.743900
2318.000000	14.588483
2317.000000	14.822322
2316.000000	14.384124
2315.000000	14.360592
2314.000000	14.118803
2313.000000	14.426879
2312.000000	14.535397
2311.000000	14.540017
2310.000000	14.215803
2309.000000	14.170132
2308.000000	14.015636
2307.000000	13.987325
2306.000000	13.899536
2305.000000	14.029771
2304.000000	14.104976
2303.000000	13.963089
2302.000000	13.836345
2301.000000	13.599486
2300.000000	13.507984
2299.000000	13.736456
2298.000000	13.890655
2297.000000	13.645800
2296.000000	13.603874
2295.000000	13.345188
2294.000000	13.588642
2293.000000	13.558398
2292.000000	13.213135
2291.000000	13.434199
2290.000000	13.506902
2289.000000	13.446126
2288.000000	13.375306
2287.000000	13.600375
2286.000000	13.478800
2285.000000	13.388574
2284.000000	13.345293
2283.000000	13.250983
2282.000000	13.254807
2281.000000	13.409376
2280.000000	13.397659
2279.000000	13.433060
2278.000000	13.497726
2277.000000	13.530727
2276.000000	13.690820
2275.000000	13.683578
2274.000000	13.758228
2273.000000	13.871621
2272.000000	13.852322
2271.000000	13.576061
2270.000000	13.541400
2269.000000	13.709552
2268.000000	13.824010
2267.000000	13.926815
2266.000000	14.017877
2265.000000	14.155343
2264.000000	14.253987
2263.000000	14.254715
2262.000000	14.237593
2261.000000	14.449801
2260.000000	14.658500
2259.000000	14.792850
2258.000000	15.018035
2257.000000	15.052165
2256.000000	15.018298
2255.000000	15.330800
2254.000000	15.561171
2253.000000	15.644020
2252.000000	15.818488
2251.000000	15.971821
2250.000000	16.227954
2249.000000	16.430513
2248.000000	16.488389
2247.000000	16.571294
2246.000000	16.845350
2245.000000	16.995565
2244.000000	17.120447
2243.000000	17.343881
2242.000000	17.408282
2241.000000	17.490155
2240.000000	17.703615
2239.000000	17.703906
2238.000000	17.629802
2237.000000	17.770391
2236.000000	17.849357
2235.000000	18.090203
2234.000000	18.168441
2233.000000	18.051973
2232.000000	18.054011
2231.000000	18.144569
2230.000000	18.251892
2229.000000	18.286272
2228.000000	18.410568
2227.000000	18.373412
2226.000000	18.235738
2225.000000	18.322055
2224.000000	18.316311
2223.000000	18.188248
2222.000000	18.214716
2221.000000	18.317370
2220.000000	18.398457
2219.000000	18.293749
2218.000000	18.340338
2217.000000	18.187349
2216.000000	18.031948
2215.000000	18.044931
2214.000000	18.170873
2213.000000	18.215221
2212.000000	18.079018
2211.000000	17.897545
2210.000000	17.846159
2209.000000	17.762959
2208.000000	17.673621
2207.000000	17.617383
2206.000000	17.500334
2205.000000	17.523810
2204.000000	17.539963
2203.000000	17.311485
2202.000000	17.120401
2201.000000	17.331685
2200.000000	17.379089
2199.000000	17.287840
2198.000000	17.192926
2197.000000	17.108249
2196.000000	16.922887
2195.000000	16.923786
2194.000000	16.909669
2193.000000	16.857063
2192.000000	16.744867
2191.000000	16.712064
2190.000000	16.684732
2189.000000	16.606719
2188.000000	16.521828
2187.000000	16.445106
2186.000000	16.267984
2185.000000	16.344090
2184.000000	16.345161
2183.000000	16.481207
2182.000000	16.354190
2181.000000	16.274577
2180.000000	16.236004
2179.000000	16.308777
2178.000000	16.182697
2177.000000	16.121341
2176.000000	16.204999
2175.000000	16.336509
2174.000000	16.218537
2173.000000	16.232039
2172.000000	16.422555
2171.000000	16.387168
2170.000000	16.412429
2169.000000	16.588633
2168.000000	16.772508
2167.000000	16.686602
2166.000000	16.657027
2165.000000	16.880224
2164.000000	16.890118
2163.000000	16.836371
2162.000000	16.957904
2161.000000	17.012294
2160.000000	17.188656
2159.000000	17.470000
2158.000000	17.518038
2157.000000	17.616301
2156.000000	17.681230
2155.000000	17.721451
2154.000000	17.931764
2153.000000	18.055934
2152.000000	18.315248
2151.000000	18.334529
2150.000000	18.513180
2149.000000	18.462612
2148.000000	18.771824
2147.000000	18.641650
2146.000000	18.863264
2145.000000	18.972383
2144.000000	19.308262
2143.000000	19.243551
2142.000000	19.386030
2141.000000	19.540669
2140.000000	19.608457
2139.000000	19.812637
2138.000000	19.986504
2137.000000	20.079730
2136.000000	20.085946
2135.000000	20.061803
2134.000000	20.348877
2133.000000	20.359147
2132.000000	20.669750
2131.000000	20.711039
2130.000000	21.038738
2129.000000	21.003140
2128.000000	20.848113
2127.000000	20.851654
2126.000000	20.968934
2125.000000	21.038427
2124.000000	20.997841
2123.000000	21.154778
2122.000000	21.203883
2121.000000	21.193175
2120.000000	21.437013
2119.000000	21.273959
2118.000000	21.332615
2117.000000	21.360078
2116.000000	21.420433
2115.000000	21.595221
2114.000000	21.541974
2113.000000	21.392356
2112.000000	21.539373
2111.000000	21.552703
2110.000000	21.447643
2109.000000	21.627366
2108.000000	21.704685
2107.000000	21.749614
2106.000000	21.739575
2105.000000	21.713810
2104.000000	21.548929
2103.000000	21.644545
2102.000000	21.755530
2101.000000	21.796500
2100.000000	21.802686
2099.000000	21.726885
2098.000000	21.790529
2097.000000	21.831451
2096.000000	21.830105
2095.000000	21.745276
2094.000000	21.738862
2093.000000	21.681133
2092.000000	21.740120
2091.000000	21.751140
2090.000000	21.706245
2089.000000	21.683142
2088.000000	21.658124
2087.000000	21.653785
2086.000000	21.655242
2085.000000	21.703366
2084.000000	21.547414
2083.000000	21.517798
2082.000000	21.390284
2081.000000	21.220485
2080.000000	21.214065
2079.000000	21.225764
2078.000000	21.043538
2077.000000	20.977165
2076.000000	20.828625
2075.000000	20.776208
2074.000000	20.758315
2073.000000	20.658747
2072.000000	20.552362
2071.000000	20.421588
2070.000000	20.317315
2069.000000	20.137804
2068.000000	19.922518
2067.000000	19.884456
2066.000000	19.739211
2065.000000	19.591238
2064.000000	19.466626
2063.000000	19.376870
2062.000000	19.253719
2061.000000	19.083596
2060.000000	19.000445
2059.000000	18.894073
2058.000000	18.715139
2057.000000	18.588846
2056.000000	18.472711
2055.000000	18.425592
2054.000000	18.313867
2053.000000	18.203707
2052.000000	18.086189
2051.000000	17.940048
2050.000000	17.881463
2049.000000	17.841168
2048.000000	17.744097
2047.000000	17.740580
2046.000000	17.681164
2045.000000	17.636317
2044.000000	17.661797
2043.000000	17.626147
2042.000000	17.647315
2041.000000	17.686777
2040.000000	17.782272
2039.000000	17.851382
2038.000000	17.855685
2037.000000	17.798048
2036.000000	17.840802
2035.000000	17.941269
2034.000000	18.024093
2033.000000	18.173072
2032.000000	18.347590
2031.000000	18.408713
2030.000000	18.445873
2029.000000	18.556967
2028.000000	18.638093
2027.000000	18.753446
2026.000000	18.943637
2025.000000	19.079968
2024.000000	19.157388
2023.000000	19.180292
2022.000000	19.198064
2021.000000	19.283666
2020.000000	19.354240
2019.000000	19.376164
2018.000000	19.424857
2017.000000	19.488220
2016.000000	19.500052
2015.000000	19.491009
2014.000000	19.494508
2013.000000	19.522637
2012.000000	19.523517
2011.000000	19.466438
2010.000000	19.453777
2009.000000	19.405132
2008.000000	19.347652
2007.000000	19.285904
2006.000000	19.171334
2005.000000	19.131341
2004.000000	19.087852
2003.000000	18.995605
2002.000000	18.933105
2001.000000	18.856603
2000.000000	18.776354
1999.000000	18.718689
1998.000000	18.636778
1997.000000	18.546763
1996.000000	18.483871
1995.000000	18.418017
1994.000000	18.267451
1993.000000	18.235492
1992.000000	18.166517
1991.000000	18.033979
1990.000000	17.974746
1989.000000	17.889752
1988.000000	17.833967
1987.000000	17.732433
1986.000000	17.605972
1985.000000	17.553338
1984.000000	17.500226
1983.000000	17.439176
1982.000000	17.372921
1981.000000	17.304137
1980.000000	17.230299
1979.000000	17.182100
1978.000000	17.094440
1977.000000	16.967376
1976.000000	16.878613
1975.000000	16.792994
1974.000000	16.729492
1973.000000	16.693665
1972.000000	16.619058
1971.000000	16.515807
1970.000000	16.515744
1969.000000	16.483629
1968.000000	16.392951
1967.000000	16.339404
1966.000000	16.300587
1965.000000	16.156321
1964.000000	16.086389
1963.000000	16.023006
1962.000000	16.000934
1961.000000	15.914066
1960.000000	15.856988
1959.000000	15.792291
1958.000000	15.709634
1957.000000	15.724509
1956.000000	15.648196
1955.000000	15.652230
1954.000000	15.631765
1953.000000	15.579070
1952.000000	15.509591
1951.000000	15.507327
1950.000000	15.507170
1949.000000	15.507652
1948.000000	15.467379
1947.000000	15.411727
1946.000000	15.415175
1945.000000	15.474936
1944.000000	15.484515
1943.000000	15.484658
1942.000000	15.488599
1941.000000	15.501721
1940.000000	15.674231
1939.000000	15.619272
1938.000000	15.772137
1937.000000	15.838947
1936.000000	15.948702
1935.000000	15.973154
1934.000000	16.079666
1933.000000	16.195658
1932.000000	16.300490
1931.000000	16.413329
1930.000000	16.597927
1929.000000	16.724264
1928.000000	16.875102
1927.000000	16.997767
1926.000000	17.340604
1925.000000	17.450918
1924.000000	17.669494
1923.000000	17.767043
1922.000000	18.139554
1921.000000	18.439761
1920.000000	18.593348
1919.000000	18.840007
1918.000000	19.142367
1917.000000	19.512151
1916.000000	19.615750
1915.000000	20.056201
1914.000000	20.469927
1913.000000	20.754495
1912.000000	21.138487
1911.000000	21.427797
1910.000000	21.902611
1909.000000	22.225039
1908.000000	22.572711
1907.000000	23.080621
1906.000000	23.615619
1905.000000	24.067431
1904.000000	24.635138
1903.000000	25.109139
1902.000000	25.584244
1901.000000	26.107975
1900.000000	26.516116
1899.000000	27.076451
1898.000000	27.729901
1897.000000	28.255441
1896.000000	28.708719
1895.000000	29.167997
1894.000000	29.800130
1893.000000	30.311976
1892.000000	30.849440
1891.000000	31.278478
1890.000000	31.891338
1889.000000	32.368513
1888.000000	32.816782
1887.000000	33.287801
1886.000000	33.723591
1885.000000	34.202545
1884.000000	34.622236
1883.000000	35.062885
1882.000000	35.442592
1881.000000	35.819059
1880.000000	36.221941
1879.000000	36.657064
1878.000000	36.944843
1877.000000	37.281889
1876.000000	37.548322
1875.000000	37.861274
1874.000000	38.150729
1873.000000	38.423546
1872.000000	38.640399
1871.000000	38.887421
1870.000000	39.026446
1869.000000	39.206330
1868.000000	39.353519
1867.000000	39.542652
1866.000000	39.700029
1865.000000	39.812587
1864.000000	39.871867
1863.000000	39.966464
1862.000000	40.059131
1861.000000	40.134186
1860.000000	40.228640
1859.000000	40.256503
1858.000000	40.318115
1857.000000	40.358195
1856.000000	40.415604
1855.000000	40.401958
1854.000000	40.469455
1853.000000	40.505357
1852.000000	40.511357
1851.000000	40.520082
1850.000000	40.540051
1849.000000	40.499572
1848.000000	40.450426
1847.000000	40.456383
1846.000000	40.410865
1845.000000	40.411936
1844.000000	40.405008
1843.000000	40.373740
1842.000000	40.334708
1841.000000	40.283360
1840.000000	40.236490
1839.000000	40.222758
1838.000000	40.172186
1837.000000	40.075178
1836.000000	40.005836
1835.000000	39.951739
1834.000000	39.874233
1833.000000	39.804290
1832.000000	39.772245
1831.000000	39.702517
1830.000000	39.658263
1829.000000	39.598980
1828.000000	39.532752
1827.000000	39.500772
1826.000000	39.433076
1825.000000	39.376930
1824.000000	39.352604
1823.000000	39.302240
1822.000000	39.242003
1821.000000	39.185511
1820.000000	39.106183
1819.000000	39.057189
1818.000000	39.021040
1817.000000	38.963986
1816.000000	38.936929
1815.000000	38.895400
1814.000000	38.832720
1813.000000	38.811697
1812.000000	38.764755
1811.000000	38.699002
1810.000000	38.670590
1809.000000	38.640359
1808.000000	38.594139
1807.000000	38.557760
1806.000000	38.500312
1805.000000	38.432483
1804.000000	38.414432
1803.000000	38.403892
1802.000000	38.347591
1801.000000	38.300869
1800.000000	38.270606
1799.000000	38.244712
1798.000000	38.232840
1797.000000	38.193622
1796.000000	38.137649
1795.000000	38.107445
1794.000000	38.102182
1793.000000	38.065001
1792.000000	38.040144
1791.000000	38.020136
1790.000000	37.980733
1789.000000	37.940644
1788.000000	37.954338
1787.000000	37.925473
1786.000000	37.850960
1785.000000	37.805590
1784.000000	37.762354
1783.000000	37.734421
1782.000000	37.663174
1781.000000	37.626612
1780.000000	37.585098
1779.000000	37.525061
1778.000000	37.419344
1777.000000	37.361282
1776.000000	37.326360
1775.000000	37.219592
1774.000000	37.120925
1773.000000	37.058400
1772.000000	36.962834
1771.000000	36.878179
1770.000000	36.793316
1769.000000	36.721280
1768.000000	36.611972
1767.000000	36.544568
1766.000000	36.466834
1765.000000	36.386569
1764.000000	36.312959
1763.000000	36.252565
1762.000000	36.112355
1761.000000	36.052886
1760.000000	35.987701
1759.000000	35.891248
1758.000000	35.822316
1757.000000	35.752209
1756.000000	35.695957
1755.000000	35.599818
1754.000000	35.513239
1753.000000	35.425730
1752.000000	35.325467
1751.000000	35.263873
1750.000000	35.189113
1749.000000	35.089402
1748.000000	35.017580
1747.000000	34.913853
1746.000000	34.829507
1745.000000	34.746965
1744.000000	34.626723
1743.000000	34.570443
1742.000000	34.457513
1741.000000	34.402218
1740.000000	34.334889
1739.000000	34.255618
1738.000000	34.172976
1737.000000	34.093235
1736.000000	34.090115
1735.000000	34.009174
1734.000000	34.013472
1733.000000	33.985216
1732.000000	33.959530
1731.000000	33.972822
1730.000000	33.982405
1729.000000	34.026644
1728.000000	34.091846
1727.000000	34.160375
1726.000000	34.230504
1725.000000	34.315782
1724.000000	34.431207
1723.000000	34.537642
1722.000000	34.681461
1721.000000	34.789225
1720.000000	34.948211
1719.000000	35.096807
1718.000000	35.202191
1717.000000	35.311290
1716.000000	35.470360
1715.000000	35.556530
1714.000000	35.647756
1713.000000	35.799949
1712.000000	35.901729
1711.000000	35.963376
1710.000000	36.090816
1709.000000	36.166251
1708.000000	36.268288
1707.000000	36.307415
1706.000000	36.376980
1705.000000	36.422088
1704.000000	36.470819
1703.000000	36.540685
1702.000000	36.506970
1701.000000	36.560248
1700.000000	36.604707
1699.000000	36.643130
1698.000000	36.719032
1697.000000	36.783309
1696.000000	36.879183
1695.000000	36.906617
1694.000000	36.990289
1693.000000	37.061778
1692.000000	37.145525
1691.000000	37.272938
1690.000000	37.401882
1689.000000	37.549503
1688.000000	37.717786
1687.000000	37.873348
1686.000000	38.070973
1685.000000	38.246517
1684.000000	38.490648
1683.000000	38.721569
1682.000000	38.955775
1681.000000	39.194863
1680.000000	39.420691
1679.000000	39.675666
1678.000000	39.953877
1677.000000	40.173088
1676.000000	40.454978
1675.000000	40.708128
1674.000000	40.959078
1673.000000	41.219940
1672.000000	41.475781
1671.000000	41.691312
1670.000000	41.898919
1669.000000	42.144265
1668.000000	42.332629
1667.000000	42.529666
1666.000000	42.666452
1665.000000	42.804115
1664.000000	42.954731
1663.000000	43.057156
1662.000000	43.209676
1661.000000	43.325639
1660.000000	43.403239
1659.000000	43.515284
1658.000000	43.598676
1657.000000	43.644337
1656.000000	43.715818
1655.000000	43.735504
1654.000000	43.780740
1653.000000	43.813868
1652.000000	43.844459
1651.000000	43.839437
1650.000000	43.843782
1649.000000	43.850592
1648.000000	43.862152
1647.000000	43.829041
1646.000000	43.806169
1645.000000	43.803347
1644.000000	43.782551
1643.000000	43.751744
1642.000000	43.721922
1641.000000	43.686077
1640.000000	43.648449
1639.000000	43.591676
1638.000000	43.569214
1637.000000	43.549040
1636.000000	43.486802
1635.000000	43.436071
1634.000000	43.362588
1633.000000	43.296460
1632.000000	43.249403
1631.000000	43.210847
1630.000000	43.153597
1629.000000	43.082817
1628.000000	43.025945
1627.000000	42.974278
1626.000000	42.922977
1625.000000	42.875334
1624.000000	42.794296
1623.000000	42.717071
1622.000000	42.653338
1621.000000	42.578173
1620.000000	42.520296
1619.000000	42.451494
1618.000000	42.376474
1617.000000	42.309936
1616.000000	42.233031
1615.000000	42.158460
1614.000000	42.074761
1613.000000	42.008233
1612.000000	41.933285
1611.000000	41.832076
1610.000000	41.754626
1609.000000	41.684997
1608.000000	41.601719
1607.000000	41.525586
1606.000000	41.442818
1605.000000	41.352787
1604.000000	41.258365
1603.000000	41.166463
1602.000000	41.084936
1601.000000	40.995641
1600.000000	40.932051
1599.000000	40.849627
1598.000000	40.753063
1597.000000	40.672519
1596.000000	40.589495
1595.000000	40.510158
1594.000000	40.445898
1593.000000	40.390068
1592.000000	40.304291
1591.000000	40.226202
1590.000000	40.163835
1589.000000	40.086171
1588.000000	40.009881
1587.000000	39.944268
1586.000000	39.898600
1585.000000	39.827871
1584.000000	39.756727
1583.000000	39.713032
1582.000000	39.644173
1581.000000	39.559392
1580.000000	39.498221
1579.000000	39.443695
1578.000000	39.394434
1577.000000	39.329346
1576.000000	39.244109
1575.000000	39.185205
1574.000000	39.136587
1573.000000	39.083218
1572.000000	39.040868
1571.000000	38.967000
1570.000000	38.905226
1569.000000	38.855062
1568.000000	38.816028
1567.000000	38.776398
1566.000000	38.738218
1565.000000	38.670756
1564.000000	38.615480
1563.000000	38.593205
1562.000000	38.546067
1561.000000	38.514695
1560.000000	38.491772
1559.000000	38.445171
1558.000000	38.416872
1557.000000	38.402115
1556.000000	38.347590
1555.000000	38.299597
1554.000000	38.270991
1553.000000	38.229113
1552.000000	38.193628
1551.000000	38.141278
1550.000000	38.085586
1549.000000	38.045663
1548.000000	37.987371
1547.000000	37.913522
1546.000000	37.826726
1545.000000	37.732418
1544.000000	37.631250
1543.000000	37.533683
1542.000000	37.442164
1541.000000	37.349124
1540.000000	37.222568
1539.000000	37.125739
1538.000000	37.023965
1537.000000	36.908702
1536.000000	36.776554
1535.000000	36.649637
1534.000000	36.557657
1533.000000	36.461721
1532.000000	36.334419
1531.000000	36.211882
1530.000000	36.107987
1529.000000	36.018639
1528.000000	35.901794
1527.000000	35.805518
1526.000000	35.715749
1525.000000	35.637855
1524.000000	35.535075
1523.000000	35.449163
1522.000000	35.390123
1521.000000	35.321551
1520.000000	35.238362
1519.000000	35.198107
1518.000000	35.157284
1517.000000	35.093118
1516.000000	35.044775
1515.000000	35.019136
1514.000000	34.947931
1513.000000	34.906907
1512.000000	34.862530
1511.000000	34.837438
1510.000000	34.801722
1509.000000	34.802997
1508.000000	34.774013
1507.000000	34.744730
1506.000000	34.711767
1505.000000	34.696786
1504.000000	34.689327
1503.000000	34.700668
1502.000000	34.704012
1501.000000	34.691031
1500.000000	34.711341
1499.000000	34.704578
1498.000000	34.738227
1497.000000	34.754039
1496.000000	34.765281
1495.000000	34.813889
1494.000000	34.839246
1493.000000	34.899346
1492.000000	34.937462
1491.000000	35.013176
1490.000000	35.064388
1489.000000	35.138792
1488.000000	35.232035
1487.000000	35.260028
1486.000000	35.353151
1485.000000	35.421091
1484.000000	35.525464
1483.000000	35.625231
1482.000000	35.686492
1481.000000	35.783338
1480.000000	35.888043
1479.000000	35.971263
1478.000000	36.053692
1477.000000	36.151741
1476.000000	36.226252
1475.000000	36.316069
1474.000000	36.367037
1473.000000	36.455203
1472.000000	36.549423
1471.000000	36.627613
1470.000000	36.711217
