PE UV       SUBTECH     SPECTRUM    ASCII       PEDS        4.00        
   -1
RDVeauUK 62.Sample.asc
18/03/05
11:14:20.00
18/03/05
11:14:20.00
Administrator

200.000000
1
Lambda 750
750N8071901
PerkinElmer UV WinLab 6.0.4.0738 / 1.61.00 Lambda 900

0
0
3350/servo 860.8/2
0
0
UV/VIS
1
1
1
CommonBeamDepol,150mm sphere / downward view
0
0
0
0
Program
Program
3350/servo 860.8/2
3350/0.2 860.8/0.2
3350/0.2 860.8/0.2
0
1
 
 
 
0
 
860.8
319.2
860.8
Front
100
on
 
 
0
0
0
 
0
 
 
 
0
 
 
0
0
0
0
0
 
 
 
 
0
0


0
0
#HDR
-1
-1
#GR
nm
%R
1.0
0.0
2350.000000
-1.000000
2151
8
50.227936
8.048031
#DATA
2350.000000	9.159091
2349.000000	8.970534
2348.000000	8.495657
2347.000000	9.391707
2346.000000	9.067900
2345.000000	8.663441
2344.000000	8.511585
2343.000000	8.586275
2342.000000	8.604329
2341.000000	9.022088
2340.000000	9.396048
2339.000000	9.441147
2338.000000	9.372496
2337.000000	9.281100
2336.000000	9.514452
2335.000000	9.756443
2334.000000	9.910958
2333.000000	9.962106
2332.000000	9.848725
2331.000000	9.846344
2330.000000	9.484241
2329.000000	9.791059
2328.000000	9.704935
2327.000000	9.663658
2326.000000	9.594267
2325.000000	9.290446
2324.000000	9.566597
2323.000000	9.579140
2322.000000	9.376711
2321.000000	9.569441
2320.000000	9.365192
2319.000000	9.097182
2318.000000	9.446223
2317.000000	9.465391
2316.000000	9.456993
2315.000000	9.379589
2314.000000	9.110569
2313.000000	8.951997
2312.000000	9.275205
2311.000000	9.223205
2310.000000	9.119966
2309.000000	9.287062
2308.000000	9.087210
2307.000000	8.797402
2306.000000	9.034516
2305.000000	8.785102
2304.000000	8.924615
2303.000000	9.003804
2302.000000	8.806263
2301.000000	8.701897
2300.000000	8.880794
2299.000000	8.690585
2298.000000	8.519870
2297.000000	8.445661
2296.000000	8.373246
2295.000000	8.411198
2294.000000	8.570321
2293.000000	8.256568
2292.000000	8.349695
2291.000000	8.411197
2290.000000	8.452880
2289.000000	8.381474
2288.000000	8.441050
2287.000000	8.384565
2286.000000	8.459270
2285.000000	8.589984
2284.000000	8.267733
2283.000000	8.063052
2282.000000	8.048031
2281.000000	8.144223
2280.000000	8.144422
2279.000000	8.118394
2278.000000	8.193082
2277.000000	8.095315
2276.000000	8.283942
2275.000000	8.415925
2274.000000	8.323550
2273.000000	8.289128
2272.000000	8.441564
2271.000000	8.383127
2270.000000	8.248549
2269.000000	8.253866
2268.000000	8.324758
2267.000000	8.457715
2266.000000	8.608225
2265.000000	8.504245
2264.000000	8.557156
2263.000000	8.464877
2262.000000	8.494513
2261.000000	8.745517
2260.000000	8.894007
2259.000000	9.039221
2258.000000	9.156720
2257.000000	9.258715
2256.000000	9.304651
2255.000000	9.369605
2254.000000	9.356295
2253.000000	9.572546
2252.000000	9.785182
2251.000000	9.780380
2250.000000	9.860368
2249.000000	10.079561
2248.000000	10.226332
2247.000000	10.215152
2246.000000	10.314420
2245.000000	10.506546
2244.000000	10.531636
2243.000000	10.701354
2242.000000	10.850282
2241.000000	10.731361
2240.000000	10.755091
2239.000000	10.883184
2238.000000	10.916371
2237.000000	11.002428
2236.000000	11.149590
2235.000000	11.332818
2234.000000	11.420925
2233.000000	11.396098
2232.000000	11.373486
2231.000000	11.383620
2230.000000	11.381175
2229.000000	11.483090
2228.000000	11.589675
2227.000000	11.476252
2226.000000	11.364678
2225.000000	11.252602
2224.000000	11.191741
2223.000000	11.226777
2222.000000	11.316162
2221.000000	11.497575
2220.000000	11.476701
2219.000000	11.355475
2218.000000	11.233091
2217.000000	11.381785
2216.000000	11.455450
2215.000000	11.322609
2214.000000	11.336758
2213.000000	11.375722
2212.000000	11.221550
2211.000000	11.193446
2210.000000	11.174262
2209.000000	11.030044
2208.000000	10.877174
2207.000000	11.022496
2206.000000	10.986843
2205.000000	10.906511
2204.000000	10.898924
2203.000000	10.877279
2202.000000	10.607828
2201.000000	10.660643
2200.000000	10.764117
2199.000000	10.905167
2198.000000	10.752714
2197.000000	10.539499
2196.000000	10.465406
2195.000000	10.483062
2194.000000	10.213490
2193.000000	10.176621
2192.000000	10.421469
2191.000000	10.222930
2190.000000	10.040492
2189.000000	10.183007
2188.000000	10.079149
2187.000000	10.072581
2186.000000	10.173466
2185.000000	10.201849
2184.000000	10.259921
2183.000000	10.210276
2182.000000	10.112714
2181.000000	9.871636
2180.000000	9.941352
2179.000000	9.947123
2178.000000	9.921165
2177.000000	9.926827
2176.000000	9.836039
2175.000000	9.898578
2174.000000	10.016821
2173.000000	9.962103
2172.000000	10.020301
2171.000000	10.145619
2170.000000	10.271163
2169.000000	10.328247
2168.000000	10.203048
2167.000000	10.248256
2166.000000	10.336791
2165.000000	10.374963
2164.000000	10.417138
2163.000000	10.465940
2162.000000	10.556935
2161.000000	10.503938
2160.000000	10.671184
2159.000000	10.678550
2158.000000	10.833420
2157.000000	10.837233
2156.000000	11.147865
2155.000000	11.042416
2154.000000	11.219711
2153.000000	11.181165
2152.000000	11.337747
2151.000000	11.486656
2150.000000	11.433180
2149.000000	11.681097
2148.000000	11.676421
2147.000000	11.721860
2146.000000	11.887214
2145.000000	11.864581
2144.000000	12.009556
2143.000000	12.081606
2142.000000	12.217841
2141.000000	12.389460
2140.000000	12.359090
2139.000000	12.494741
2138.000000	12.579687
2137.000000	12.612060
2136.000000	12.778628
2135.000000	12.872940
2134.000000	12.736738
2133.000000	12.627729
2132.000000	12.996932
2131.000000	12.994113
2130.000000	13.022520
2129.000000	12.987076
2128.000000	13.163943
2127.000000	12.953441
2126.000000	13.331799
2125.000000	13.321363
2124.000000	13.480796
2123.000000	13.270669
2122.000000	13.336052
2121.000000	13.362874
2120.000000	13.535753
2119.000000	13.566708
2118.000000	13.512897
2117.000000	13.541129
2116.000000	13.629700
2115.000000	13.716331
2114.000000	13.659953
2113.000000	13.723118
2112.000000	13.786598
2111.000000	13.690940
2110.000000	13.662100
2109.000000	13.657725
2108.000000	13.637843
2107.000000	13.696113
2106.000000	13.885712
2105.000000	13.869692
2104.000000	13.743015
2103.000000	13.891928
2102.000000	13.824698
2101.000000	13.882212
2100.000000	13.917982
2099.000000	13.943680
2098.000000	13.824946
2097.000000	13.811685
2096.000000	13.898189
2095.000000	13.948600
2094.000000	13.798955
2093.000000	13.804755
2092.000000	13.737279
2091.000000	13.686852
2090.000000	13.698870
2089.000000	13.793665
2088.000000	13.849135
2087.000000	13.732865
2086.000000	13.887110
2085.000000	13.775733
2084.000000	13.759682
2083.000000	13.700786
2082.000000	13.630733
2081.000000	13.515011
2080.000000	13.498093
2079.000000	13.400425
2078.000000	13.431749
2077.000000	13.377675
2076.000000	13.293938
2075.000000	13.259375
2074.000000	13.154843
2073.000000	13.029195
2072.000000	13.005981
2071.000000	12.891779
2070.000000	12.838303
2069.000000	12.681134
2068.000000	12.626146
2067.000000	12.584780
2066.000000	12.449962
2065.000000	12.357315
2064.000000	12.247737
2063.000000	12.107495
2062.000000	12.028742
2061.000000	11.975965
2060.000000	11.838909
2059.000000	11.789604
2058.000000	11.695014
2057.000000	11.632666
2056.000000	11.518989
2055.000000	11.320692
2054.000000	11.299903
2053.000000	11.203239
2052.000000	11.053897
2051.000000	10.991738
2050.000000	11.044093
2049.000000	10.939108
2048.000000	10.797738
2047.000000	10.783390
2046.000000	10.746593
2045.000000	10.704278
2044.000000	10.694218
2043.000000	10.741114
2042.000000	10.791653
2041.000000	10.772340
2040.000000	10.779074
2039.000000	10.743494
2038.000000	10.732012
2037.000000	10.791211
2036.000000	10.861516
2035.000000	10.923060
2034.000000	10.952986
2033.000000	10.974789
2032.000000	11.093882
2031.000000	11.220125
2030.000000	11.305310
2029.000000	11.403305
2028.000000	11.529282
2027.000000	11.528809
2026.000000	11.591326
2025.000000	11.717887
2024.000000	11.791423
2023.000000	11.864910
2022.000000	11.870515
2021.000000	11.927870
2020.000000	11.955399
2019.000000	11.986424
2018.000000	12.007290
2017.000000	11.991159
2016.000000	12.011791
2015.000000	12.028914
2014.000000	12.021258
2013.000000	12.035293
2012.000000	12.052264
2011.000000	12.029849
2010.000000	12.010545
2009.000000	11.967807
2008.000000	11.926158
2007.000000	11.914111
2006.000000	11.864818
2005.000000	11.855774
2004.000000	11.784193
2003.000000	11.735944
2002.000000	11.704090
2001.000000	11.629524
2000.000000	11.556772
1999.000000	11.554887
1998.000000	11.490579
1997.000000	11.400745
1996.000000	11.370715
1995.000000	11.345351
1994.000000	11.235596
1993.000000	11.154447
1992.000000	11.115840
1991.000000	11.038044
1990.000000	10.996787
1989.000000	10.923126
1988.000000	10.883412
1987.000000	10.812667
1986.000000	10.741792
1985.000000	10.670012
1984.000000	10.596257
1983.000000	10.593092
1982.000000	10.534748
1981.000000	10.473856
1980.000000	10.474532
1979.000000	10.406499
1978.000000	10.333118
1977.000000	10.307652
1976.000000	10.248201
1975.000000	10.234967
1974.000000	10.196748
1973.000000	10.103395
1972.000000	10.028463
1971.000000	9.959715
1970.000000	9.919685
1969.000000	9.842081
1968.000000	9.828458
1967.000000	9.843982
1966.000000	9.826448
1965.000000	9.725571
1964.000000	9.692723
1963.000000	9.653595
1962.000000	9.594873
1961.000000	9.548846
1960.000000	9.522683
1959.000000	9.404841
1958.000000	9.428604
1957.000000	9.439662
1956.000000	9.453790
1955.000000	9.383924
1954.000000	9.362956
1953.000000	9.370642
1952.000000	9.329544
1951.000000	9.338773
1950.000000	9.206805
1949.000000	9.236418
1948.000000	9.213559
1947.000000	9.304598
1946.000000	9.279669
1945.000000	9.306499
1944.000000	9.306808
1943.000000	9.289963
1942.000000	9.373300
1941.000000	9.417688
1940.000000	9.364102
1939.000000	9.380728
1938.000000	9.459875
1937.000000	9.518962
1936.000000	9.632198
1935.000000	9.627987
1934.000000	9.692436
1933.000000	9.860802
1932.000000	9.819472
1931.000000	9.987516
1930.000000	9.981192
1929.000000	10.203246
1928.000000	10.299022
1927.000000	10.369094
1926.000000	10.454450
1925.000000	10.746069
1924.000000	10.897620
1923.000000	11.040904
1922.000000	11.155463
1921.000000	11.419324
1920.000000	11.589153
1919.000000	11.705992
1918.000000	11.907835
1917.000000	12.219742
1916.000000	12.226597
1915.000000	12.628988
1914.000000	12.959982
1913.000000	13.191909
1912.000000	13.410243
1911.000000	13.666471
1910.000000	14.003168
1909.000000	14.247795
1908.000000	14.651538
1907.000000	15.007094
1906.000000	15.370218
1905.000000	15.736218
1904.000000	16.158470
1903.000000	16.646571
1902.000000	17.029190
1901.000000	17.399268
1900.000000	17.872229
1899.000000	18.367678
1898.000000	18.837132
1897.000000	19.232236
1896.000000	19.683530
1895.000000	20.075374
1894.000000	20.559424
1893.000000	21.044505
1892.000000	21.432723
1891.000000	21.908587
1890.000000	22.389798
1889.000000	22.821265
1888.000000	23.261063
1887.000000	23.689245
1886.000000	24.109633
1885.000000	24.513437
1884.000000	24.909004
1883.000000	25.337374
1882.000000	25.707802
1881.000000	25.988306
1880.000000	26.386904
1879.000000	26.719704
1878.000000	27.050466
1877.000000	27.379205
1876.000000	27.641500
1875.000000	27.877969
1874.000000	28.166163
1873.000000	28.417201
1872.000000	28.626932
1871.000000	28.908302
1870.000000	29.065919
1869.000000	29.220640
1868.000000	29.419914
1867.000000	29.581252
1866.000000	29.652650
1865.000000	29.707927
1864.000000	29.855711
1863.000000	29.998339
1862.000000	30.110210
1861.000000	30.160045
1860.000000	30.192300
1859.000000	30.251933
1858.000000	30.276145
1857.000000	30.376317
1856.000000	30.457923
1855.000000	30.437777
1854.000000	30.476312
1853.000000	30.498157
1852.000000	30.537114
1851.000000	30.543933
1850.000000	30.562804
1849.000000	30.545291
1848.000000	30.542862
1847.000000	30.533662
1846.000000	30.517864
1845.000000	30.510647
1844.000000	30.475142
1843.000000	30.415205
1842.000000	30.396130
1841.000000	30.351901
1840.000000	30.293238
1839.000000	30.304178
1838.000000	30.265318
1837.000000	30.156788
1836.000000	30.100837
1835.000000	30.050329
1834.000000	29.996768
1833.000000	29.972154
1832.000000	29.893288
1831.000000	29.800428
1830.000000	29.744255
1829.000000	29.718473
1828.000000	29.698493
1827.000000	29.634019
1826.000000	29.590368
1825.000000	29.542484
1824.000000	29.496961
1823.000000	29.455693
1822.000000	29.401206
1821.000000	29.366567
1820.000000	29.306814
1819.000000	29.240547
1818.000000	29.204560
1817.000000	29.163923
1816.000000	29.111081
1815.000000	29.054181
1814.000000	28.991083
1813.000000	28.950399
1812.000000	28.920883
1811.000000	28.901384
1810.000000	28.855245
1809.000000	28.833912
1808.000000	28.813162
1807.000000	28.746414
1806.000000	28.698535
1805.000000	28.647329
1804.000000	28.600807
1803.000000	28.540495
1802.000000	28.495499
1801.000000	28.500023
1800.000000	28.459484
1799.000000	28.419687
1798.000000	28.395281
1797.000000	28.362149
1796.000000	28.325000
1795.000000	28.296950
1794.000000	28.276580
1793.000000	28.244589
1792.000000	28.214355
1791.000000	28.195880
1790.000000	28.163470
1789.000000	28.137533
1788.000000	28.143142
1787.000000	28.107951
1786.000000	28.052315
1785.000000	28.035642
1784.000000	27.996124
1783.000000	27.970608
1782.000000	27.903770
1781.000000	27.849732
1780.000000	27.790065
1779.000000	27.746609
1778.000000	27.688869
1777.000000	27.623756
1776.000000	27.579343
1775.000000	27.481673
1774.000000	27.426541
1773.000000	27.371872
1772.000000	27.284628
1771.000000	27.215541
1770.000000	27.150071
1769.000000	27.037550
1768.000000	26.977414
1767.000000	26.922034
1766.000000	26.859955
1765.000000	26.786922
1764.000000	26.716796
1763.000000	26.654714
1762.000000	26.579537
1761.000000	26.474382
1760.000000	26.419792
1759.000000	26.386591
1758.000000	26.284652
1757.000000	26.206671
1756.000000	26.139755
1755.000000	26.070689
1754.000000	25.991006
1753.000000	25.919988
1752.000000	25.847358
1751.000000	25.797956
1750.000000	25.748243
1749.000000	25.656800
1748.000000	25.569112
1747.000000	25.469821
1746.000000	25.393249
1745.000000	25.324221
1744.000000	25.272132
1743.000000	25.221129
1742.000000	25.139148
1741.000000	25.042493
1740.000000	24.982101
1739.000000	24.920257
1738.000000	24.869972
1737.000000	24.834641
1736.000000	24.806760
1735.000000	24.787918
1734.000000	24.784999
1733.000000	24.759352
1732.000000	24.774517
1731.000000	24.804310
1730.000000	24.801228
1729.000000	24.827231
1728.000000	24.935053
1727.000000	24.959000
1726.000000	25.063093
1725.000000	25.093063
1724.000000	25.227937
1723.000000	25.334767
1722.000000	25.428685
1721.000000	25.538777
1720.000000	25.621162
1719.000000	25.759571
1718.000000	25.857227
1717.000000	25.989596
1716.000000	26.093415
1715.000000	26.193254
1714.000000	26.299445
1713.000000	26.372568
1712.000000	26.469716
1711.000000	26.537792
1710.000000	26.613328
1709.000000	26.705989
1708.000000	26.756790
1707.000000	26.787748
1706.000000	26.811682
1705.000000	26.857481
1704.000000	26.915034
1703.000000	26.921675
1702.000000	26.916852
1701.000000	26.939616
1700.000000	26.976446
1699.000000	26.997968
1698.000000	27.026267
1697.000000	27.104762
1696.000000	27.096174
1695.000000	27.138209
1694.000000	27.208206
1693.000000	27.293050
1692.000000	27.362641
1691.000000	27.446528
1690.000000	27.562038
1689.000000	27.665122
1688.000000	27.830971
1687.000000	27.999399
1686.000000	28.148976
1685.000000	28.333817
1684.000000	28.523313
1683.000000	28.731303
1682.000000	28.960993
1681.000000	29.177802
1680.000000	29.388818
1679.000000	29.633690
1678.000000	29.886743
1677.000000	30.126696
1676.000000	30.376587
1675.000000	30.624602
1674.000000	30.865225
1673.000000	31.132286
1672.000000	31.352242
1671.000000	31.574993
1670.000000	31.798893
1669.000000	32.028314
1668.000000	32.193726
1667.000000	32.387305
1666.000000	32.533810
1665.000000	32.670403
1664.000000	32.795604
1663.000000	32.949187
1662.000000	33.072084
1661.000000	33.181908
1660.000000	33.264672
1659.000000	33.367690
1658.000000	33.439949
1657.000000	33.488851
1656.000000	33.562785
1655.000000	33.580188
1654.000000	33.613140
1653.000000	33.682315
1652.000000	33.704506
1651.000000	33.708472
1650.000000	33.698256
1649.000000	33.704681
1648.000000	33.669906
1647.000000	33.660894
1646.000000	33.662156
1645.000000	33.622653
1644.000000	33.594873
1643.000000	33.582848
1642.000000	33.573145
1641.000000	33.518235
1640.000000	33.480266
1639.000000	33.443938
1638.000000	33.391735
1637.000000	33.359309
1636.000000	33.283681
1635.000000	33.245663
1634.000000	33.197666
1633.000000	33.149290
1632.000000	33.088169
1631.000000	33.040360
1630.000000	32.957777
1629.000000	32.881134
1628.000000	32.827666
1627.000000	32.775207
1626.000000	32.694060
1625.000000	32.636115
1624.000000	32.590283
1623.000000	32.531300
1622.000000	32.451133
1621.000000	32.371410
1620.000000	32.312860
1619.000000	32.219384
1618.000000	32.155902
1617.000000	32.090916
1616.000000	32.002143
1615.000000	31.913886
1614.000000	31.846447
1613.000000	31.767289
1612.000000	31.670172
1611.000000	31.572077
1610.000000	31.515557
1609.000000	31.439245
1608.000000	31.349362
1607.000000	31.268471
1606.000000	31.171805
1605.000000	31.090661
1604.000000	31.007053
1603.000000	30.909465
1602.000000	30.813043
1601.000000	30.728571
1600.000000	30.650419
1599.000000	30.579626
1598.000000	30.496227
1597.000000	30.414613
1596.000000	30.334702
1595.000000	30.256692
1594.000000	30.191847
1593.000000	30.123784
1592.000000	30.040699
1591.000000	29.953193
1590.000000	29.894242
1589.000000	29.836241
1588.000000	29.753876
1587.000000	29.687936
1586.000000	29.631546
1585.000000	29.566878
1584.000000	29.501534
1583.000000	29.446403
1582.000000	29.386320
1581.000000	29.315082
1580.000000	29.262321
1579.000000	29.212451
1578.000000	29.158460
1577.000000	29.098316
1576.000000	29.021902
1575.000000	28.957209
1574.000000	28.903845
1573.000000	28.844843
1572.000000	28.793234
1571.000000	28.727074
1570.000000	28.683372
1569.000000	28.635315
1568.000000	28.577673
1567.000000	28.526270
1566.000000	28.477010
1565.000000	28.442860
1564.000000	28.415893
1563.000000	28.384686
1562.000000	28.341706
1561.000000	28.299596
1560.000000	28.279469
1559.000000	28.230556
1558.000000	28.194798
1557.000000	28.186967
1556.000000	28.164537
1555.000000	28.145618
1554.000000	28.095782
1553.000000	28.066924
1552.000000	28.025029
1551.000000	27.973008
1550.000000	27.922352
1549.000000	27.866106
1548.000000	27.814200
1547.000000	27.767113
1546.000000	27.693977
1545.000000	27.615852
1544.000000	27.532253
1543.000000	27.452804
1542.000000	27.354455
1541.000000	27.243493
1540.000000	27.141453
1539.000000	27.058313
1538.000000	26.968489
1537.000000	26.835751
1536.000000	26.719608
1535.000000	26.611202
1534.000000	26.501568
1533.000000	26.393575
1532.000000	26.278063
1531.000000	26.196781
1530.000000	26.092579
1529.000000	25.987185
1528.000000	25.896429
1527.000000	25.795529
1526.000000	25.698670
1525.000000	25.643557
1524.000000	25.574200
1523.000000	25.500602
1522.000000	25.434493
1521.000000	25.382357
1520.000000	25.326007
1519.000000	25.264336
1518.000000	25.231608
1517.000000	25.168416
1516.000000	25.118886
1515.000000	25.090762
1514.000000	25.033244
1513.000000	24.985116
1512.000000	24.973044
1511.000000	24.936232
1510.000000	24.908610
1509.000000	24.884973
1508.000000	24.881113
1507.000000	24.847909
1506.000000	24.843365
1505.000000	24.822210
1504.000000	24.811000
1503.000000	24.818973
1502.000000	24.807941
1501.000000	24.783177
1500.000000	24.801800
1499.000000	24.814068
1498.000000	24.830657
1497.000000	24.836792
1496.000000	24.836416
1495.000000	24.899569
1494.000000	24.898986
1493.000000	24.946115
1492.000000	24.984685
1491.000000	25.033624
1490.000000	25.105962
1489.000000	25.147840
1488.000000	25.217368
1487.000000	25.288852
1486.000000	25.345342
1485.000000	25.408313
1484.000000	25.483803
1483.000000	25.573761
1482.000000	25.623445
1481.000000	25.724993
1480.000000	25.816554
1479.000000	25.883858
1478.000000	25.961501
1477.000000	26.048067
1476.000000	26.118409
1475.000000	26.200127
1474.000000	26.272352
1473.000000	26.353658
1472.000000	26.444949
1471.000000	26.497294
1470.000000	26.573816
1469.000000	26.635085
1468.000000	26.704873
1467.000000	26.772578
1466.000000	26.853708
1465.000000	26.921369
1464.000000	26.971830
1463.000000	27.047221
