PE UV       SUBTECH     SPECTRUM    ASCII       PEDS        4.00        
   -1
RDVeauAl 32.Sample.asc
18/03/05
10:01:59.00
18/03/05
10:01:59.00
Administrator

200.000000
1
Lambda 750
750N8071901
PerkinElmer UV WinLab 6.0.4.0738 / 1.61.00 Lambda 900

0
0
3350/servo 860.8/2
0
0
UV/VIS
1
1
1
CommonBeamDepol,150mm sphere / downward view
0
0
0
0
Program
Program
3350/servo 860.8/2
3350/0.2 860.8/0.2
3350/0.2 860.8/0.2
0
1
 
 
 
0
 
860.8
319.2
860.8
Front
100
on
 
 
0
0
0
 
0
 
 
 
0
 
 
0
0
0
0
0
 
 
 
 
0
0


0
0
#HDR
-1
-1
#GR
nm
%R
1.0
0.0
2350.000000
-1.000000
2151
8
60.930590
13.864271
#DATA
2350.000000	27.995039
2349.000000	27.744441
2348.000000	27.674345
2347.000000	28.302143
2346.000000	28.093439
2345.000000	27.668353
2344.000000	27.493798
2343.000000	27.314029
2342.000000	27.577813
2341.000000	27.850166
2340.000000	27.781630
2339.000000	28.191488
2338.000000	28.381731
2337.000000	28.595434
2336.000000	28.343029
2335.000000	28.723146
2334.000000	28.457451
2333.000000	28.923477
2332.000000	28.875417
2331.000000	28.533296
2330.000000	28.200512
2329.000000	28.410382
2328.000000	28.226584
2327.000000	27.861193
2326.000000	28.249476
2325.000000	28.169333
2324.000000	28.327715
2323.000000	28.536768
2322.000000	28.244307
2321.000000	27.956662
2320.000000	28.000465
2319.000000	27.869906
2318.000000	27.956620
2317.000000	28.156473
2316.000000	27.981405
2315.000000	27.702790
2314.000000	27.684012
2313.000000	27.743640
2312.000000	27.547362
2311.000000	27.575568
2310.000000	27.390237
2309.000000	27.279476
2308.000000	27.172548
2307.000000	27.320125
2306.000000	27.258097
2305.000000	27.082486
2304.000000	27.049298
2303.000000	27.067780
2302.000000	27.062642
2301.000000	27.115411
2300.000000	26.835613
2299.000000	26.802485
2298.000000	26.634456
2297.000000	26.405361
2296.000000	26.356491
2295.000000	26.169184
2294.000000	26.232406
2293.000000	26.229140
2292.000000	26.140525
2291.000000	26.236510
2290.000000	26.050950
2289.000000	25.898116
2288.000000	26.016832
2287.000000	26.073475
2286.000000	25.976366
2285.000000	25.894887
2284.000000	25.838819
2283.000000	25.728903
2282.000000	25.495660
2281.000000	25.639900
2280.000000	25.838856
2279.000000	25.910287
2278.000000	25.843563
2277.000000	25.642750
2276.000000	25.785708
2275.000000	25.965042
2274.000000	26.039152
2273.000000	26.091151
2272.000000	26.019310
2271.000000	25.985223
2270.000000	25.995306
2269.000000	26.082294
2268.000000	26.260560
2267.000000	26.223578
2266.000000	26.385341
2265.000000	26.554662
2264.000000	26.584770
2263.000000	26.664175
2262.000000	26.795307
2261.000000	26.867763
2260.000000	27.135914
2259.000000	27.229454
2258.000000	27.297364
2257.000000	27.584351
2256.000000	27.743121
2255.000000	27.874126
2254.000000	28.020970
2253.000000	28.112845
2252.000000	28.295007
2251.000000	28.516269
2250.000000	28.691521
2249.000000	28.886548
2248.000000	29.026800
2247.000000	29.158722
2246.000000	29.487666
2245.000000	29.732192
2244.000000	29.766262
2243.000000	29.982427
2242.000000	30.261123
2241.000000	30.328896
2240.000000	30.343291
2239.000000	30.428395
2238.000000	30.387430
2237.000000	30.522762
2236.000000	30.820997
2235.000000	30.942928
2234.000000	31.020240
2233.000000	30.836637
2232.000000	30.902265
2231.000000	31.202012
2230.000000	31.162730
2229.000000	31.193924
2228.000000	31.244189
2227.000000	31.286563
2226.000000	31.226318
2225.000000	31.117359
2224.000000	31.118373
2223.000000	31.088741
2222.000000	31.243888
2221.000000	31.220854
2220.000000	31.093580
2219.000000	30.972822
2218.000000	30.813848
2217.000000	30.850797
2216.000000	30.743812
2215.000000	30.804365
2214.000000	30.890068
2213.000000	30.809561
2212.000000	30.624653
2211.000000	30.511564
2210.000000	30.591490
2209.000000	30.520368
2208.000000	30.493650
2207.000000	30.442041
2206.000000	30.397307
2205.000000	30.472880
2204.000000	30.340973
2203.000000	30.099162
2202.000000	30.000344
2201.000000	29.882613
2200.000000	29.978852
2199.000000	30.014516
2198.000000	29.812522
2197.000000	29.711824
2196.000000	29.712185
2195.000000	29.601248
2194.000000	29.525351
2193.000000	29.442762
2192.000000	29.414661
2191.000000	29.276186
2190.000000	29.320739
2189.000000	29.318294
2188.000000	29.275895
2187.000000	29.063262
2186.000000	29.086151
2185.000000	29.003017
2184.000000	29.041439
2183.000000	29.061627
2182.000000	28.895430
2181.000000	28.929972
2180.000000	28.977037
2179.000000	28.893094
2178.000000	28.824083
2177.000000	28.826205
2176.000000	28.829031
2175.000000	28.984686
2174.000000	28.990408
2173.000000	28.903218
2172.000000	29.042237
2171.000000	29.132844
2170.000000	29.112895
2169.000000	29.146552
2168.000000	29.288086
2167.000000	29.390847
2166.000000	29.480719
2165.000000	29.485259
2164.000000	29.569269
2163.000000	29.625049
2162.000000	29.833030
2161.000000	30.011048
2160.000000	30.277691
2159.000000	30.315337
2158.000000	30.276758
2157.000000	30.642174
2156.000000	30.652501
2155.000000	30.716619
2154.000000	30.932746
2153.000000	31.053857
2152.000000	31.215908
2151.000000	31.226125
2150.000000	31.328343
2149.000000	31.424412
2148.000000	31.616553
2147.000000	31.993595
2146.000000	32.086403
2145.000000	32.169766
2144.000000	32.240270
2143.000000	32.471036
2142.000000	32.590748
2141.000000	32.750298
2140.000000	32.601772
2139.000000	32.825606
2138.000000	33.104529
2137.000000	33.101940
2136.000000	33.175803
2135.000000	33.232954
2134.000000	33.631934
2133.000000	33.491993
2132.000000	33.619661
2131.000000	33.607740
2130.000000	33.945414
2129.000000	33.977909
2128.000000	33.841712
2127.000000	33.931143
2126.000000	34.082783
2125.000000	34.035433
2124.000000	34.085162
2123.000000	34.100487
2122.000000	34.341061
2121.000000	34.292834
2120.000000	34.235461
2119.000000	34.410860
2118.000000	34.558117
2117.000000	34.515067
2116.000000	34.518254
2115.000000	34.668590
2114.000000	34.672748
2113.000000	34.765232
2112.000000	34.648682
2111.000000	34.585803
2110.000000	34.566756
2109.000000	34.671894
2108.000000	34.860770
2107.000000	34.776008
2106.000000	34.777838
2105.000000	34.787643
2104.000000	34.815430
2103.000000	34.831057
2102.000000	34.845161
2101.000000	34.906147
2100.000000	34.936817
2099.000000	34.875414
2098.000000	34.897658
2097.000000	34.909487
2096.000000	34.941228
2095.000000	34.962144
2094.000000	34.952408
2093.000000	34.931715
2092.000000	34.973276
2091.000000	34.835116
2090.000000	34.881264
2089.000000	34.877246
2088.000000	34.839040
2087.000000	34.922678
2086.000000	34.843708
2085.000000	34.805166
2084.000000	34.755496
2083.000000	34.749994
2082.000000	34.579943
2081.000000	34.449382
2080.000000	34.381249
2079.000000	34.335458
2078.000000	34.265799
2077.000000	34.247693
2076.000000	34.097089
2075.000000	33.955352
2074.000000	33.833383
2073.000000	33.753584
2072.000000	33.728465
2071.000000	33.704640
2070.000000	33.587217
2069.000000	33.421742
2068.000000	33.225692
2067.000000	33.069731
2066.000000	32.881783
2065.000000	32.783654
2064.000000	32.742248
2063.000000	32.583768
2062.000000	32.440239
2061.000000	32.292863
2060.000000	32.164875
2059.000000	32.021477
2058.000000	31.864188
2057.000000	31.747886
2056.000000	31.688024
2055.000000	31.535338
2054.000000	31.407753
2053.000000	31.282641
2052.000000	31.082144
2051.000000	30.873267
2050.000000	30.901175
2049.000000	30.816526
2048.000000	30.736168
2047.000000	30.704207
2046.000000	30.592006
2045.000000	30.605518
2044.000000	30.600255
2043.000000	30.517448
2042.000000	30.548457
2041.000000	30.651512
2040.000000	30.692067
2039.000000	30.682988
2038.000000	30.667191
2037.000000	30.707638
2036.000000	30.835651
2035.000000	31.004540
2034.000000	31.118607
2033.000000	31.222703
2032.000000	31.283016
2031.000000	31.345576
2030.000000	31.471215
2029.000000	31.650180
2028.000000	31.789441
2027.000000	31.917732
2026.000000	32.085731
2025.000000	32.227889
2024.000000	32.289294
2023.000000	32.337029
2022.000000	32.405341
2021.000000	32.457506
2020.000000	32.562528
2019.000000	32.605940
2018.000000	32.599835
2017.000000	32.650703
2016.000000	32.675643
2015.000000	32.724377
2014.000000	32.740043
2013.000000	32.746469
2012.000000	32.740968
2011.000000	32.750193
2010.000000	32.714603
2009.000000	32.685372
2008.000000	32.632445
2007.000000	32.543422
2006.000000	32.497536
2005.000000	32.440970
2004.000000	32.392799
2003.000000	32.301633
2002.000000	32.217619
2001.000000	32.152173
2000.000000	32.088486
1999.000000	32.010231
1998.000000	31.894444
1997.000000	31.822869
1996.000000	31.808196
1995.000000	31.683949
1994.000000	31.534501
1993.000000	31.452286
1992.000000	31.391679
1991.000000	31.327921
1990.000000	31.248108
1989.000000	31.153409
1988.000000	31.015838
1987.000000	30.906383
1986.000000	30.810045
1985.000000	30.743272
1984.000000	30.643728
1983.000000	30.628865
1982.000000	30.552810
1981.000000	30.515042
1980.000000	30.386582
1979.000000	30.269852
1978.000000	30.196001
1977.000000	30.067159
1976.000000	29.962906
1975.000000	29.911790
1974.000000	29.846507
1973.000000	29.751442
1972.000000	29.692938
1971.000000	29.572820
1970.000000	29.450674
1969.000000	29.399196
1968.000000	29.326529
1967.000000	29.269311
1966.000000	29.232005
1965.000000	29.166857
1964.000000	29.021089
1963.000000	28.934989
1962.000000	28.850634
1961.000000	28.773765
1960.000000	28.719774
1959.000000	28.608126
1958.000000	28.608299
1957.000000	28.521222
1956.000000	28.457746
1955.000000	28.374289
1954.000000	28.343514
1953.000000	28.279689
1952.000000	28.289151
1951.000000	28.262376
1950.000000	28.189318
1949.000000	28.078544
1948.000000	28.070966
1947.000000	28.084492
1946.000000	28.057682
1945.000000	28.067168
1944.000000	28.023457
1943.000000	28.046212
1942.000000	28.053641
1941.000000	28.065264
1940.000000	28.118048
1939.000000	28.244481
1938.000000	28.284700
1937.000000	28.317807
1936.000000	28.445053
1935.000000	28.473116
1934.000000	28.633473
1933.000000	28.766979
1932.000000	28.940365
1931.000000	29.029075
1930.000000	29.115053
1929.000000	29.289740
1928.000000	29.542835
1927.000000	29.720695
1926.000000	29.961907
1925.000000	30.205241
1924.000000	30.373218
1923.000000	30.594345
1922.000000	30.870018
1921.000000	31.183494
1920.000000	31.322740
1919.000000	31.665998
1918.000000	31.984578
1917.000000	32.263252
1916.000000	32.505713
1915.000000	32.918565
1914.000000	33.304814
1913.000000	33.591980
1912.000000	33.905023
1911.000000	34.288326
1910.000000	34.619066
1909.000000	35.016268
1908.000000	35.384962
1907.000000	35.889531
1906.000000	36.275831
1905.000000	36.666177
1904.000000	37.149801
1903.000000	37.552212
1902.000000	37.969497
1901.000000	38.431253
1900.000000	38.866278
1899.000000	39.348069
1898.000000	39.855630
1897.000000	40.273941
1896.000000	40.578565
1895.000000	41.095811
1894.000000	41.532970
1893.000000	41.957131
1892.000000	42.390745
1891.000000	42.782444
1890.000000	43.199067
1889.000000	43.621065
1888.000000	43.977141
1887.000000	44.229740
1886.000000	44.631145
1885.000000	45.015205
1884.000000	45.291429
1883.000000	45.643242
1882.000000	45.928035
1881.000000	46.240066
1880.000000	46.457759
1879.000000	46.743325
1878.000000	46.961170
1877.000000	47.204322
1876.000000	47.419311
1875.000000	47.641080
1874.000000	47.833695
1873.000000	48.027256
1872.000000	48.163655
1871.000000	48.343156
1870.000000	48.471455
1869.000000	48.654042
1868.000000	48.789847
1867.000000	48.853794
1866.000000	48.939194
1865.000000	48.968843
1864.000000	49.085495
1863.000000	49.127166
1862.000000	49.189754
1861.000000	49.211118
1860.000000	49.321566
1859.000000	49.345468
1858.000000	49.332761
1857.000000	49.379790
1856.000000	49.426862
1855.000000	49.444184
1854.000000	49.467214
1853.000000	49.493822
1852.000000	49.482900
1851.000000	49.512177
1850.000000	49.476931
1849.000000	49.414537
1848.000000	49.417122
1847.000000	49.430028
1846.000000	49.436154
1845.000000	49.434960
1844.000000	49.443767
1843.000000	49.427340
1842.000000	49.399254
1841.000000	49.341774
1840.000000	49.294599
1839.000000	49.272041
1838.000000	49.232304
1837.000000	49.165820
1836.000000	49.151009
1835.000000	49.137131
1834.000000	49.080203
1833.000000	49.044652
1832.000000	49.004787
1831.000000	48.973252
1830.000000	48.942208
1829.000000	48.947823
1828.000000	48.930955
1827.000000	48.851937
1826.000000	48.807335
1825.000000	48.811208
1824.000000	48.739056
1823.000000	48.678368
1822.000000	48.662862
1821.000000	48.626764
1820.000000	48.604488
1819.000000	48.556516
1818.000000	48.508340
1817.000000	48.460932
1816.000000	48.436997
1815.000000	48.437705
1814.000000	48.388573
1813.000000	48.352392
1812.000000	48.331417
1811.000000	48.303300
1810.000000	48.288836
1809.000000	48.261170
1808.000000	48.218083
1807.000000	48.190525
1806.000000	48.149502
1805.000000	48.109631
1804.000000	48.078537
1803.000000	48.068212
1802.000000	48.038252
1801.000000	48.022824
1800.000000	47.986898
1799.000000	47.931659
1798.000000	47.923084
1797.000000	47.906417
1796.000000	47.867153
1795.000000	47.841797
1794.000000	47.841067
1793.000000	47.828546
1792.000000	47.798491
1791.000000	47.770751
1790.000000	47.730869
1789.000000	47.717350
1788.000000	47.692409
1787.000000	47.657281
1786.000000	47.617819
1785.000000	47.583765
1784.000000	47.561490
1783.000000	47.560494
1782.000000	47.511432
1781.000000	47.471829
1780.000000	47.449489
1779.000000	47.419699
1778.000000	47.359959
1777.000000	47.294681
1776.000000	47.251612
1775.000000	47.196957
1774.000000	47.132493
1773.000000	47.097588
1772.000000	47.019454
1771.000000	46.990715
1770.000000	46.915443
1769.000000	46.861669
1768.000000	46.801867
1767.000000	46.726096
1766.000000	46.672632
1765.000000	46.613932
1764.000000	46.604594
1763.000000	46.538102
1762.000000	46.489259
1761.000000	46.394579
1760.000000	46.310896
1759.000000	46.287748
1758.000000	46.229310
1757.000000	46.152472
1756.000000	46.111018
1755.000000	46.070628
1754.000000	46.018304
1753.000000	45.956620
1752.000000	45.891699
1751.000000	45.843178
1750.000000	45.799901
1749.000000	45.720940
1748.000000	45.661791
1747.000000	45.610234
1746.000000	45.525542
1745.000000	45.474717
1744.000000	45.394603
1743.000000	45.360027
1742.000000	45.281473
1741.000000	45.253427
1740.000000	45.191688
1739.000000	45.146837
1738.000000	45.101286
1737.000000	45.071503
1736.000000	45.076179
1735.000000	45.031756
1734.000000	45.044493
1733.000000	45.003046
1732.000000	44.980795
1731.000000	44.994309
1730.000000	45.003898
1729.000000	45.030392
1728.000000	45.108699
1727.000000	45.150926
1726.000000	45.254816
1725.000000	45.298725
1724.000000	45.363333
1723.000000	45.475234
1722.000000	45.549675
1721.000000	45.617047
1720.000000	45.740973
1719.000000	45.867126
1718.000000	45.959231
1717.000000	46.031715
1716.000000	46.117418
1715.000000	46.176237
1714.000000	46.287060
1713.000000	46.336875
1712.000000	46.419949
1711.000000	46.495995
1710.000000	46.527970
1709.000000	46.585890
1708.000000	46.642040
1707.000000	46.688547
1706.000000	46.744301
1705.000000	46.776353
1704.000000	46.815314
1703.000000	46.805119
1702.000000	46.774762
1701.000000	46.824448
1700.000000	46.870737
1699.000000	46.847510
1698.000000	46.913687
1697.000000	46.962952
1696.000000	46.960374
1695.000000	46.977013
1694.000000	47.038701
1693.000000	47.074356
1692.000000	47.137303
1691.000000	47.219933
1690.000000	47.272181
1689.000000	47.371872
1688.000000	47.498734
1687.000000	47.619816
1686.000000	47.750017
1685.000000	47.880228
1684.000000	48.007589
1683.000000	48.153291
1682.000000	48.348381
1681.000000	48.498907
1680.000000	48.646588
1679.000000	48.844934
1678.000000	48.996037
1677.000000	49.144705
1676.000000	49.352728
1675.000000	49.538511
1674.000000	49.702077
1673.000000	49.900002
1672.000000	50.072604
1671.000000	50.200160
1670.000000	50.354480
1669.000000	50.525265
1668.000000	50.612152
1667.000000	50.769624
1666.000000	50.852233
1665.000000	50.951269
1664.000000	51.061762
1663.000000	51.117437
1662.000000	51.231127
1661.000000	51.329900
1660.000000	51.375830
1659.000000	51.435823
1658.000000	51.520800
1657.000000	51.562223
1656.000000	51.603997
1655.000000	51.650058
1654.000000	51.665348
1653.000000	51.698823
1652.000000	51.720041
1651.000000	51.692992
1650.000000	51.715965
1649.000000	51.717889
1648.000000	51.711236
1647.000000	51.711196
1646.000000	51.695370
1645.000000	51.710244
1644.000000	51.666290
1643.000000	51.644470
1642.000000	51.616215
1641.000000	51.587409
1640.000000	51.573989
1639.000000	51.555494
1638.000000	51.539014
1637.000000	51.502865
1636.000000	51.482869
1635.000000	51.438994
1634.000000	51.402084
1633.000000	51.370684
1632.000000	51.350079
1631.000000	51.316959
1630.000000	51.266424
1629.000000	51.232557
1628.000000	51.180346
1627.000000	51.148550
1626.000000	51.130583
1625.000000	51.068555
1624.000000	51.023415
1623.000000	50.974108
1622.000000	50.916170
1621.000000	50.865924
1620.000000	50.834674
1619.000000	50.791659
1618.000000	50.745521
1617.000000	50.690546
1616.000000	50.641041
1615.000000	50.576943
1614.000000	50.520537
1613.000000	50.473172
1612.000000	50.414142
1611.000000	50.359727
1610.000000	50.303363
1609.000000	50.258515
1608.000000	50.197227
1607.000000	50.147768
1606.000000	50.087003
1605.000000	50.011617
1604.000000	49.940347
1603.000000	49.875427
1602.000000	49.831284
1601.000000	49.773653
1600.000000	49.721067
1599.000000	49.675179
1598.000000	49.615252
1597.000000	49.553047
1596.000000	49.490445
1595.000000	49.440151
1594.000000	49.405550
1593.000000	49.355923
1592.000000	49.303384
1591.000000	49.248903
1590.000000	49.203800
1589.000000	49.147623
1588.000000	49.095625
1587.000000	49.059182
1586.000000	49.022717
1585.000000	48.976741
1584.000000	48.925715
1583.000000	48.877945
1582.000000	48.833452
1581.000000	48.797516
1580.000000	48.761373
1579.000000	48.715478
1578.000000	48.684929
1577.000000	48.634165
1576.000000	48.573918
1575.000000	48.539111
1574.000000	48.501554
1573.000000	48.457458
1572.000000	48.413078
1571.000000	48.397064
1570.000000	48.352808
1569.000000	48.305567
1568.000000	48.279814
1567.000000	48.242290
1566.000000	48.216187
1565.000000	48.207185
1564.000000	48.173339
1563.000000	48.159838
1562.000000	48.134567
1561.000000	48.099507
1560.000000	48.082106
1559.000000	48.060901
1558.000000	48.040738
1557.000000	48.026807
1556.000000	48.005055
1555.000000	47.984469
1554.000000	47.979016
1553.000000	47.961943
1552.000000	47.929193
1551.000000	47.885096
1550.000000	47.860660
1549.000000	47.841382
1548.000000	47.802274
1547.000000	47.739366
1546.000000	47.680489
1545.000000	47.636926
1544.000000	47.561094
1543.000000	47.495500
1542.000000	47.428553
1541.000000	47.364194
1540.000000	47.267379
1539.000000	47.179172
1538.000000	47.106419
1537.000000	47.006701
1536.000000	46.911361
1535.000000	46.838023
1534.000000	46.766262
1533.000000	46.682407
1532.000000	46.581640
1531.000000	46.513380
1530.000000	46.445130
1529.000000	46.362190
1528.000000	46.278641
1527.000000	46.191126
1526.000000	46.135864
1525.000000	46.079418
1524.000000	46.005854
1523.000000	45.957960
1522.000000	45.911859
1521.000000	45.855618
1520.000000	45.802325
1519.000000	45.778946
1518.000000	45.732771
1517.000000	45.690468
1516.000000	45.659738
1515.000000	45.627959
1514.000000	45.581351
1513.000000	45.541614
1512.000000	45.526776
1511.000000	45.503965
1510.000000	45.494722
1509.000000	45.487600
1508.000000	45.460678
1507.000000	45.453107
1506.000000	45.445212
1505.000000	45.422096
1504.000000	45.421440
1503.000000	45.436830
1502.000000	45.414171
1501.000000	45.429248
1500.000000	45.429202
1499.000000	45.426355
1498.000000	45.445618
1497.000000	45.485626
1496.000000	45.496372
1495.000000	45.532769
1494.000000	45.555861
1493.000000	45.590987
1492.000000	45.613090
1491.000000	45.694924
1490.000000	45.736022
1489.000000	45.778415
1488.000000	45.840991
1487.000000	45.907693
1486.000000	45.977099
1485.000000	46.041698
1484.000000	46.094893
1483.000000	46.193033
1482.000000	46.237627
1481.000000	46.332345
1480.000000	46.423687
1479.000000	46.479015
1478.000000	46.563843
1477.000000	46.635912
1476.000000	46.692153
1475.000000	46.779655
1474.000000	46.824707
1473.000000	46.915135
1472.000000	46.987204
1471.000000	47.035726
1470.000000	47.094346
