PE UV       SUBTECH     SPECTRUM    ASCII       PEDS        4.00        
   -1
RDVeauAl 12.Sample.asc
18/03/05
09:33:58.00
18/03/05
09:33:58.00
Administrator

200.000000
1
Lambda 750
750N8071901
PerkinElmer UV WinLab 6.0.4.0738 / 1.61.00 Lambda 900

0
0
3350/servo 860.8/2
0
0
UV/VIS
1
1
1
CommonBeamDepol,150mm sphere / downward view
0
0
0
0
Program
Program
3350/servo 860.8/2
3350/0.2 860.8/0.2
3350/0.2 860.8/0.2
0
1
 
 
 
0
 
860.8
319.2
860.8
Front
100
on
 
 
0
0
0
 
0
 
 
 
0
 
 
0
0
0
0
0
 
 
 
 
0
0


0
0
#HDR
-1
-1
#GR
nm
%R
1.0
0.0
2350.000000
-1.000000
2151
8
63.216619
15.472225
#DATA
2350.000000	29.741681
2349.000000	29.972847
2348.000000	29.615767
2347.000000	30.548071
2346.000000	29.789730
2345.000000	30.045410
2344.000000	29.974321
2343.000000	29.748219
2342.000000	29.481951
2341.000000	29.771297
2340.000000	29.727423
2339.000000	30.148478
2338.000000	30.296306
2337.000000	30.190596
2336.000000	30.295906
2335.000000	30.387486
2334.000000	30.204504
2333.000000	30.627906
2332.000000	30.644967
2331.000000	30.320305
2330.000000	30.205737
2329.000000	30.122568
2328.000000	30.172188
2327.000000	30.406772
2326.000000	30.055874
2325.000000	30.200474
2324.000000	30.401331
2323.000000	30.315759
2322.000000	30.097544
2321.000000	30.101929
2320.000000	30.153282
2319.000000	29.947862
2318.000000	29.954324
2317.000000	29.800222
2316.000000	29.564807
2315.000000	29.875987
2314.000000	29.682126
2313.000000	29.533918
2312.000000	29.454520
2311.000000	29.499648
2310.000000	29.556381
2309.000000	29.346287
2308.000000	28.952758
2307.000000	29.183859
2306.000000	29.296429
2305.000000	29.037709
2304.000000	29.144877
2303.000000	29.036915
2302.000000	29.098867
2301.000000	28.841732
2300.000000	28.661266
2299.000000	28.672860
2298.000000	28.529789
2297.000000	28.462566
2296.000000	28.530042
2295.000000	28.311296
2294.000000	28.052400
2293.000000	27.840943
2292.000000	27.782599
2291.000000	27.912937
2290.000000	27.900793
2289.000000	27.837329
2288.000000	27.896491
2287.000000	27.819681
2286.000000	27.796165
2285.000000	27.888190
2284.000000	27.873573
2283.000000	27.763646
2282.000000	27.707056
2281.000000	27.843039
2280.000000	27.806943
2279.000000	27.834017
2278.000000	27.578694
2277.000000	27.417671
2276.000000	27.758003
2275.000000	27.867318
2274.000000	27.776771
2273.000000	27.932729
2272.000000	27.889315
2271.000000	27.814843
2270.000000	28.089669
2269.000000	28.077882
2268.000000	28.124598
2267.000000	28.146191
2266.000000	28.273465
2265.000000	28.309167
2264.000000	28.368090
2263.000000	28.441354
2262.000000	28.574652
2261.000000	28.599121
2260.000000	28.792734
2259.000000	29.071757
2258.000000	29.268060
2257.000000	29.382164
2256.000000	29.366830
2255.000000	29.604740
2254.000000	29.919557
2253.000000	30.134844
2252.000000	30.307800
2251.000000	30.445529
2250.000000	30.557303
2249.000000	30.792574
2248.000000	30.915312
2247.000000	30.993293
2246.000000	31.258905
2245.000000	31.434410
2244.000000	31.544317
2243.000000	31.722214
2242.000000	31.851521
2241.000000	31.898790
2240.000000	32.030460
2239.000000	32.126635
2238.000000	32.244399
2237.000000	32.550961
2236.000000	32.783212
2235.000000	32.844130
2234.000000	32.830584
2233.000000	32.761817
2232.000000	32.792983
2231.000000	32.933082
2230.000000	32.990199
2229.000000	33.027949
2228.000000	33.074916
2227.000000	33.052039
2226.000000	32.938530
2225.000000	32.934523
2224.000000	33.021719
2223.000000	32.929353
2222.000000	32.931057
2221.000000	32.990710
2220.000000	32.853410
2219.000000	32.902002
2218.000000	32.908543
2217.000000	32.711332
2216.000000	32.712006
2215.000000	32.707646
2214.000000	32.688594
2213.000000	32.736083
2212.000000	32.662798
2211.000000	32.551339
2210.000000	32.401376
2209.000000	32.271956
2208.000000	32.442993
2207.000000	32.581343
2206.000000	32.359725
2205.000000	32.314080
2204.000000	32.240324
2203.000000	32.095967
2202.000000	31.984686
2201.000000	31.790419
2200.000000	31.860380
2199.000000	31.935129
2198.000000	31.802986
2197.000000	31.693051
2196.000000	31.575507
2195.000000	31.570787
2194.000000	31.481212
2193.000000	31.380674
2192.000000	31.284669
2191.000000	31.340943
2190.000000	31.359523
2189.000000	31.294758
2188.000000	31.148387
2187.000000	30.952641
2186.000000	30.982241
2185.000000	30.883730
2184.000000	30.856693
2183.000000	31.127851
2182.000000	31.029394
2181.000000	31.047318
2180.000000	30.939314
2179.000000	30.730305
2178.000000	30.827697
2177.000000	30.861093
2176.000000	31.015143
2175.000000	30.976245
2174.000000	31.043638
2173.000000	30.931314
2172.000000	31.025532
2171.000000	31.193715
2170.000000	31.151104
2169.000000	31.157366
2168.000000	31.251356
2167.000000	31.239582
2166.000000	31.474890
2165.000000	31.626290
2164.000000	31.595982
2163.000000	31.587766
2162.000000	31.889259
2161.000000	31.995924
2160.000000	32.190760
2159.000000	32.163185
2158.000000	32.290067
2157.000000	32.327488
2156.000000	32.508733
2155.000000	32.501351
2154.000000	32.888453
2153.000000	32.946725
2152.000000	33.110742
2151.000000	33.293186
2150.000000	33.381280
2149.000000	33.484809
2148.000000	33.673400
2147.000000	33.712368
2146.000000	33.863334
2145.000000	34.064797
2144.000000	34.334071
2143.000000	34.148541
2142.000000	34.328943
2141.000000	34.476140
2140.000000	34.446691
2139.000000	34.648714
2138.000000	35.143597
2137.000000	35.064106
2136.000000	35.060118
2135.000000	35.214190
2134.000000	35.625820
2133.000000	35.197091
2132.000000	35.454368
2131.000000	35.580364
2130.000000	35.852192
2129.000000	35.853627
2128.000000	35.970667
2127.000000	35.929841
2126.000000	35.868378
2125.000000	36.025932
2124.000000	36.113050
2123.000000	36.156312
2122.000000	36.158182
2121.000000	36.168571
2120.000000	36.166153
2119.000000	36.069334
2118.000000	36.291267
2117.000000	36.221765
2116.000000	36.262211
2115.000000	36.345199
2114.000000	36.295645
2113.000000	36.502998
2112.000000	36.464491
2111.000000	36.595975
2110.000000	36.534895
2109.000000	36.600080
2108.000000	36.659401
2107.000000	36.671727
2106.000000	36.766510
2105.000000	36.625990
2104.000000	36.578463
2103.000000	36.836474
2102.000000	36.672975
2101.000000	36.648813
2100.000000	36.796530
2099.000000	36.699482
2098.000000	36.735340
2097.000000	36.723381
2096.000000	36.663856
2095.000000	36.635006
2094.000000	36.754274
2093.000000	36.819727
2092.000000	36.755058
2091.000000	36.687911
2090.000000	36.594242
2089.000000	36.715477
2088.000000	36.652358
2087.000000	36.649342
2086.000000	36.659354
2085.000000	36.598040
2084.000000	36.602625
2083.000000	36.551819
2082.000000	36.474075
2081.000000	36.347341
2080.000000	36.257215
2079.000000	36.248128
2078.000000	36.196108
2077.000000	36.021996
2076.000000	35.944901
2075.000000	35.919546
2074.000000	35.843019
2073.000000	35.689267
2072.000000	35.605275
2071.000000	35.556585
2070.000000	35.460412
2069.000000	35.229039
2068.000000	35.088733
2067.000000	35.031057
2066.000000	34.871453
2065.000000	34.701508
2064.000000	34.562083
2063.000000	34.454392
2062.000000	34.370914
2061.000000	34.148484
2060.000000	34.015828
2059.000000	33.979596
2058.000000	33.830964
2057.000000	33.678600
2056.000000	33.585267
2055.000000	33.445046
2054.000000	33.308937
2053.000000	33.213417
2052.000000	33.070774
2051.000000	32.942310
2050.000000	32.845490
2049.000000	32.754118
2048.000000	32.653146
2047.000000	32.565298
2046.000000	32.499182
2045.000000	32.443655
2044.000000	32.431751
2043.000000	32.462195
2042.000000	32.478637
2041.000000	32.417962
2040.000000	32.471094
2039.000000	32.559857
2038.000000	32.537266
2037.000000	32.564446
2036.000000	32.699899
2035.000000	32.854126
2034.000000	32.943919
2033.000000	33.020272
2032.000000	33.184798
2031.000000	33.327995
2030.000000	33.391208
2029.000000	33.497538
2028.000000	33.633153
2027.000000	33.723384
2026.000000	33.831840
2025.000000	33.971529
2024.000000	34.078801
2023.000000	34.156698
2022.000000	34.223460
2021.000000	34.279233
2020.000000	34.356340
2019.000000	34.389083
2018.000000	34.429862
2017.000000	34.500803
2016.000000	34.528612
2015.000000	34.571943
2014.000000	34.596489
2013.000000	34.569644
2012.000000	34.556715
2011.000000	34.567794
2010.000000	34.513257
2009.000000	34.450915
2008.000000	34.422983
2007.000000	34.350832
2006.000000	34.302955
2005.000000	34.280645
2004.000000	34.157824
2003.000000	34.077875
2002.000000	34.031649
2001.000000	33.912745
2000.000000	33.830345
1999.000000	33.838368
1998.000000	33.746388
1997.000000	33.640176
1996.000000	33.553695
1995.000000	33.475651
1994.000000	33.393646
1993.000000	33.305097
1992.000000	33.223598
1991.000000	33.117891
1990.000000	32.998693
1989.000000	32.887242
1988.000000	32.851028
1987.000000	32.778564
1986.000000	32.628393
1985.000000	32.536891
1984.000000	32.476059
1983.000000	32.403844
1982.000000	32.328766
1981.000000	32.260227
1980.000000	32.161011
1979.000000	32.004099
1978.000000	31.968029
1977.000000	31.936133
1976.000000	31.781043
1975.000000	31.702005
1974.000000	31.631250
1973.000000	31.544945
1972.000000	31.478890
1971.000000	31.409558
1970.000000	31.338846
1969.000000	31.262948
1968.000000	31.170932
1967.000000	31.102077
1966.000000	31.043509
1965.000000	30.985144
1964.000000	30.862114
1963.000000	30.839870
1962.000000	30.721185
1961.000000	30.664506
1960.000000	30.596240
1959.000000	30.500065
1958.000000	30.440025
1957.000000	30.408382
1956.000000	30.284200
1955.000000	30.240532
1954.000000	30.150108
1953.000000	30.094426
1952.000000	30.059271
1951.000000	30.047984
1950.000000	30.019776
1949.000000	29.962959
1948.000000	29.972343
1947.000000	29.907862
1946.000000	29.837328
1945.000000	29.895868
1944.000000	29.927249
1943.000000	29.942839
1942.000000	29.923431
1941.000000	29.922984
1940.000000	29.953980
1939.000000	30.029138
1938.000000	30.117570
1937.000000	30.201342
1936.000000	30.271188
1935.000000	30.388880
1934.000000	30.474902
1933.000000	30.604252
1932.000000	30.670245
1931.000000	30.935574
1930.000000	31.063744
1929.000000	31.197304
1928.000000	31.439993
1927.000000	31.557955
1926.000000	31.720961
1925.000000	31.944195
1924.000000	32.275382
1923.000000	32.449116
1922.000000	32.728216
1921.000000	32.932750
1920.000000	33.192618
1919.000000	33.464722
1918.000000	33.767634
1917.000000	34.119057
1916.000000	34.280256
1915.000000	34.689208
1914.000000	35.115850
1913.000000	35.480955
1912.000000	35.699744
1911.000000	36.007413
1910.000000	36.444089
1909.000000	36.838546
1908.000000	37.241688
1907.000000	37.595466
1906.000000	37.948799
1905.000000	38.434255
1904.000000	38.847202
1903.000000	39.285247
1902.000000	39.807988
1901.000000	40.294494
1900.000000	40.700109
1899.000000	41.218320
1898.000000	41.643675
1897.000000	42.048115
1896.000000	42.523645
1895.000000	42.915167
1894.000000	43.312690
1893.000000	43.740344
1892.000000	44.197143
1891.000000	44.593959
1890.000000	45.010025
1889.000000	45.385522
1888.000000	45.676436
1887.000000	46.060642
1886.000000	46.454442
1885.000000	46.818480
1884.000000	47.103135
1883.000000	47.419098
1882.000000	47.665073
1881.000000	47.954011
1880.000000	48.291261
1879.000000	48.524868
1878.000000	48.761861
1877.000000	49.007645
1876.000000	49.183567
1875.000000	49.391679
1874.000000	49.655640
1873.000000	49.824284
1872.000000	50.023828
1871.000000	50.174748
1870.000000	50.269392
1869.000000	50.424837
1868.000000	50.543069
1867.000000	50.634811
1866.000000	50.755549
1865.000000	50.827891
1864.000000	50.878648
1863.000000	50.903413
1862.000000	50.986485
1861.000000	51.035620
1860.000000	51.134032
1859.000000	51.184986
1858.000000	51.203138
1857.000000	51.204985
1856.000000	51.176548
1855.000000	51.186926
1854.000000	51.257853
1853.000000	51.289470
1852.000000	51.321489
1851.000000	51.284404
1850.000000	51.254181
1849.000000	51.248778
1848.000000	51.295111
1847.000000	51.298613
1846.000000	51.243155
1845.000000	51.245964
1844.000000	51.254030
1843.000000	51.228097
1842.000000	51.222451
1841.000000	51.176463
1840.000000	51.149643
1839.000000	51.105334
1838.000000	51.075200
1837.000000	51.038078
1836.000000	51.013237
1835.000000	50.979621
1834.000000	50.932665
1833.000000	50.902453
1832.000000	50.854842
1831.000000	50.803965
1830.000000	50.764195
1829.000000	50.732915
1828.000000	50.696674
1827.000000	50.668867
1826.000000	50.634804
1825.000000	50.621397
1824.000000	50.574650
1823.000000	50.494041
1822.000000	50.453555
1821.000000	50.414912
1820.000000	50.389567
1819.000000	50.374375
1818.000000	50.342926
1817.000000	50.322138
1816.000000	50.295495
1815.000000	50.264365
1814.000000	50.217813
1813.000000	50.177905
1812.000000	50.157122
1811.000000	50.151256
1810.000000	50.120167
1809.000000	50.074498
1808.000000	50.038624
1807.000000	50.005584
1806.000000	49.981574
1805.000000	49.950920
1804.000000	49.918338
1803.000000	49.870463
1802.000000	49.821918
1801.000000	49.826026
1800.000000	49.810696
1799.000000	49.769936
1798.000000	49.758876
1797.000000	49.736246
1796.000000	49.706156
1795.000000	49.692178
1794.000000	49.686286
1793.000000	49.641688
1792.000000	49.620538
1791.000000	49.605587
1790.000000	49.555598
1789.000000	49.546700
1788.000000	49.530885
1787.000000	49.482973
1786.000000	49.471021
1785.000000	49.458258
1784.000000	49.400313
1783.000000	49.355630
1782.000000	49.339181
1781.000000	49.305800
1780.000000	49.256761
1779.000000	49.220100
1778.000000	49.180519
1777.000000	49.111867
1776.000000	49.061697
1775.000000	49.015048
1774.000000	48.973848
1773.000000	48.959850
1772.000000	48.846933
1771.000000	48.782586
1770.000000	48.722727
1769.000000	48.650635
1768.000000	48.624353
1767.000000	48.566261
1766.000000	48.540179
1765.000000	48.447214
1764.000000	48.409187
1763.000000	48.339394
1762.000000	48.274714
1761.000000	48.238115
1760.000000	48.176569
1759.000000	48.110535
1758.000000	48.059059
1757.000000	48.002547
1756.000000	47.950690
1755.000000	47.885130
1754.000000	47.850221
1753.000000	47.816751
1752.000000	47.758227
1751.000000	47.681697
1750.000000	47.629553
1749.000000	47.554772
1748.000000	47.496880
1747.000000	47.434997
1746.000000	47.367085
1745.000000	47.337534
1744.000000	47.246287
1743.000000	47.217316
1742.000000	47.129632
1741.000000	47.107197
1740.000000	47.077235
1739.000000	46.992218
1738.000000	46.954313
1737.000000	46.893500
1736.000000	46.897289
1735.000000	46.869023
1734.000000	46.885111
1733.000000	46.851062
1732.000000	46.841922
1731.000000	46.862311
1730.000000	46.878832
1729.000000	46.888425
1728.000000	46.975461
1727.000000	47.004483
1726.000000	47.087039
1725.000000	47.165669
1724.000000	47.237800
1723.000000	47.307543
1722.000000	47.389102
1721.000000	47.471766
1720.000000	47.577227
1719.000000	47.671758
1718.000000	47.751360
1717.000000	47.839557
1716.000000	47.980603
1715.000000	48.044994
1714.000000	48.091832
1713.000000	48.197318
1712.000000	48.272260
1711.000000	48.323359
1710.000000	48.381520
1709.000000	48.461394
1708.000000	48.500546
1707.000000	48.534108
1706.000000	48.564053
1705.000000	48.606908
1704.000000	48.639905
1703.000000	48.648591
1702.000000	48.636485
1701.000000	48.688239
1700.000000	48.689542
1699.000000	48.697121
1698.000000	48.753547
1697.000000	48.796046
1696.000000	48.830577
1695.000000	48.833510
1694.000000	48.889399
1693.000000	48.925567
1692.000000	48.969336
1691.000000	49.052469
1690.000000	49.142163
1689.000000	49.204609
1688.000000	49.319580
1687.000000	49.399587
1686.000000	49.569172
1685.000000	49.674428
1684.000000	49.831496
1683.000000	49.990104
1682.000000	50.159680
1681.000000	50.321391
1680.000000	50.476684
1679.000000	50.654201
1678.000000	50.800348
1677.000000	50.951793
1676.000000	51.145110
1675.000000	51.332690
1674.000000	51.502202
1673.000000	51.705048
1672.000000	51.876941
1671.000000	52.011903
1670.000000	52.177783
1669.000000	52.334392
1668.000000	52.451449
1667.000000	52.577688
1666.000000	52.693572
1665.000000	52.782877
1664.000000	52.846516
1663.000000	52.956735
1662.000000	53.054124
1661.000000	53.141625
1660.000000	53.217813
1659.000000	53.269672
1658.000000	53.329180
1657.000000	53.379329
1656.000000	53.423815
1655.000000	53.470569
1654.000000	53.474251
1653.000000	53.493483
1652.000000	53.525409
1651.000000	53.512648
1650.000000	53.524209
1649.000000	53.534044
1648.000000	53.511748
1647.000000	53.508231
1646.000000	53.506058
1645.000000	53.494052
1644.000000	53.495276
1643.000000	53.465244
1642.000000	53.435853
1641.000000	53.415898
1640.000000	53.402819
1639.000000	53.359823
1638.000000	53.346569
1637.000000	53.354215
1636.000000	53.314386
1635.000000	53.263928
1634.000000	53.215484
1633.000000	53.174416
1632.000000	53.164255
1631.000000	53.120967
1630.000000	53.064631
1629.000000	53.018661
1628.000000	52.977225
1627.000000	52.938282
1626.000000	52.914677
1625.000000	52.867694
1624.000000	52.817206
1623.000000	52.782614
1622.000000	52.737757
1621.000000	52.677202
1620.000000	52.654481
1619.000000	52.600411
1618.000000	52.536373
1617.000000	52.481774
1616.000000	52.440583
1615.000000	52.393093
1614.000000	52.339398
1613.000000	52.286718
1612.000000	52.225512
1611.000000	52.154253
1610.000000	52.097368
1609.000000	52.067514
1608.000000	52.033853
1607.000000	51.961362
1606.000000	51.884083
1605.000000	51.832751
1604.000000	51.762591
1603.000000	51.704867
1602.000000	51.664029
1601.000000	51.602892
1600.000000	51.540754
1599.000000	51.484417
1598.000000	51.419906
1597.000000	51.358104
1596.000000	51.304393
1595.000000	51.250290
1594.000000	51.207869
1593.000000	51.174494
1592.000000	51.120246
1591.000000	51.061417
1590.000000	51.015932
1589.000000	50.949363
1588.000000	50.897476
1587.000000	50.863621
1586.000000	50.841149
1585.000000	50.806677
1584.000000	50.748130
1583.000000	50.702305
1582.000000	50.662687
1581.000000	50.607859
1580.000000	50.574408
1579.000000	50.535412
1578.000000	50.494952
1577.000000	50.458490
1576.000000	50.404764
1575.000000	50.363257
1574.000000	50.320990
1573.000000	50.284123
1572.000000	50.251367
1571.000000	50.208704
1570.000000	50.168538
1569.000000	50.135054
1568.000000	50.091839
1567.000000	50.062573
1566.000000	50.042088
1565.000000	50.027839
1564.000000	50.000355
1563.000000	49.981034
1562.000000	49.944934
1561.000000	49.927084
1560.000000	49.894056
1559.000000	49.861917
1558.000000	49.849561
1557.000000	49.854769
1556.000000	49.835082
1555.000000	49.827826
1554.000000	49.801300
1553.000000	49.770360
1552.000000	49.719035
1551.000000	49.687340
1550.000000	49.661628
1549.000000	49.635227
1548.000000	49.603755
1547.000000	49.556169
1546.000000	49.519202
1545.000000	49.452662
1544.000000	49.372172
1543.000000	49.301908
1542.000000	49.229093
1541.000000	49.153106
1540.000000	49.076856
1539.000000	49.001887
1538.000000	48.925264
1537.000000	48.841336
1536.000000	48.746570
1535.000000	48.647966
1534.000000	48.576287
1533.000000	48.520291
1532.000000	48.413102
1531.000000	48.319188
1530.000000	48.262452
1529.000000	48.174223
1528.000000	48.088689
1527.000000	48.022269
1526.000000	47.959465
1525.000000	47.903471
1524.000000	47.814248
1523.000000	47.776396
1522.000000	47.730456
1521.000000	47.681822
1520.000000	47.621554
1519.000000	47.597187
1518.000000	47.562402
1517.000000	47.516923
1516.000000	47.482289
1515.000000	47.452631
1514.000000	47.416221
1513.000000	47.386635
1512.000000	47.344082
1511.000000	47.315746
1510.000000	47.307402
1509.000000	47.310786
1508.000000	47.275129
1507.000000	47.276571
1506.000000	47.269035
1505.000000	47.247415
1504.000000	47.247894
1503.000000	47.255321
1502.000000	47.252540
1501.000000	47.233525
1500.000000	47.252490
1499.000000	47.254840
1498.000000	47.277779
1497.000000	47.296509
1496.000000	47.329856
1495.000000	47.352692
1494.000000	47.377300
1493.000000	47.401920
1492.000000	47.432745
1491.000000	47.511122
1490.000000	47.550075
1489.000000	47.600577
1488.000000	47.658751
1487.000000	47.716264
1486.000000	47.784641
1485.000000	47.841765
1484.000000	47.920373
1483.000000	47.990710
1482.000000	48.053885
1481.000000	48.138136
1480.000000	48.220588
1479.000000	48.278313
1478.000000	48.359288
1477.000000	48.424920
1476.000000	48.503024
1475.000000	48.559037
1474.000000	48.639030
1473.000000	48.698351
1472.000000	48.763254
1471.000000	48.805693
1470.000000	48.888141
