PE UV       SUBTECH     SPECTRUM    ASCII       PEDS        4.00        
   -1
RDVeauUK 42.Sample.asc
18/03/05
10:54:07.00
18/03/05
10:54:07.00
Administrator

200.000000
1
Lambda 750
750N8071901
PerkinElmer UV WinLab 6.0.4.0738 / 1.61.00 Lambda 900

0
0
3350/servo 860.8/2
0
0
UV/VIS
1
1
1
CommonBeamDepol,150mm sphere / downward view
0
0
0
0
Program
Program
3350/servo 860.8/2
3350/0.2 860.8/0.2
3350/0.2 860.8/0.2
0
1
 
 
 
0
 
860.8
319.2
860.8
Front
100
on
 
 
0
0
0
 
0
 
 
 
0
 
 
0
0
0
0
0
 
 
 
 
0
0


0
0
#HDR
-1
-1
#GR
nm
%R
1.0
0.0
2350.000000
-1.000000
2151
8
44.171183
7.091770
#DATA
2350.000000	7.446805
2349.000000	7.991185
2348.000000	7.724969
2347.000000	8.705580
2346.000000	8.188586
2345.000000	7.646858
2344.000000	7.645763
2343.000000	7.687651
2342.000000	8.090264
2341.000000	8.029231
2340.000000	8.161908
2339.000000	8.347359
2338.000000	8.240040
2337.000000	8.441307
2336.000000	8.419853
2335.000000	8.649209
2334.000000	8.694324
2333.000000	8.735099
2332.000000	8.835398
2331.000000	8.772359
2330.000000	8.321200
2329.000000	8.367762
2328.000000	8.704548
2327.000000	8.616420
2326.000000	8.754797
2325.000000	8.640339
2324.000000	8.414509
2323.000000	8.576999
2322.000000	8.512604
2321.000000	8.436998
2320.000000	8.421547
2319.000000	8.508214
2318.000000	8.657730
2317.000000	8.475980
2316.000000	8.248389
2315.000000	8.454734
2314.000000	8.474235
2313.000000	8.157566
2312.000000	8.156918
2311.000000	8.161284
2310.000000	8.073828
2309.000000	7.895361
2308.000000	7.912550
2307.000000	7.988562
2306.000000	7.979524
2305.000000	7.831306
2304.000000	7.716262
2303.000000	8.022126
2302.000000	7.633032
2301.000000	7.574582
2300.000000	7.468671
2299.000000	7.630428
2298.000000	7.512568
2297.000000	7.557696
2296.000000	7.439492
2295.000000	7.731339
2294.000000	7.474578
2293.000000	7.328793
2292.000000	7.320222
2291.000000	7.362304
2290.000000	7.360983
2289.000000	7.481815
2288.000000	7.332634
2287.000000	7.323988
2286.000000	7.398236
2285.000000	7.305127
2284.000000	7.313093
2283.000000	7.146957
2282.000000	7.240150
2281.000000	7.345349
2280.000000	7.210372
2279.000000	7.117142
2278.000000	7.133755
2277.000000	7.096448
2276.000000	7.091770
2275.000000	7.310444
2274.000000	7.431496
2273.000000	7.425084
2272.000000	7.562885
2271.000000	7.491298
2270.000000	7.340968
2269.000000	7.395227
2268.000000	7.501670
2267.000000	7.361322
2266.000000	7.416631
2265.000000	7.548605
2264.000000	7.680448
2263.000000	7.708438
2262.000000	7.793501
2261.000000	7.893749
2260.000000	7.915143
2259.000000	7.862312
2258.000000	8.123587
2257.000000	8.374355
2256.000000	8.399487
2255.000000	8.365259
2254.000000	8.321726
2253.000000	8.412960
2252.000000	8.585300
2251.000000	8.725788
2250.000000	8.898250
2249.000000	9.114026
2248.000000	8.938802
2247.000000	8.851046
2246.000000	9.091839
2245.000000	9.352940
2244.000000	9.517194
2243.000000	9.646968
2242.000000	9.664751
2241.000000	9.531342
2240.000000	9.617712
2239.000000	9.835424
2238.000000	9.865383
2237.000000	9.758596
2236.000000	9.907965
2235.000000	9.940718
2234.000000	9.981331
2233.000000	10.038447
2232.000000	9.963855
2231.000000	10.091979
2230.000000	10.200186
2229.000000	10.170135
2228.000000	10.278179
2227.000000	10.406733
2226.000000	10.272867
2225.000000	10.267138
2224.000000	10.279712
2223.000000	10.197437
2222.000000	10.018940
2221.000000	10.081528
2220.000000	10.075343
2219.000000	10.062596
2218.000000	10.094326
2217.000000	10.145883
2216.000000	10.172223
2215.000000	10.111927
2214.000000	10.103987
2213.000000	10.059522
2212.000000	10.049009
2211.000000	9.883349
2210.000000	9.870698
2209.000000	9.875089
2208.000000	9.782493
2207.000000	9.774190
2206.000000	9.676403
2205.000000	9.603754
2204.000000	9.593716
2203.000000	9.597874
2202.000000	9.664818
2201.000000	9.575995
2200.000000	9.540420
2199.000000	9.491913
2198.000000	9.429753
2197.000000	9.375345
2196.000000	9.315298
2195.000000	9.370814
2194.000000	9.472742
2193.000000	9.312042
2192.000000	9.180943
2191.000000	9.125797
2190.000000	9.114058
2189.000000	9.241815
2188.000000	9.211535
2187.000000	8.957704
2186.000000	8.951086
2185.000000	9.024169
2184.000000	8.946133
2183.000000	8.946010
2182.000000	8.973152
2181.000000	8.801426
2180.000000	8.957380
2179.000000	9.012899
2178.000000	8.955078
2177.000000	8.866227
2176.000000	8.729593
2175.000000	8.947112
2174.000000	8.975254
2173.000000	8.854675
2172.000000	8.963661
2171.000000	9.068864
2170.000000	9.149542
2169.000000	9.197411
2168.000000	9.251737
2167.000000	9.208822
2166.000000	9.111592
2165.000000	9.216923
2164.000000	9.341119
2163.000000	9.205209
2162.000000	9.476277
2161.000000	9.435221
2160.000000	9.747699
2159.000000	9.632438
2158.000000	9.638600
2157.000000	9.842176
2156.000000	9.826329
2155.000000	10.024136
2154.000000	10.327461
2153.000000	10.083520
2152.000000	10.072575
2151.000000	10.101285
2150.000000	10.146889
2149.000000	10.498700
2148.000000	10.716048
2147.000000	10.670316
2146.000000	10.529914
2145.000000	10.591450
2144.000000	10.739719
2143.000000	10.751230
2142.000000	10.866840
2141.000000	11.070884
2140.000000	11.113280
2139.000000	11.075124
2138.000000	11.330625
2137.000000	11.190507
2136.000000	11.149468
2135.000000	11.377747
2134.000000	11.617970
2133.000000	11.344872
2132.000000	11.750787
2131.000000	11.721911
2130.000000	11.716353
2129.000000	11.700918
2128.000000	11.615814
2127.000000	11.871793
2126.000000	11.892360
2125.000000	11.864587
2124.000000	11.872447
2123.000000	11.850333
2122.000000	11.977351
2121.000000	11.944783
2120.000000	11.987705
2119.000000	12.014197
2118.000000	12.120340
2117.000000	12.097132
2116.000000	12.123601
2115.000000	12.355904
2114.000000	12.235979
2113.000000	12.166891
2112.000000	12.312618
2111.000000	12.312960
2110.000000	12.244721
2109.000000	12.210398
2108.000000	12.188222
2107.000000	12.312027
2106.000000	12.149252
2105.000000	12.344152
2104.000000	12.305801
2103.000000	12.307215
2102.000000	12.461062
2101.000000	12.511885
2100.000000	12.501289
2099.000000	12.457431
2098.000000	12.449997
2097.000000	12.487800
2096.000000	12.483068
2095.000000	12.334382
2094.000000	12.396504
2093.000000	12.492362
2092.000000	12.458609
2091.000000	12.511219
2090.000000	12.360129
2089.000000	12.342499
2088.000000	12.490360
2087.000000	12.511157
2086.000000	12.394033
2085.000000	12.385904
2084.000000	12.269096
2083.000000	12.224102
2082.000000	12.217617
2081.000000	12.179474
2080.000000	12.095622
2079.000000	12.015179
2078.000000	12.024503
2077.000000	11.958981
2076.000000	11.837623
2075.000000	11.907689
2074.000000	11.809693
2073.000000	11.718680
2072.000000	11.675849
2071.000000	11.580250
2070.000000	11.519716
2069.000000	11.405300
2068.000000	11.337383
2067.000000	11.247029
2066.000000	11.115351
2065.000000	11.045839
2064.000000	10.959717
2063.000000	10.930778
2062.000000	10.823803
2061.000000	10.651274
2060.000000	10.614893
2059.000000	10.583074
2058.000000	10.382953
2057.000000	10.313270
2056.000000	10.260031
2055.000000	10.149683
2054.000000	10.062377
2053.000000	9.988417
2052.000000	9.935457
2051.000000	9.849648
2050.000000	9.819336
2049.000000	9.803739
2048.000000	9.763376
2047.000000	9.687600
2046.000000	9.632816
2045.000000	9.653611
2044.000000	9.644599
2043.000000	9.598485
2042.000000	9.550563
2041.000000	9.597170
2040.000000	9.626979
2039.000000	9.590422
2038.000000	9.594040
2037.000000	9.695226
2036.000000	9.727148
2035.000000	9.793906
2034.000000	9.888965
2033.000000	9.894180
2032.000000	9.962325
2031.000000	10.065462
2030.000000	10.134716
2029.000000	10.164979
2028.000000	10.233961
2027.000000	10.332508
2026.000000	10.436918
2025.000000	10.497734
2024.000000	10.497374
2023.000000	10.570448
2022.000000	10.652113
2021.000000	10.705336
2020.000000	10.772307
2019.000000	10.777144
2018.000000	10.835038
2017.000000	10.900169
2016.000000	10.923158
2015.000000	10.895376
2014.000000	10.876903
2013.000000	10.896962
2012.000000	10.860093
2011.000000	10.820989
2010.000000	10.845606
2009.000000	10.819504
2008.000000	10.769109
2007.000000	10.713061
2006.000000	10.712963
2005.000000	10.684813
2004.000000	10.629135
2003.000000	10.624867
2002.000000	10.550473
2001.000000	10.456926
2000.000000	10.410352
1999.000000	10.381650
1998.000000	10.343886
1997.000000	10.322905
1996.000000	10.329852
1995.000000	10.216219
1994.000000	10.121327
1993.000000	10.053648
1992.000000	9.997186
1991.000000	9.964591
1990.000000	9.932821
1989.000000	9.861326
1988.000000	9.800995
1987.000000	9.773402
1986.000000	9.720235
1985.000000	9.680587
1984.000000	9.553795
1983.000000	9.529323
1982.000000	9.508813
1981.000000	9.477521
1980.000000	9.427769
1979.000000	9.364123
1978.000000	9.318411
1977.000000	9.323329
1976.000000	9.301348
1975.000000	9.286322
1974.000000	9.187653
1973.000000	9.137334
1972.000000	9.108203
1971.000000	9.049881
1970.000000	8.995050
1969.000000	8.941280
1968.000000	8.889498
1967.000000	8.876921
1966.000000	8.879151
1965.000000	8.816325
1964.000000	8.739761
1963.000000	8.796114
1962.000000	8.688848
1961.000000	8.606877
1960.000000	8.642083
1959.000000	8.554048
1958.000000	8.535087
1957.000000	8.555148
1956.000000	8.467393
1955.000000	8.423991
1954.000000	8.448337
1953.000000	8.431863
1952.000000	8.422511
1951.000000	8.464639
1950.000000	8.386342
1949.000000	8.379376
1948.000000	8.396537
1947.000000	8.373377
1946.000000	8.335354
1945.000000	8.361599
1944.000000	8.388258
1943.000000	8.475034
1942.000000	8.492946
1941.000000	8.493695
1940.000000	8.603522
1939.000000	8.587299
1938.000000	8.569655
1937.000000	8.667585
1936.000000	8.741586
1935.000000	8.891038
1934.000000	8.798682
1933.000000	8.913815
1932.000000	8.954127
1931.000000	9.073614
1930.000000	9.180334
1929.000000	9.343691
1928.000000	9.396269
1927.000000	9.514897
1926.000000	9.622426
1925.000000	9.700671
1924.000000	9.895873
1923.000000	10.013087
1922.000000	10.218971
1921.000000	10.451739
1920.000000	10.481629
1919.000000	10.659033
1918.000000	10.898092
1917.000000	11.179113
1916.000000	11.217780
1915.000000	11.486730
1914.000000	11.710352
1913.000000	12.034078
1912.000000	12.245955
1911.000000	12.489880
1910.000000	12.822616
1909.000000	12.992082
1908.000000	13.267789
1907.000000	13.645145
1906.000000	14.059726
1905.000000	14.404330
1904.000000	14.618115
1903.000000	15.030964
1902.000000	15.465798
1901.000000	15.793198
1900.000000	16.142276
1899.000000	16.591224
1898.000000	17.001431
1897.000000	17.346701
1896.000000	17.706811
1895.000000	18.079598
1894.000000	18.440943
1893.000000	18.928145
1892.000000	19.265026
1891.000000	19.635952
1890.000000	20.052945
1889.000000	20.510526
1888.000000	20.712628
1887.000000	21.203625
1886.000000	21.592871
1885.000000	21.889082
1884.000000	22.202136
1883.000000	22.537466
1882.000000	22.887027
1881.000000	23.182775
1880.000000	23.497553
1879.000000	23.806007
1878.000000	24.083246
1877.000000	24.311854
1876.000000	24.540260
1875.000000	24.774658
1874.000000	24.967689
1873.000000	25.176197
1872.000000	25.441620
1871.000000	25.624979
1870.000000	25.747328
1869.000000	25.896833
1868.000000	25.997363
1867.000000	26.108856
1866.000000	26.238502
1865.000000	26.330462
1864.000000	26.375658
1863.000000	26.449795
1862.000000	26.555339
1861.000000	26.583563
1860.000000	26.658346
1859.000000	26.684257
1858.000000	26.667288
1857.000000	26.727446
1856.000000	26.782489
1855.000000	26.786414
1854.000000	26.871436
1853.000000	26.929445
1852.000000	26.962534
1851.000000	26.945900
1850.000000	26.943294
1849.000000	26.894021
1848.000000	26.924187
1847.000000	26.934402
1846.000000	26.872983
1845.000000	26.900891
1844.000000	26.884083
1843.000000	26.859055
1842.000000	26.847549
1841.000000	26.822563
1840.000000	26.772615
1839.000000	26.724795
1838.000000	26.665316
1837.000000	26.589429
1836.000000	26.535155
1835.000000	26.484532
1834.000000	26.419010
1833.000000	26.373489
1832.000000	26.327567
1831.000000	26.309585
1830.000000	26.274697
1829.000000	26.209121
1828.000000	26.205489
1827.000000	26.158606
1826.000000	26.094079
1825.000000	26.060127
1824.000000	26.003736
1823.000000	25.946818
1822.000000	25.915146
1821.000000	25.864307
1820.000000	25.823689
1819.000000	25.802744
1818.000000	25.787979
1817.000000	25.751426
1816.000000	25.711343
1815.000000	25.665681
1814.000000	25.607937
1813.000000	25.596947
1812.000000	25.555205
1811.000000	25.515393
1810.000000	25.509036
1809.000000	25.462721
1808.000000	25.419455
1807.000000	25.368890
1806.000000	25.310734
1805.000000	25.290395
1804.000000	25.271402
1803.000000	25.242984
1802.000000	25.202399
1801.000000	25.176690
1800.000000	25.166028
1799.000000	25.146303
1798.000000	25.115689
1797.000000	25.072131
1796.000000	25.052764
1795.000000	25.054265
1794.000000	25.053944
1793.000000	25.015968
1792.000000	24.987202
1791.000000	24.967039
1790.000000	24.942673
1789.000000	24.914920
1788.000000	24.891227
1787.000000	24.844922
1786.000000	24.823708
1785.000000	24.789757
1784.000000	24.766783
1783.000000	24.748909
1782.000000	24.719958
1781.000000	24.661481
1780.000000	24.608934
1779.000000	24.599285
1778.000000	24.568575
1777.000000	24.522780
1776.000000	24.445234
1775.000000	24.366730
1774.000000	24.309035
1773.000000	24.256655
1772.000000	24.206127
1771.000000	24.145373
1770.000000	24.064245
1769.000000	24.004906
1768.000000	23.960890
1767.000000	23.915545
1766.000000	23.819961
1765.000000	23.776915
1764.000000	23.719296
1763.000000	23.637730
1762.000000	23.561770
1761.000000	23.515564
1760.000000	23.439467
1759.000000	23.357211
1758.000000	23.314547
1757.000000	23.219299
1756.000000	23.206759
1755.000000	23.151704
1754.000000	23.071455
1753.000000	23.030141
1752.000000	22.964477
1751.000000	22.901587
1750.000000	22.792431
1749.000000	22.713877
1748.000000	22.687431
1747.000000	22.615564
1746.000000	22.577327
1745.000000	22.495265
1744.000000	22.445353
1743.000000	22.357651
1742.000000	22.308173
1741.000000	22.261788
1740.000000	22.201460
1739.000000	22.157873
1738.000000	22.114696
1737.000000	22.092764
1736.000000	22.058543
1735.000000	22.010140
1734.000000	22.015746
1733.000000	22.014744
1732.000000	22.040600
1731.000000	22.066124
1730.000000	22.089990
1729.000000	22.093170
1728.000000	22.146030
1727.000000	22.174653
1726.000000	22.262812
1725.000000	22.282188
1724.000000	22.408518
1723.000000	22.479624
1722.000000	22.579381
1721.000000	22.641477
1720.000000	22.780187
1719.000000	22.883553
1718.000000	22.967279
1717.000000	23.099122
1716.000000	23.163799
1715.000000	23.211934
1714.000000	23.315652
1713.000000	23.401260
1712.000000	23.485004
1711.000000	23.564518
1710.000000	23.623061
1709.000000	23.649488
1708.000000	23.700527
1707.000000	23.754347
1706.000000	23.770573
1705.000000	23.792141
1704.000000	23.859871
1703.000000	23.858224
1702.000000	23.877065
1701.000000	23.882817
1700.000000	23.930419
1699.000000	23.918057
1698.000000	23.986498
1697.000000	24.001308
1696.000000	24.033755
1695.000000	24.090607
1694.000000	24.129125
1693.000000	24.161778
1692.000000	24.223855
1691.000000	24.350583
1690.000000	24.430275
1689.000000	24.539278
1688.000000	24.641875
1687.000000	24.824839
1686.000000	24.954034
1685.000000	25.073528
1684.000000	25.258898
1683.000000	25.439919
1682.000000	25.651359
1681.000000	25.827989
1680.000000	26.018840
1679.000000	26.229247
1678.000000	26.433319
1677.000000	26.634386
1676.000000	26.873443
1675.000000	27.061321
1674.000000	27.267615
1673.000000	27.485340
1672.000000	27.692390
1671.000000	27.872113
1670.000000	28.062462
1669.000000	28.250447
1668.000000	28.416742
1667.000000	28.557647
1666.000000	28.660686
1665.000000	28.812763
1664.000000	28.902850
1663.000000	29.038359
1662.000000	29.132539
1661.000000	29.207986
1660.000000	29.293749
1659.000000	29.365219
1658.000000	29.418104
1657.000000	29.494909
1656.000000	29.553503
1655.000000	29.615707
1654.000000	29.626654
1653.000000	29.675658
1652.000000	29.692903
1651.000000	29.702612
1650.000000	29.714681
1649.000000	29.675964
1648.000000	29.662886
1647.000000	29.657010
1646.000000	29.633286
1645.000000	29.627856
1644.000000	29.597503
1643.000000	29.587475
1642.000000	29.561928
1641.000000	29.519424
1640.000000	29.487518
1639.000000	29.460456
1638.000000	29.435952
1637.000000	29.402131
1636.000000	29.352871
1635.000000	29.304780
1634.000000	29.270510
1633.000000	29.205333
1632.000000	29.149099
1631.000000	29.079641
1630.000000	29.019357
1629.000000	28.979060
1628.000000	28.939317
1627.000000	28.900006
1626.000000	28.840663
1625.000000	28.787631
1624.000000	28.730994
1623.000000	28.689251
1622.000000	28.632851
1621.000000	28.577008
1620.000000	28.512541
1619.000000	28.434782
1618.000000	28.373308
1617.000000	28.308668
1616.000000	28.230470
1615.000000	28.164920
1614.000000	28.098135
1613.000000	28.030719
1612.000000	27.974493
1611.000000	27.901778
1610.000000	27.832190
1609.000000	27.779243
1608.000000	27.711517
1607.000000	27.638746
1606.000000	27.567702
1605.000000	27.485631
1604.000000	27.406088
1603.000000	27.330015
1602.000000	27.266557
1601.000000	27.197420
1600.000000	27.120102
1599.000000	27.047173
1598.000000	26.988254
1597.000000	26.927650
1596.000000	26.852771
1595.000000	26.785213
1594.000000	26.732273
1593.000000	26.669027
1592.000000	26.613618
1591.000000	26.561692
1590.000000	26.509290
1589.000000	26.451486
1588.000000	26.383597
1587.000000	26.321198
1586.000000	26.273035
1585.000000	26.218537
1584.000000	26.168353
1583.000000	26.133340
1582.000000	26.079883
1581.000000	26.026140
1580.000000	25.974496
1579.000000	25.927564
1578.000000	25.886502
1577.000000	25.835832
1576.000000	25.766749
1575.000000	25.715940
1574.000000	25.673248
1573.000000	25.613690
1572.000000	25.571207
1571.000000	25.520694
1570.000000	25.474195
1569.000000	25.429935
1568.000000	25.394308
1567.000000	25.348662
1566.000000	25.313732
1565.000000	25.279330
1564.000000	25.254009
1563.000000	25.233671
1562.000000	25.188774
1561.000000	25.163479
1560.000000	25.137261
1559.000000	25.099417
1558.000000	25.095552
1557.000000	25.076976
1556.000000	25.054922
1555.000000	25.010675
1554.000000	24.968912
1553.000000	24.949842
1552.000000	24.921684
1551.000000	24.890921
1550.000000	24.863820
1549.000000	24.808690
1548.000000	24.771608
1547.000000	24.719569
1546.000000	24.657783
1545.000000	24.575425
1544.000000	24.505272
1543.000000	24.433570
1542.000000	24.358964
1541.000000	24.273939
1540.000000	24.188934
1539.000000	24.105704
1538.000000	24.011014
1537.000000	23.900862
1536.000000	23.813507
1535.000000	23.725653
1534.000000	23.631124
1533.000000	23.537406
1532.000000	23.447862
1531.000000	23.373166
1530.000000	23.279416
1529.000000	23.192100
1528.000000	23.104890
1527.000000	23.034362
1526.000000	22.954293
1525.000000	22.898196
1524.000000	22.836153
1523.000000	22.765139
1522.000000	22.702338
1521.000000	22.661866
1520.000000	22.618867
1519.000000	22.580092
1518.000000	22.546248
1517.000000	22.488169
1516.000000	22.450538
1515.000000	22.414110
1514.000000	22.369792
1513.000000	22.356689
1512.000000	22.344462
1511.000000	22.280629
1510.000000	22.286000
1509.000000	22.272985
1508.000000	22.246523
1507.000000	22.233280
1506.000000	22.224803
1505.000000	22.202859
1504.000000	22.193347
1503.000000	22.197853
1502.000000	22.189873
1501.000000	22.210725
1500.000000	22.196973
1499.000000	22.196615
1498.000000	22.218153
1497.000000	22.216338
1496.000000	22.242396
1495.000000	22.278840
1494.000000	22.311437
1493.000000	22.333784
1492.000000	22.363777
1491.000000	22.423943
1490.000000	22.446040
1489.000000	22.511873
1488.000000	22.582373
1487.000000	22.636951
1486.000000	22.707256
1485.000000	22.741119
1484.000000	22.818602
1483.000000	22.901739
1482.000000	22.942157
1481.000000	23.021934
1480.000000	23.105437
1479.000000	23.170159
1478.000000	23.257333
1477.000000	23.341078
1476.000000	23.368233
1475.000000	23.456082
1474.000000	23.540478
1473.000000	23.604268
1472.000000	23.644741
1471.000000	23.718959
1470.000000	23.784335
1469.000000	23.832603
1468.000000	23.921867
1467.000000	23.973386
1466.000000	24.011482
1465.000000	24.077994
1464.000000	24.137525
1463.000000	24.207564
1462.000000	24.255572
1461.000000	24.301064
1460.000000	24.354886
1459.000000	24.436244
1458.000000	24.495275
