PE UV       SUBTECH     SPECTRUM    ASCII       PEDS        4.00        
   -1
RDVeauUK 22.Sample.asc
18/03/05
10:34:03.00
18/03/05
10:34:03.00
Administrator

200.000000
1
Lambda 750
750N8071901
PerkinElmer UV WinLab 6.0.4.0738 / 1.61.00 Lambda 900

0
0
3350/servo 860.8/2
0
0
UV/VIS
1
1
1
CommonBeamDepol,150mm sphere / downward view
0
0
0
0
Program
Program
3350/servo 860.8/2
3350/0.2 860.8/0.2
3350/0.2 860.8/0.2
0
1
 
 
 
0
 
860.8
319.2
860.8
Front
100
on
 
 
0
0
0
 
0
 
 
 
0
 
 
0
0
0
0
0
 
 
 
 
0
0


0
0
#HDR
-1
-1
#GR
nm
%R
1.0
0.0
2350.000000
-1.000000
2151
8
47.886999
7.908623
#DATA
2350.000000	8.421181
2349.000000	9.033194
2348.000000	8.012550
2347.000000	8.853250
2346.000000	8.586600
2345.000000	8.261812
2344.000000	8.729560
2343.000000	8.597916
2342.000000	8.406107
2341.000000	8.855615
2340.000000	9.084016
2339.000000	9.062103
2338.000000	9.292566
2337.000000	9.357840
2336.000000	9.393973
2335.000000	9.334163
2334.000000	9.469783
2333.000000	9.497740
2332.000000	9.442057
2331.000000	9.668897
2330.000000	9.398382
2329.000000	9.240500
2328.000000	9.483740
2327.000000	9.775573
2326.000000	9.467617
2325.000000	9.456538
2324.000000	9.651486
2323.000000	9.556225
2322.000000	9.470808
2321.000000	9.350712
2320.000000	9.332242
2319.000000	9.037982
2318.000000	9.222805
2317.000000	9.382079
2316.000000	9.142924
2315.000000	8.872064
2314.000000	8.927892
2313.000000	8.873455
2312.000000	9.038066
2311.000000	9.234061
2310.000000	9.098150
2309.000000	8.690242
2308.000000	8.461616
2307.000000	8.872636
2306.000000	8.649003
2305.000000	8.552417
2304.000000	8.727543
2303.000000	8.889344
2302.000000	8.648057
2301.000000	8.531533
2300.000000	8.539954
2299.000000	8.539120
2298.000000	8.406787
2297.000000	8.237444
2296.000000	8.077554
2295.000000	8.205822
2294.000000	8.057989
2293.000000	8.082926
2292.000000	7.951757
2291.000000	7.908623
2290.000000	7.966793
2289.000000	8.150541
2288.000000	8.314180
2287.000000	8.179200
2286.000000	8.081662
2285.000000	7.959826
2284.000000	8.071312
2283.000000	8.279574
2282.000000	8.037702
2281.000000	8.024929
2280.000000	8.085201
2279.000000	7.994201
2278.000000	7.980689
2277.000000	8.067501
2276.000000	8.057901
2275.000000	8.039462
2274.000000	8.059388
2273.000000	8.069646
2272.000000	8.247068
2271.000000	8.232278
2270.000000	8.148247
2269.000000	8.206941
2268.000000	8.208681
2267.000000	8.056255
2266.000000	8.235055
2265.000000	8.393145
2264.000000	8.363346
2263.000000	8.340273
2262.000000	8.438659
2261.000000	8.588498
2260.000000	8.755990
2259.000000	8.703741
2258.000000	8.761770
2257.000000	9.033367
2256.000000	9.056804
2255.000000	8.999070
2254.000000	9.243813
2253.000000	9.521428
2252.000000	9.579062
2251.000000	9.568609
2250.000000	9.717119
2249.000000	9.842309
2248.000000	9.975821
2247.000000	10.113789
2246.000000	10.160496
2245.000000	10.304207
2244.000000	10.366002
2243.000000	10.417247
2242.000000	10.514395
2241.000000	10.533959
2240.000000	10.758841
2239.000000	10.840021
2238.000000	10.729346
2237.000000	10.878004
2236.000000	11.069626
2235.000000	11.087338
2234.000000	11.078773
2233.000000	11.159619
2232.000000	11.198738
2231.000000	11.195061
2230.000000	11.166662
2229.000000	11.260483
2228.000000	11.377405
2227.000000	11.340282
2226.000000	11.321574
2225.000000	11.224506
2224.000000	11.150575
2223.000000	11.251097
2222.000000	11.300556
2221.000000	11.197801
2220.000000	11.114377
2219.000000	11.141550
2218.000000	11.143397
2217.000000	11.145802
2216.000000	11.075025
2215.000000	11.047675
2214.000000	11.133828
2213.000000	11.158264
2212.000000	11.094115
2211.000000	10.862024
2210.000000	10.875942
2209.000000	10.873767
2208.000000	10.758989
2207.000000	10.700359
2206.000000	10.584753
2205.000000	10.535901
2204.000000	10.429507
2203.000000	10.633048
2202.000000	10.653293
2201.000000	10.496882
2200.000000	10.577959
2199.000000	10.563014
2198.000000	10.485612
2197.000000	10.457862
2196.000000	10.254952
2195.000000	10.269955
2194.000000	10.122604
2193.000000	10.012817
2192.000000	10.080233
2191.000000	10.339377
2190.000000	10.247963
2189.000000	10.139719
2188.000000	10.189891
2187.000000	9.887795
2186.000000	10.067735
2185.000000	9.984172
2184.000000	9.962796
2183.000000	10.055228
2182.000000	9.851688
2181.000000	9.736632
2180.000000	9.849342
2179.000000	9.941159
2178.000000	9.887719
2177.000000	9.680425
2176.000000	9.718007
2175.000000	9.772861
2174.000000	9.788403
2173.000000	9.730294
2172.000000	9.969398
2171.000000	10.118473
2170.000000	10.064920
2169.000000	10.166425
2168.000000	10.094667
2167.000000	10.019235
2166.000000	10.047503
2165.000000	10.182630
2164.000000	10.076003
2163.000000	10.275690
2162.000000	10.393095
2161.000000	10.353700
2160.000000	10.498112
2159.000000	10.724660
2158.000000	10.524432
2157.000000	10.711099
2156.000000	10.738133
2155.000000	10.952571
2154.000000	10.995034
2153.000000	11.168850
2152.000000	11.171282
2151.000000	11.329801
2150.000000	11.225746
2149.000000	11.268513
2148.000000	11.620427
2147.000000	11.568599
2146.000000	11.611559
2145.000000	11.714297
2144.000000	11.794802
2143.000000	11.802291
2142.000000	12.004647
2141.000000	12.175152
2140.000000	12.262191
2139.000000	12.418955
2138.000000	12.389649
2137.000000	12.408347
2136.000000	12.488780
2135.000000	12.575537
2134.000000	12.890292
2133.000000	12.652934
2132.000000	12.818334
2131.000000	13.007209
2130.000000	13.127869
2129.000000	13.009573
2128.000000	12.905855
2127.000000	12.813870
2126.000000	13.013000
2125.000000	13.029543
2124.000000	13.279765
2123.000000	13.121107
2122.000000	13.350993
2121.000000	13.281667
2120.000000	13.288368
2119.000000	13.318855
2118.000000	13.360367
2117.000000	13.404287
2116.000000	13.276593
2115.000000	13.494742
2114.000000	13.544379
2113.000000	13.514590
2112.000000	13.615431
2111.000000	13.571085
2110.000000	13.452537
2109.000000	13.607619
2108.000000	13.631171
2107.000000	13.589544
2106.000000	13.575655
2105.000000	13.557087
2104.000000	13.669535
2103.000000	13.580745
2102.000000	13.599075
2101.000000	13.676188
2100.000000	13.698342
2099.000000	13.618386
2098.000000	13.554184
2097.000000	13.721268
2096.000000	13.763945
2095.000000	13.637889
2094.000000	13.761412
2093.000000	13.712190
2092.000000	13.782502
2091.000000	13.643190
2090.000000	13.593028
2089.000000	13.696570
2088.000000	13.681853
2087.000000	13.628940
2086.000000	13.598832
2085.000000	13.580884
2084.000000	13.578175
2083.000000	13.363001
2082.000000	13.299068
2081.000000	13.342635
2080.000000	13.411166
2079.000000	13.446468
2078.000000	13.230454
2077.000000	13.178138
2076.000000	13.090759
2075.000000	12.997435
2074.000000	13.033816
2073.000000	12.958091
2072.000000	12.918795
2071.000000	12.792721
2070.000000	12.591372
2069.000000	12.565067
2068.000000	12.421053
2067.000000	12.385256
2066.000000	12.377392
2065.000000	12.261635
2064.000000	12.173008
2063.000000	11.978469
2062.000000	11.887562
2061.000000	11.817577
2060.000000	11.659785
2059.000000	11.512489
2058.000000	11.489189
2057.000000	11.363747
2056.000000	11.351978
2055.000000	11.258745
2054.000000	11.144618
2053.000000	11.039717
2052.000000	10.914282
2051.000000	10.821452
2050.000000	10.779793
2049.000000	10.770560
2048.000000	10.729159
2047.000000	10.697603
2046.000000	10.601142
2045.000000	10.574096
2044.000000	10.515015
2043.000000	10.541141
2042.000000	10.565467
2041.000000	10.566303
2040.000000	10.598822
2039.000000	10.660617
2038.000000	10.693614
2037.000000	10.710128
2036.000000	10.742013
2035.000000	10.817331
2034.000000	10.854036
2033.000000	10.866819
2032.000000	11.023604
2031.000000	11.095850
2030.000000	11.110312
2029.000000	11.225996
2028.000000	11.326891
2027.000000	11.381033
2026.000000	11.489550
2025.000000	11.575025
2024.000000	11.606602
2023.000000	11.680378
2022.000000	11.766353
2021.000000	11.776296
2020.000000	11.784966
2019.000000	11.855406
2018.000000	11.894719
2017.000000	11.914782
2016.000000	11.913193
2015.000000	11.915388
2014.000000	11.958883
2013.000000	11.978899
2012.000000	11.951226
2011.000000	11.969786
2010.000000	11.966505
2009.000000	11.908428
2008.000000	11.838559
2007.000000	11.772972
2006.000000	11.752778
2005.000000	11.757415
2004.000000	11.680332
2003.000000	11.582163
2002.000000	11.563581
2001.000000	11.528195
2000.000000	11.456077
1999.000000	11.397203
1998.000000	11.337206
1997.000000	11.312854
1996.000000	11.252244
1995.000000	11.213731
1994.000000	11.126342
1993.000000	11.023525
1992.000000	10.986737
1991.000000	10.952314
1990.000000	10.905448
1989.000000	10.849663
1988.000000	10.813804
1987.000000	10.685667
1986.000000	10.606810
1985.000000	10.619947
1984.000000	10.592702
1983.000000	10.487152
1982.000000	10.471154
1981.000000	10.476091
1980.000000	10.356115
1979.000000	10.236782
1978.000000	10.197871
1977.000000	10.181055
1976.000000	10.084366
1975.000000	10.045807
1974.000000	9.979155
1973.000000	9.967317
1972.000000	9.956924
1971.000000	9.922631
1970.000000	9.866155
1969.000000	9.794248
1968.000000	9.736644
1967.000000	9.724039
1966.000000	9.688812
1965.000000	9.659333
1964.000000	9.618683
1963.000000	9.575291
1962.000000	9.523374
1961.000000	9.496655
1960.000000	9.453726
1959.000000	9.384120
1958.000000	9.404532
1957.000000	9.337884
1956.000000	9.271907
1955.000000	9.329387
1954.000000	9.268529
1953.000000	9.222467
1952.000000	9.199330
1951.000000	9.221275
1950.000000	9.204775
1949.000000	9.184344
1948.000000	9.185435
1947.000000	9.212958
1946.000000	9.160133
1945.000000	9.205310
1944.000000	9.237174
1943.000000	9.285902
1942.000000	9.224342
1941.000000	9.211736
1940.000000	9.347178
1939.000000	9.414286
1938.000000	9.436042
1937.000000	9.539240
1936.000000	9.551805
1935.000000	9.644511
1934.000000	9.655543
1933.000000	9.738270
1932.000000	9.936419
1931.000000	9.893510
1930.000000	10.089926
1929.000000	10.115557
1928.000000	10.219432
1927.000000	10.393529
1926.000000	10.480609
1925.000000	10.762274
1924.000000	10.878165
1923.000000	11.053464
1922.000000	11.123355
1921.000000	11.428346
1920.000000	11.617816
1919.000000	11.776195
1918.000000	11.922928
1917.000000	12.120036
1916.000000	12.157547
1915.000000	12.560890
1914.000000	12.913046
1913.000000	13.202550
1912.000000	13.350960
1911.000000	13.652995
1910.000000	13.990088
1909.000000	14.333469
1908.000000	14.577322
1907.000000	14.911362
1906.000000	15.210525
1905.000000	15.753552
1904.000000	16.041471
1903.000000	16.426621
1902.000000	16.846568
1901.000000	17.227551
1900.000000	17.713422
1899.000000	18.053333
1898.000000	18.456486
1897.000000	18.921986
1896.000000	19.404358
1895.000000	19.817233
1894.000000	20.187800
1893.000000	20.656983
1892.000000	21.058237
1891.000000	21.481651
1890.000000	21.973181
1889.000000	22.350676
1888.000000	22.742043
1887.000000	23.162613
1886.000000	23.517811
1885.000000	23.964429
1884.000000	24.295949
1883.000000	24.668351
1882.000000	24.994327
1881.000000	25.317130
1880.000000	25.662945
1879.000000	25.984924
1878.000000	26.233277
1877.000000	26.580339
1876.000000	26.783616
1875.000000	26.995532
1874.000000	27.254988
1873.000000	27.479577
1872.000000	27.682023
1871.000000	27.915076
1870.000000	28.069583
1869.000000	28.271892
1868.000000	28.452783
1867.000000	28.582064
1866.000000	28.630026
1865.000000	28.751932
1864.000000	28.834293
1863.000000	28.871959
1862.000000	28.989469
1861.000000	29.033114
1860.000000	29.150106
1859.000000	29.191327
1858.000000	29.265637
1857.000000	29.304263
1856.000000	29.352448
1855.000000	29.388931
1854.000000	29.452468
1853.000000	29.473043
1852.000000	29.485088
1851.000000	29.469132
1850.000000	29.439910
1849.000000	29.428529
1848.000000	29.428847
1847.000000	29.424195
1846.000000	29.390272
1845.000000	29.394742
1844.000000	29.344449
1843.000000	29.350891
1842.000000	29.350267
1841.000000	29.280594
1840.000000	29.214682
1839.000000	29.185121
1838.000000	29.147224
1837.000000	29.093944
1836.000000	29.034102
1835.000000	28.964597
1834.000000	28.886426
1833.000000	28.868762
1832.000000	28.840051
1831.000000	28.772666
1830.000000	28.736173
1829.000000	28.695698
1828.000000	28.634925
1827.000000	28.585911
1826.000000	28.537294
1825.000000	28.494400
1824.000000	28.471576
1823.000000	28.412257
1822.000000	28.335796
1821.000000	28.287045
1820.000000	28.251266
1819.000000	28.233015
1818.000000	28.211743
1817.000000	28.147346
1816.000000	28.097014
1815.000000	28.057193
1814.000000	27.993730
1813.000000	27.976515
1812.000000	27.954405
1811.000000	27.919969
1810.000000	27.892893
1809.000000	27.840976
1808.000000	27.794431
1807.000000	27.755025
1806.000000	27.700672
1805.000000	27.669484
1804.000000	27.652637
1803.000000	27.613736
1802.000000	27.571380
1801.000000	27.541565
1800.000000	27.505907
1799.000000	27.473136
1798.000000	27.443272
1797.000000	27.427031
1796.000000	27.408189
1795.000000	27.395922
1794.000000	27.376106
1793.000000	27.347817
1792.000000	27.306125
1791.000000	27.276329
1790.000000	27.251410
1789.000000	27.237838
1788.000000	27.221771
1787.000000	27.183883
1786.000000	27.170447
1785.000000	27.149985
1784.000000	27.091389
1783.000000	27.070348
1782.000000	27.038282
1781.000000	26.983265
1780.000000	26.937661
1779.000000	26.910952
1778.000000	26.881322
1777.000000	26.777611
1776.000000	26.714975
1775.000000	26.651529
1774.000000	26.586099
1773.000000	26.550116
1772.000000	26.464629
1771.000000	26.381454
1770.000000	26.320861
1769.000000	26.242815
1768.000000	26.175939
1767.000000	26.109994
1766.000000	26.063699
1765.000000	25.997226
1764.000000	25.974302
1763.000000	25.858846
1762.000000	25.765511
1761.000000	25.717083
1760.000000	25.632113
1759.000000	25.562086
1758.000000	25.490668
1757.000000	25.402207
1756.000000	25.349438
1755.000000	25.314460
1754.000000	25.249364
1753.000000	25.164504
1752.000000	25.098595
1751.000000	25.033023
1750.000000	24.989009
1749.000000	24.915207
1748.000000	24.846814
1747.000000	24.739733
1746.000000	24.684472
1745.000000	24.611245
1744.000000	24.538120
1743.000000	24.474435
1742.000000	24.393406
1741.000000	24.340362
1740.000000	24.304129
1739.000000	24.231438
1738.000000	24.200316
1737.000000	24.166707
1736.000000	24.092999
1735.000000	24.079387
1734.000000	24.107737
1733.000000	24.091121
1732.000000	24.091292
1731.000000	24.072218
1730.000000	24.132834
1729.000000	24.131382
1728.000000	24.189607
1727.000000	24.217597
1726.000000	24.303129
1725.000000	24.354754
1724.000000	24.480181
1723.000000	24.553221
1722.000000	24.681989
1721.000000	24.794250
1720.000000	24.874296
1719.000000	24.974233
1718.000000	25.091942
1717.000000	25.182241
1716.000000	25.290063
1715.000000	25.363045
1714.000000	25.492993
1713.000000	25.584110
1712.000000	25.659248
1711.000000	25.735757
1710.000000	25.783606
1709.000000	25.829962
1708.000000	25.913722
1707.000000	25.937348
1706.000000	25.980527
1705.000000	26.033614
1704.000000	26.092420
1703.000000	26.053902
1702.000000	26.095790
1701.000000	26.102713
1700.000000	26.147437
1699.000000	26.128536
1698.000000	26.191711
1697.000000	26.221673
1696.000000	26.265695
1695.000000	26.286651
1694.000000	26.339971
1693.000000	26.416326
1692.000000	26.488190
1691.000000	26.557361
1690.000000	26.646133
1689.000000	26.760120
1688.000000	26.920801
1687.000000	27.075562
1686.000000	27.215337
1685.000000	27.362073
1684.000000	27.561418
1683.000000	27.742203
1682.000000	27.964336
1681.000000	28.175314
1680.000000	28.366121
1679.000000	28.602115
1678.000000	28.813860
1677.000000	29.030612
1676.000000	29.288631
1675.000000	29.503443
1674.000000	29.741238
1673.000000	29.974437
1672.000000	30.208957
1671.000000	30.394340
1670.000000	30.601526
1669.000000	30.795949
1668.000000	30.952482
1667.000000	31.139697
1666.000000	31.284098
1665.000000	31.383813
1664.000000	31.527983
1663.000000	31.651259
1662.000000	31.773277
1661.000000	31.890008
1660.000000	31.975599
1659.000000	32.048986
1658.000000	32.129405
1657.000000	32.176845
1656.000000	32.238534
1655.000000	32.268502
1654.000000	32.295573
1653.000000	32.322038
1652.000000	32.343732
1651.000000	32.344846
1650.000000	32.359981
1649.000000	32.364785
1648.000000	32.341131
1647.000000	32.331204
1646.000000	32.343078
1645.000000	32.323456
1644.000000	32.287309
1643.000000	32.269118
1642.000000	32.247097
1641.000000	32.202852
1640.000000	32.145393
1639.000000	32.088485
1638.000000	32.084233
1637.000000	32.063587
1636.000000	32.001112
1635.000000	31.947763
1634.000000	31.904105
1633.000000	31.841268
1632.000000	31.792430
1631.000000	31.744304
1630.000000	31.680142
1629.000000	31.630262
1628.000000	31.568928
1627.000000	31.516580
1626.000000	31.451870
1625.000000	31.407603
1624.000000	31.336557
1623.000000	31.282036
1622.000000	31.233799
1621.000000	31.151955
1620.000000	31.098134
1619.000000	31.032859
1618.000000	30.943467
1617.000000	30.864463
1616.000000	30.793418
1615.000000	30.719622
1614.000000	30.652982
1613.000000	30.567390
1612.000000	30.495357
1611.000000	30.429552
1610.000000	30.360942
1609.000000	30.288405
1608.000000	30.216929
1607.000000	30.141620
1606.000000	30.058269
1605.000000	29.977222
1604.000000	29.904799
1603.000000	29.830305
1602.000000	29.757426
1601.000000	29.678103
1600.000000	29.602858
1599.000000	29.509198
1598.000000	29.425262
1597.000000	29.362965
1596.000000	29.291959
1595.000000	29.225847
1594.000000	29.158154
1593.000000	29.099469
1592.000000	29.032752
1591.000000	28.972121
1590.000000	28.903520
1589.000000	28.826516
1588.000000	28.758202
1587.000000	28.708519
1586.000000	28.652437
1585.000000	28.595253
1584.000000	28.556646
1583.000000	28.501205
1582.000000	28.439755
1581.000000	28.368328
1580.000000	28.309149
1579.000000	28.264957
1578.000000	28.227788
1577.000000	28.176466
1576.000000	28.106682
1575.000000	28.043159
1574.000000	27.975311
1573.000000	27.920454
1572.000000	27.872162
1571.000000	27.823587
1570.000000	27.775912
1569.000000	27.718391
1568.000000	27.667706
1567.000000	27.619527
1566.000000	27.577548
1565.000000	27.561335
1564.000000	27.537778
1563.000000	27.507505
1562.000000	27.480737
1561.000000	27.435247
1560.000000	27.401387
1559.000000	27.371833
1558.000000	27.356352
1557.000000	27.329577
1556.000000	27.306779
1555.000000	27.278103
1554.000000	27.247932
1553.000000	27.220887
1552.000000	27.185835
1551.000000	27.148036
1550.000000	27.095941
1549.000000	27.047928
1548.000000	27.011468
1547.000000	26.957233
1546.000000	26.887746
1545.000000	26.808384
1544.000000	26.719555
1543.000000	26.640975
1542.000000	26.563872
1541.000000	26.478033
1540.000000	26.384868
1539.000000	26.280814
1538.000000	26.194461
1537.000000	26.091229
1536.000000	25.980942
1535.000000	25.881324
1534.000000	25.784718
1533.000000	25.703596
1532.000000	25.586815
1531.000000	25.491435
1530.000000	25.390278
1529.000000	25.312275
1528.000000	25.224456
1527.000000	25.139311
1526.000000	25.069979
1525.000000	25.001014
1524.000000	24.914002
1523.000000	24.848379
1522.000000	24.781676
1521.000000	24.748637
1520.000000	24.693060
1519.000000	24.636342
1518.000000	24.597419
1517.000000	24.549015
1516.000000	24.520397
1515.000000	24.474524
1514.000000	24.417563
1513.000000	24.365105
1512.000000	24.352263
1511.000000	24.317666
1510.000000	24.316048
1509.000000	24.292940
1508.000000	24.270750
1507.000000	24.251010
1506.000000	24.238637
1505.000000	24.219789
1504.000000	24.219933
1503.000000	24.233436
1502.000000	24.208914
1501.000000	24.208872
1500.000000	24.218790
1499.000000	24.221682
1498.000000	24.231096
1497.000000	24.267252
1496.000000	24.280062
1495.000000	24.293233
1494.000000	24.312535
1493.000000	24.348794
1492.000000	24.391454
1491.000000	24.441884
1490.000000	24.512637
1489.000000	24.565101
1488.000000	24.620442
1487.000000	24.662262
1486.000000	24.748676
1485.000000	24.797238
1484.000000	24.846102
1483.000000	24.954386
1482.000000	24.986893
1481.000000	25.087303
1480.000000	25.156518
1479.000000	25.248675
1478.000000	25.316614
1477.000000	25.388484
1476.000000	25.450969
1475.000000	25.529374
1474.000000	25.597366
1473.000000	25.674193
1472.000000	25.768904
1471.000000	25.826029
1470.000000	25.881742
1469.000000	25.947824
1468.000000	26.037771
1467.000000	26.088575
1466.000000	26.143811
1465.000000	26.203555
1464.000000	26.260618
1463.000000	26.349121
1462.000000	26.398182
