PE UV       SUBTECH     SPECTRUM    ASCII       PEDS        4.00        
   -1
RDVeauUK 12.Sample.asc
18/03/05
10:23:52.00
18/03/05
10:23:52.00
Administrator

200.000000
1
Lambda 750
750N8071901
PerkinElmer UV WinLab 6.0.4.0738 / 1.61.00 Lambda 900

0
0
3350/servo 860.8/2
0
0
UV/VIS
1
1
1
CommonBeamDepol,150mm sphere / downward view
0
0
0
0
Program
Program
3350/servo 860.8/2
3350/0.2 860.8/0.2
3350/0.2 860.8/0.2
0
1
 
 
 
0
 
860.8
319.2
860.8
Front
100
on
 
 
0
0
0
 
0
 
 
 
0
 
 
0
0
0
0
0
 
 
 
 
0
0


0
0
#HDR
-1
-1
#GR
nm
%R
1.0
0.0
2350.000000
-1.000000
2151
8
56.248587
9.134551
#DATA
2350.000000	9.991305
2349.000000	10.654476
2348.000000	10.249739
2347.000000	10.857785
2346.000000	10.257996
2345.000000	10.188112
2344.000000	10.125982
2343.000000	10.160815
2342.000000	9.920661
2341.000000	10.069996
2340.000000	10.474172
2339.000000	10.888357
2338.000000	10.683101
2337.000000	11.051177
2336.000000	11.130491
2335.000000	10.830299
2334.000000	11.108837
2333.000000	11.425243
2332.000000	11.064069
2331.000000	11.216782
2330.000000	10.868002
2329.000000	10.901991
2328.000000	10.947068
2327.000000	10.913761
2326.000000	11.155566
2325.000000	11.143356
2324.000000	11.005061
2323.000000	10.974877
2322.000000	10.664051
2321.000000	10.729971
2320.000000	10.790667
2319.000000	10.948239
2318.000000	10.904160
2317.000000	10.990253
2316.000000	10.782298
2315.000000	10.454026
2314.000000	10.280367
2313.000000	10.570312
2312.000000	10.469425
2311.000000	10.402307
2310.000000	10.500746
2309.000000	10.619334
2308.000000	10.118023
2307.000000	9.934720
2306.000000	10.320673
2305.000000	10.471943
2304.000000	10.211249
2303.000000	10.230217
2302.000000	10.364733
2301.000000	10.050218
2300.000000	9.791796
2299.000000	9.851144
2298.000000	9.976156
2297.000000	9.680755
2296.000000	9.646225
2295.000000	9.617820
2294.000000	9.860060
2293.000000	9.767570
2292.000000	9.632308
2291.000000	9.510520
2290.000000	9.503957
2289.000000	9.469379
2288.000000	9.540757
2287.000000	9.542248
2286.000000	9.519797
2285.000000	9.547085
2284.000000	9.524403
2283.000000	9.326149
2282.000000	9.147957
2281.000000	9.229424
2280.000000	9.134551
2279.000000	9.519194
2278.000000	9.690272
2277.000000	9.455660
2276.000000	9.344290
2275.000000	9.328718
2274.000000	9.385062
2273.000000	9.455238
2272.000000	9.566303
2271.000000	9.655620
2270.000000	9.731772
2269.000000	9.836248
2268.000000	9.783588
2267.000000	9.713659
2266.000000	9.716498
2265.000000	9.780424
2264.000000	9.870040
2263.000000	9.778792
2262.000000	9.825809
2261.000000	10.061057
2260.000000	10.140212
2259.000000	10.130135
2258.000000	10.338530
2257.000000	10.649119
2256.000000	10.745485
2255.000000	10.849918
2254.000000	10.848101
2253.000000	10.816822
2252.000000	10.989022
2251.000000	11.166522
2250.000000	11.164905
2249.000000	11.443557
2248.000000	11.732336
2247.000000	11.716165
2246.000000	11.787937
2245.000000	12.005514
2244.000000	12.082034
2243.000000	12.230364
2242.000000	12.392971
2241.000000	12.290919
2240.000000	12.376487
2239.000000	12.653463
2238.000000	12.662747
2237.000000	12.652792
2236.000000	12.722220
2235.000000	12.791102
2234.000000	12.805252
2233.000000	12.795409
2232.000000	12.821004
2231.000000	12.930285
2230.000000	13.000819
2229.000000	13.056732
2228.000000	13.289860
2227.000000	13.302620
2226.000000	13.317566
2225.000000	13.234381
2224.000000	13.107964
2223.000000	13.027362
2222.000000	12.915066
2221.000000	12.863136
2220.000000	12.957922
2219.000000	12.981611
2218.000000	13.014413
2217.000000	12.981939
2216.000000	13.057383
2215.000000	12.985070
2214.000000	12.923442
2213.000000	12.851216
2212.000000	12.776193
2211.000000	12.673458
2210.000000	12.710765
2209.000000	12.687277
2208.000000	12.571395
2207.000000	12.532525
2206.000000	12.534605
2205.000000	12.657768
2204.000000	12.471212
2203.000000	12.422494
2202.000000	12.357252
2201.000000	12.317592
2200.000000	12.336226
2199.000000	12.264162
2198.000000	12.165654
2197.000000	12.001469
2196.000000	11.964684
2195.000000	11.965080
2194.000000	11.880703
2193.000000	11.927647
2192.000000	12.003433
2191.000000	11.766511
2190.000000	11.728397
2189.000000	11.737030
2188.000000	11.637839
2187.000000	11.505502
2186.000000	11.450229
2185.000000	11.421045
2184.000000	11.480421
2183.000000	11.551762
2182.000000	11.648864
2181.000000	11.431460
2180.000000	11.478601
2179.000000	11.319446
2178.000000	11.363375
2177.000000	11.604948
2176.000000	11.445332
2175.000000	11.383935
2174.000000	11.388739
2173.000000	11.374568
2172.000000	11.517089
2171.000000	11.582941
2170.000000	11.537779
2169.000000	11.639481
2168.000000	11.520875
2167.000000	11.558837
2166.000000	11.783228
2165.000000	11.930809
2164.000000	11.971736
2163.000000	11.958480
2162.000000	12.240359
2161.000000	12.084513
2160.000000	12.244669
2159.000000	12.366575
2158.000000	12.297709
2157.000000	12.478990
2156.000000	12.709360
2155.000000	12.707019
2154.000000	12.715874
2153.000000	12.972283
2152.000000	12.942805
2151.000000	12.987122
2150.000000	13.111021
2149.000000	13.388499
2148.000000	13.443109
2147.000000	13.755128
2146.000000	13.694292
2145.000000	13.526274
2144.000000	13.741932
2143.000000	13.818058
2142.000000	14.043388
2141.000000	14.029800
2140.000000	14.075815
2139.000000	14.108807
2138.000000	14.406123
2137.000000	14.152370
2136.000000	14.421504
2135.000000	14.597976
2134.000000	14.689259
2133.000000	14.493738
2132.000000	14.899042
2131.000000	15.118446
2130.000000	15.078845
2129.000000	14.758985
2128.000000	15.069000
2127.000000	15.151252
2126.000000	15.070251
2125.000000	15.170095
2124.000000	15.234817
2123.000000	15.136261
2122.000000	15.297836
2121.000000	15.368299
2120.000000	15.374623
2119.000000	15.463245
2118.000000	15.625909
2117.000000	15.432635
2116.000000	15.550008
2115.000000	15.845305
2114.000000	15.619270
2113.000000	15.768571
2112.000000	15.732526
2111.000000	15.683441
2110.000000	15.566038
2109.000000	15.541765
2108.000000	15.814803
2107.000000	15.836892
2106.000000	15.673949
2105.000000	15.839284
2104.000000	15.776049
2103.000000	15.837534
2102.000000	15.884600
2101.000000	15.912846
2100.000000	16.072234
2099.000000	15.890390
2098.000000	15.824257
2097.000000	15.835842
2096.000000	15.891529
2095.000000	15.833185
2094.000000	15.866962
2093.000000	15.815377
2092.000000	15.919385
2091.000000	15.802528
2090.000000	15.793565
2089.000000	15.806769
2088.000000	15.778893
2087.000000	15.773837
2086.000000	15.782058
2085.000000	15.722301
2084.000000	15.690436
2083.000000	15.591938
2082.000000	15.458330
2081.000000	15.547029
2080.000000	15.484768
2079.000000	15.455981
2078.000000	15.343851
2077.000000	15.260945
2076.000000	15.118096
2075.000000	15.071808
2074.000000	15.105330
2073.000000	15.004425
2072.000000	14.937307
2071.000000	14.811112
2070.000000	14.812640
2069.000000	14.619274
2068.000000	14.492022
2067.000000	14.406308
2066.000000	14.198742
2065.000000	14.130485
2064.000000	14.079724
2063.000000	13.881274
2062.000000	13.859326
2061.000000	13.758515
2060.000000	13.691582
2059.000000	13.559775
2058.000000	13.451513
2057.000000	13.325634
2056.000000	13.239807
2055.000000	13.114706
2054.000000	13.015231
2053.000000	12.829348
2052.000000	12.666306
2051.000000	12.531802
2050.000000	12.566683
2049.000000	12.529476
2048.000000	12.385900
2047.000000	12.401096
2046.000000	12.410777
2045.000000	12.381156
2044.000000	12.361487
2043.000000	12.350413
2042.000000	12.362709
2041.000000	12.348244
2040.000000	12.315166
2039.000000	12.361198
2038.000000	12.401078
2037.000000	12.442528
2036.000000	12.457490
2035.000000	12.508477
2034.000000	12.575024
2033.000000	12.650093
2032.000000	12.787060
2031.000000	12.905338
2030.000000	13.015111
2029.000000	13.114693
2028.000000	13.199284
2027.000000	13.333955
2026.000000	13.448740
2025.000000	13.500056
2024.000000	13.532267
2023.000000	13.598296
2022.000000	13.645934
2021.000000	13.711957
2020.000000	13.764530
2019.000000	13.793296
2018.000000	13.845227
2017.000000	13.892177
2016.000000	13.888091
2015.000000	13.909149
2014.000000	13.950729
2013.000000	13.949044
2012.000000	13.932022
2011.000000	13.901323
2010.000000	13.883175
2009.000000	13.819932
2008.000000	13.720045
2007.000000	13.675557
2006.000000	13.675615
2005.000000	13.649467
2004.000000	13.574091
2003.000000	13.524163
2002.000000	13.429490
2001.000000	13.395072
2000.000000	13.347558
1999.000000	13.313473
1998.000000	13.237568
1997.000000	13.164769
1996.000000	13.121594
1995.000000	13.078353
1994.000000	13.001226
1993.000000	12.922245
1992.000000	12.847503
1991.000000	12.743300
1990.000000	12.688140
1989.000000	12.628711
1988.000000	12.556829
1987.000000	12.443752
1986.000000	12.394891
1985.000000	12.395287
1984.000000	12.317272
1983.000000	12.199663
1982.000000	12.156595
1981.000000	12.148840
1980.000000	12.056507
1979.000000	12.005359
1978.000000	11.951913
1977.000000	11.877508
1976.000000	11.764467
1975.000000	11.773239
1974.000000	11.715319
1973.000000	11.684702
1972.000000	11.612397
1971.000000	11.551900
1970.000000	11.475809
1969.000000	11.451944
1968.000000	11.401889
1967.000000	11.334387
1966.000000	11.345717
1965.000000	11.249648
1964.000000	11.122317
1963.000000	11.119326
1962.000000	11.040695
1961.000000	10.995865
1960.000000	11.035271
1959.000000	10.982810
1958.000000	10.933882
1957.000000	10.947542
1956.000000	10.870980
1955.000000	10.825043
1954.000000	10.768287
1953.000000	10.737404
1952.000000	10.805541
1951.000000	10.801514
1950.000000	10.724996
1949.000000	10.681197
1948.000000	10.705155
1947.000000	10.706301
1946.000000	10.680513
1945.000000	10.705782
1944.000000	10.720924
1943.000000	10.720351
1942.000000	10.786779
1941.000000	10.787858
1940.000000	10.817464
1939.000000	10.870866
1938.000000	11.056347
1937.000000	11.032117
1936.000000	11.119526
1935.000000	11.181157
1934.000000	11.259394
1933.000000	11.379979
1932.000000	11.508106
1931.000000	11.471137
1930.000000	11.560412
1929.000000	11.717072
1928.000000	11.848016
1927.000000	12.004489
1926.000000	12.237534
1925.000000	12.431650
1924.000000	12.608879
1923.000000	12.813931
1922.000000	12.934252
1921.000000	13.171012
1920.000000	13.324630
1919.000000	13.617162
1918.000000	13.738196
1917.000000	14.126515
1916.000000	14.180751
1915.000000	14.633919
1914.000000	14.973359
1913.000000	15.208585
1912.000000	15.434295
1911.000000	15.887930
1910.000000	16.224547
1909.000000	16.459206
1908.000000	16.862110
1907.000000	17.368954
1906.000000	17.652146
1905.000000	18.148698
1904.000000	18.609574
1903.000000	19.002445
1902.000000	19.586306
1901.000000	19.984247
1900.000000	20.416689
1899.000000	20.942568
1898.000000	21.557325
1897.000000	21.988478
1896.000000	22.476978
1895.000000	23.093372
1894.000000	23.505947
1893.000000	23.978721
1892.000000	24.563920
1891.000000	25.041689
1890.000000	25.513619
1889.000000	26.048021
1888.000000	26.516101
1887.000000	26.947436
1886.000000	27.451904
1885.000000	27.950360
1884.000000	28.346473
1883.000000	28.766284
1882.000000	29.210548
1881.000000	29.572066
1880.000000	29.961816
1879.000000	30.294135
1878.000000	30.689930
1877.000000	31.026363
1876.000000	31.341286
1875.000000	31.693427
1874.000000	31.977451
1873.000000	32.269290
1872.000000	32.572300
1871.000000	32.854180
1870.000000	32.971446
1869.000000	33.176237
1868.000000	33.356642
1867.000000	33.579121
1866.000000	33.662223
1865.000000	33.762404
1864.000000	33.847284
1863.000000	33.936824
1862.000000	34.077928
1861.000000	34.152821
1860.000000	34.261483
1859.000000	34.319969
1858.000000	34.358396
1857.000000	34.364756
1856.000000	34.428785
1855.000000	34.467683
1854.000000	34.497755
1853.000000	34.565402
1852.000000	34.541436
1851.000000	34.508404
1850.000000	34.517593
1849.000000	34.517588
1848.000000	34.515628
1847.000000	34.500684
1846.000000	34.470104
1845.000000	34.487140
1844.000000	34.470541
1843.000000	34.427214
1842.000000	34.396207
1841.000000	34.336291
1840.000000	34.315217
1839.000000	34.272886
1838.000000	34.215972
1837.000000	34.158684
1836.000000	34.101705
1835.000000	34.029926
1834.000000	33.938796
1833.000000	33.875116
1832.000000	33.832587
1831.000000	33.767041
1830.000000	33.717094
1829.000000	33.683349
1828.000000	33.617614
1827.000000	33.516550
1826.000000	33.460220
1825.000000	33.433223
1824.000000	33.389308
1823.000000	33.347493
1822.000000	33.285502
1821.000000	33.211831
1820.000000	33.152776
1819.000000	33.079252
1818.000000	33.041517
1817.000000	33.000865
1816.000000	32.945664
1815.000000	32.906676
1814.000000	32.845969
1813.000000	32.798859
1812.000000	32.750166
1811.000000	32.688426
1810.000000	32.648631
1809.000000	32.633011
1808.000000	32.592395
1807.000000	32.517447
1806.000000	32.457500
1805.000000	32.388783
1804.000000	32.331365
1803.000000	32.295446
1802.000000	32.256142
1801.000000	32.237300
1800.000000	32.182211
1799.000000	32.139797
1798.000000	32.126461
1797.000000	32.085969
1796.000000	32.032750
1795.000000	31.990708
1794.000000	31.970269
1793.000000	31.942564
1792.000000	31.902733
1791.000000	31.862708
1790.000000	31.810288
1789.000000	31.786584
1788.000000	31.762000
1787.000000	31.698298
1786.000000	31.663261
1785.000000	31.657176
1784.000000	31.600340
1783.000000	31.547981
1782.000000	31.477421
1781.000000	31.420497
1780.000000	31.383080
1779.000000	31.328013
1778.000000	31.246502
1777.000000	31.175983
1776.000000	31.114711
1775.000000	31.040274
1774.000000	30.974374
1773.000000	30.882423
1772.000000	30.789277
1771.000000	30.707375
1770.000000	30.606127
1769.000000	30.539949
1768.000000	30.480428
1767.000000	30.383742
1766.000000	30.296860
1765.000000	30.202644
1764.000000	30.131193
1763.000000	30.083091
1762.000000	29.999949
1761.000000	29.920563
1760.000000	29.816042
1759.000000	29.750323
1758.000000	29.685006
1757.000000	29.556220
1756.000000	29.500150
1755.000000	29.383226
1754.000000	29.293718
1753.000000	29.227631
1752.000000	29.150708
1751.000000	29.064404
1750.000000	28.982041
1749.000000	28.916766
1748.000000	28.806562
1747.000000	28.692116
1746.000000	28.612345
1745.000000	28.535001
1744.000000	28.483282
1743.000000	28.364109
1742.000000	28.293293
1741.000000	28.216352
1740.000000	28.147732
1739.000000	28.099304
1738.000000	28.040687
1737.000000	27.993114
1736.000000	28.011726
1735.000000	27.943667
1734.000000	27.933746
1733.000000	27.943524
1732.000000	27.945642
1731.000000	27.932099
1730.000000	27.943511
1729.000000	27.985399
1728.000000	28.061659
1727.000000	28.131870
1726.000000	28.247674
1725.000000	28.319852
1724.000000	28.425803
1723.000000	28.549609
1722.000000	28.677737
1721.000000	28.770069
1720.000000	28.893487
1719.000000	29.064510
1718.000000	29.179215
1717.000000	29.262475
1716.000000	29.403893
1715.000000	29.528100
1714.000000	29.653370
1713.000000	29.738257
1712.000000	29.821439
1711.000000	29.924364
1710.000000	30.015766
1709.000000	30.083603
1708.000000	30.139520
1707.000000	30.201124
1706.000000	30.281160
1705.000000	30.277806
1704.000000	30.314510
1703.000000	30.318041
1702.000000	30.323381
1701.000000	30.412329
1700.000000	30.410536
1699.000000	30.378957
1698.000000	30.486511
1697.000000	30.502682
1696.000000	30.562462
1695.000000	30.610322
1694.000000	30.685104
1693.000000	30.756595
1692.000000	30.829282
1691.000000	30.945846
1690.000000	31.063839
1689.000000	31.207995
1688.000000	31.375120
1687.000000	31.537525
1686.000000	31.752969
1685.000000	31.930639
1684.000000	32.160367
1683.000000	32.413861
1682.000000	32.669370
1681.000000	32.922743
1680.000000	33.170818
1679.000000	33.445302
1678.000000	33.709739
1677.000000	33.974661
1676.000000	34.285392
1675.000000	34.546374
1674.000000	34.823287
1673.000000	35.081765
1672.000000	35.356836
1671.000000	35.620424
1670.000000	35.845196
1669.000000	36.134542
1668.000000	36.313454
1667.000000	36.526558
1666.000000	36.706552
1665.000000	36.857935
1664.000000	37.001459
1663.000000	37.147237
1662.000000	37.290770
1661.000000	37.428782
1660.000000	37.549949
1659.000000	37.633111
1658.000000	37.693563
1657.000000	37.768364
1656.000000	37.861452
1655.000000	37.906477
1654.000000	37.930667
1653.000000	37.964659
1652.000000	38.013587
1651.000000	38.008646
1650.000000	38.011378
1649.000000	38.011707
1648.000000	37.971939
1647.000000	37.982869
1646.000000	37.981933
1645.000000	37.969949
1644.000000	37.956194
1643.000000	37.893792
1642.000000	37.819235
1641.000000	37.794449
1640.000000	37.784262
1639.000000	37.728293
1638.000000	37.667293
1637.000000	37.623218
1636.000000	37.567401
1635.000000	37.522514
1634.000000	37.458764
1633.000000	37.371697
1632.000000	37.312588
1631.000000	37.246938
1630.000000	37.177636
1629.000000	37.091257
1628.000000	37.023191
1627.000000	36.977086
1626.000000	36.919819
1625.000000	36.841849
1624.000000	36.778095
1623.000000	36.698829
1622.000000	36.599948
1621.000000	36.519343
1620.000000	36.442504
1619.000000	36.358573
1618.000000	36.263469
1617.000000	36.187920
1616.000000	36.113817
1615.000000	36.033547
1614.000000	35.938098
1613.000000	35.833309
1612.000000	35.739973
1611.000000	35.639784
1610.000000	35.548087
1609.000000	35.462974
1608.000000	35.367254
1607.000000	35.269822
1606.000000	35.160547
1605.000000	35.066432
1604.000000	34.964614
1603.000000	34.872881
1602.000000	34.785224
1601.000000	34.678529
1600.000000	34.577603
1599.000000	34.475955
1598.000000	34.378195
1597.000000	34.283506
1596.000000	34.187984
1595.000000	34.104480
1594.000000	34.028887
1593.000000	33.959541
1592.000000	33.878933
1591.000000	33.787502
1590.000000	33.705471
1589.000000	33.616546
1588.000000	33.534903
1587.000000	33.472207
1586.000000	33.398864
1585.000000	33.329107
1584.000000	33.255827
1583.000000	33.183273
1582.000000	33.119132
1581.000000	33.054226
1580.000000	32.976325
1579.000000	32.918344
1578.000000	32.876077
1577.000000	32.796365
1576.000000	32.712401
1575.000000	32.641710
1574.000000	32.560671
1573.000000	32.498884
1572.000000	32.467681
1571.000000	32.412433
1570.000000	32.344555
1569.000000	32.278364
1568.000000	32.219269
1567.000000	32.162575
1566.000000	32.108223
1565.000000	32.072911
1564.000000	32.027738
1563.000000	31.983874
1562.000000	31.951895
1561.000000	31.920066
1560.000000	31.894139
1559.000000	31.834616
1558.000000	31.800781
1557.000000	31.802019
1556.000000	31.755418
1555.000000	31.732526
1554.000000	31.692271
1553.000000	31.670673
1552.000000	31.617693
1551.000000	31.573034
1550.000000	31.534022
1549.000000	31.466676
1548.000000	31.405500
1547.000000	31.342101
1546.000000	31.264515
1545.000000	31.182217
1544.000000	31.072165
1543.000000	30.996456
1542.000000	30.896203
1541.000000	30.791604
1540.000000	30.653933
1539.000000	30.530640
1538.000000	30.404560
1537.000000	30.292678
1536.000000	30.162727
1535.000000	30.039875
1534.000000	29.914442
1533.000000	29.815177
1532.000000	29.694952
1531.000000	29.576255
1530.000000	29.461579
1529.000000	29.351390
1528.000000	29.227900
1527.000000	29.131786
1526.000000	29.031882
1525.000000	28.958623
1524.000000	28.861194
1523.000000	28.795288
1522.000000	28.702024
1521.000000	28.625200
1520.000000	28.557578
1519.000000	28.531529
1518.000000	28.465339
1517.000000	28.397674
1516.000000	28.328309
1515.000000	28.283837
1514.000000	28.265516
1513.000000	28.208298
1512.000000	28.166211
1511.000000	28.128553
1510.000000	28.106945
1509.000000	28.084427
1508.000000	28.050898
1507.000000	28.044222
1506.000000	28.012482
1505.000000	28.005944
1504.000000	27.971436
1503.000000	27.978356
1502.000000	27.972793
1501.000000	27.950529
1500.000000	27.964376
1499.000000	27.975521
1498.000000	28.002447
1497.000000	28.002033
1496.000000	28.014886
1495.000000	28.061914
1494.000000	28.088204
1493.000000	28.142379
1492.000000	28.171440
1491.000000	28.237986
1490.000000	28.308294
1489.000000	28.373849
1488.000000	28.444726
1487.000000	28.511763
1486.000000	28.585975
1485.000000	28.662550
1484.000000	28.754860
1483.000000	28.873372
1482.000000	28.936824
1481.000000	29.049721
1480.000000	29.149181
1479.000000	29.235478
1478.000000	29.327491
1477.000000	29.440297
1476.000000	29.518889
1475.000000	29.609856
1474.000000	29.703641
1473.000000	29.813740
1472.000000	29.901732
1471.000000	29.976195
1470.000000	30.056282
1469.000000	30.140139
1468.000000	30.229013
