PE UV       SUBTECH     SPECTRUM    ASCII       PEDS        4.00        
   -1
RDVeauAl 42.Sample.asc
18/03/05
10:12:01.00
18/03/05
10:12:01.00
Administrator

200.000000
1
Lambda 750
750N8071901
PerkinElmer UV WinLab 6.0.4.0738 / 1.61.00 Lambda 900

0
0
3350/servo 860.8/2
0
0
UV/VIS
1
1
1
CommonBeamDepol,150mm sphere / downward view
0
0
0
0
Program
Program
3350/servo 860.8/2
3350/0.2 860.8/0.2
3350/0.2 860.8/0.2
0
1
 
 
 
0
 
860.8
319.2
860.8
Front
100
on
 
 
0
0
0
 
0
 
 
 
0
 
 
0
0
0
0
0
 
 
 
 
0
0


0
0
#HDR
-1
-1
#GR
nm
%R
1.0
0.0
2350.000000
-1.000000
2151
8
62.253139
13.724451
#DATA
2350.000000	28.352508
2349.000000	28.425525
2348.000000	28.535571
2347.000000	29.096264
2346.000000	28.883496
2345.000000	28.449934
2344.000000	28.215418
2343.000000	28.370573
2342.000000	28.095913
2341.000000	28.690642
2340.000000	28.639770
2339.000000	28.978436
2338.000000	29.029960
2337.000000	29.272445
2336.000000	29.194350
2335.000000	29.108508
2334.000000	29.172608
2333.000000	29.550796
2332.000000	29.819075
2331.000000	29.254611
2330.000000	29.301791
2329.000000	29.263490
2328.000000	28.854231
2327.000000	28.800467
2326.000000	28.958449
2325.000000	28.884987
2324.000000	28.953041
2323.000000	28.839316
2322.000000	29.133865
2321.000000	28.867446
2320.000000	28.736803
2319.000000	28.931564
2318.000000	28.865072
2317.000000	28.881961
2316.000000	28.649827
2315.000000	28.749763
2314.000000	28.495133
2313.000000	28.506897
2312.000000	28.406685
2311.000000	28.157002
2310.000000	28.222479
2309.000000	28.132264
2308.000000	28.150620
2307.000000	28.205110
2306.000000	27.946628
2305.000000	27.721688
2304.000000	27.824519
2303.000000	28.015597
2302.000000	27.789800
2301.000000	27.478218
2300.000000	27.347887
2299.000000	27.375353
2298.000000	27.376037
2297.000000	27.171967
2296.000000	27.260412
2295.000000	27.285834
2294.000000	27.060339
2293.000000	26.993606
2292.000000	26.917566
2291.000000	26.879031
2290.000000	26.892460
2289.000000	26.736375
2288.000000	26.845587
2287.000000	26.896453
2286.000000	26.772040
2285.000000	26.603232
2284.000000	26.567240
2283.000000	26.422098
2282.000000	26.355591
2281.000000	26.491885
2280.000000	26.578511
2279.000000	26.533079
2278.000000	26.580297
2277.000000	26.773202
2276.000000	26.672180
2275.000000	26.714322
2274.000000	26.616603
2273.000000	26.758918
2272.000000	26.855950
2271.000000	26.806892
2270.000000	26.831794
2269.000000	27.010258
2268.000000	26.949829
2267.000000	26.887917
2266.000000	27.036314
2265.000000	27.203335
2264.000000	27.301524
2263.000000	27.329338
2262.000000	27.467380
2261.000000	27.660952
2260.000000	27.694557
2259.000000	27.905774
2258.000000	28.276175
2257.000000	28.417417
2256.000000	28.347812
2255.000000	28.471239
2254.000000	28.704083
2253.000000	28.932355
2252.000000	29.161504
2251.000000	29.265782
2250.000000	29.378184
2249.000000	29.637947
2248.000000	29.723181
2247.000000	29.910393
2246.000000	30.217995
2245.000000	30.360971
2244.000000	30.496991
2243.000000	30.797778
2242.000000	30.973616
2241.000000	31.027910
2240.000000	31.079755
2239.000000	31.131663
2238.000000	31.265585
2237.000000	31.542692
2236.000000	31.700603
2235.000000	31.645313
2234.000000	31.773705
2233.000000	31.778802
2232.000000	31.633875
2231.000000	31.800515
2230.000000	31.972147
2229.000000	32.007989
2228.000000	32.054988
2227.000000	31.979076
2226.000000	31.878464
2225.000000	31.966099
2224.000000	32.009920
2223.000000	31.896669
2222.000000	31.853231
2221.000000	31.998625
2220.000000	31.973292
2219.000000	31.847888
2218.000000	31.713326
2217.000000	31.860536
2216.000000	31.799391
2215.000000	31.675934
2214.000000	31.759408
2213.000000	31.666221
2212.000000	31.567751
2211.000000	31.503301
2210.000000	31.385995
2209.000000	31.305405
2208.000000	31.378010
2207.000000	31.384226
2206.000000	31.181321
2205.000000	31.083946
2204.000000	31.053356
2203.000000	31.027060
2202.000000	30.892726
2201.000000	30.911155
2200.000000	30.844414
2199.000000	30.815843
2198.000000	30.798949
2197.000000	30.525660
2196.000000	30.401521
2195.000000	30.447595
2194.000000	30.318929
2193.000000	30.271603
2192.000000	30.222664
2191.000000	30.234595
2190.000000	30.019563
2189.000000	30.062915
2188.000000	30.035095
2187.000000	29.927379
2186.000000	29.985576
2185.000000	29.883929
2184.000000	29.878495
2183.000000	29.953051
2182.000000	29.951856
2181.000000	29.741207
2180.000000	29.895519
2179.000000	29.895650
2178.000000	29.763495
2177.000000	29.638786
2176.000000	29.743675
2175.000000	29.792547
2174.000000	29.794061
2173.000000	29.798130
2172.000000	29.937381
2171.000000	30.015944
2170.000000	30.129073
2169.000000	30.215204
2168.000000	30.340108
2167.000000	30.426543
2166.000000	30.575885
2165.000000	30.434392
2164.000000	30.396860
2163.000000	30.569639
2162.000000	30.646982
2161.000000	30.891287
2160.000000	31.021746
2159.000000	31.055021
2158.000000	30.982440
2157.000000	31.135719
2156.000000	31.354151
2155.000000	31.562956
2154.000000	31.728447
2153.000000	32.050863
2152.000000	32.026352
2151.000000	32.052264
2150.000000	32.240042
2149.000000	32.508906
2148.000000	32.495003
2147.000000	32.724893
2146.000000	32.898645
2145.000000	33.038510
2144.000000	33.355455
2143.000000	33.072189
2142.000000	33.355062
2141.000000	33.477514
2140.000000	33.627018
2139.000000	33.690762
2138.000000	33.899579
2137.000000	34.108702
2136.000000	34.100715
2135.000000	34.162930
2134.000000	34.303456
2133.000000	34.298668
2132.000000	34.498016
2131.000000	34.624373
2130.000000	34.875796
2129.000000	34.725048
2128.000000	34.804275
2127.000000	34.745962
2126.000000	34.921068
2125.000000	34.878053
2124.000000	35.048293
2123.000000	35.053265
2122.000000	35.256386
2121.000000	35.107831
2120.000000	35.092772
2119.000000	35.282583
2118.000000	35.423531
2117.000000	35.292185
2116.000000	35.286982
2115.000000	35.440367
2114.000000	35.466921
2113.000000	35.409212
2112.000000	35.490364
2111.000000	35.425395
2110.000000	35.455079
2109.000000	35.587952
2108.000000	35.680719
2107.000000	35.599672
2106.000000	35.657748
2105.000000	35.607448
2104.000000	35.577793
2103.000000	35.731469
2102.000000	35.748863
2101.000000	35.633445
2100.000000	35.643344
2099.000000	35.721177
2098.000000	35.834856
2097.000000	35.808899
2096.000000	35.728698
2095.000000	35.682451
2094.000000	35.759433
2093.000000	35.713606
2092.000000	35.696227
2091.000000	35.674696
2090.000000	35.642981
2089.000000	35.707712
2088.000000	35.690006
2087.000000	35.615449
2086.000000	35.637534
2085.000000	35.596797
2084.000000	35.480818
2083.000000	35.534822
2082.000000	35.463912
2081.000000	35.370508
2080.000000	35.311339
2079.000000	35.291034
2078.000000	35.169199
2077.000000	35.140151
2076.000000	34.947002
2075.000000	34.847606
2074.000000	34.771874
2073.000000	34.627969
2072.000000	34.544083
2071.000000	34.520576
2070.000000	34.428646
2069.000000	34.240996
2068.000000	34.091109
2067.000000	33.969663
2066.000000	33.827934
2065.000000	33.663404
2064.000000	33.564779
2063.000000	33.400022
2062.000000	33.249772
2061.000000	33.072254
2060.000000	32.943105
2059.000000	32.885713
2058.000000	32.785545
2057.000000	32.541892
2056.000000	32.381675
2055.000000	32.235675
2054.000000	32.091454
2053.000000	31.934097
2052.000000	31.859494
2051.000000	31.815812
2050.000000	31.730444
2049.000000	31.556455
2048.000000	31.496719
2047.000000	31.447833
2046.000000	31.408195
2045.000000	31.314433
2044.000000	31.287319
2043.000000	31.326350
2042.000000	31.345173
2041.000000	31.370971
2040.000000	31.419556
2039.000000	31.414080
2038.000000	31.396660
2037.000000	31.452669
2036.000000	31.560569
2035.000000	31.683614
2034.000000	31.826163
2033.000000	31.936013
2032.000000	32.036001
2031.000000	32.158837
2030.000000	32.271769
2029.000000	32.399134
2028.000000	32.538297
2027.000000	32.714793
2026.000000	32.869326
2025.000000	32.936011
2024.000000	32.969166
2023.000000	33.091380
2022.000000	33.162976
2021.000000	33.225419
2020.000000	33.326739
2019.000000	33.368826
2018.000000	33.417643
2017.000000	33.482335
2016.000000	33.494755
2015.000000	33.519669
2014.000000	33.501324
2013.000000	33.499372
2012.000000	33.530608
2011.000000	33.490625
2010.000000	33.449895
2009.000000	33.438829
2008.000000	33.384492
2007.000000	33.272352
2006.000000	33.238174
2005.000000	33.195963
2004.000000	33.115865
2003.000000	33.062517
2002.000000	32.986663
2001.000000	32.875997
2000.000000	32.802181
1999.000000	32.773368
1998.000000	32.677143
1997.000000	32.601207
1996.000000	32.537196
1995.000000	32.414665
1994.000000	32.255110
1993.000000	32.191501
1992.000000	32.101998
1991.000000	32.031639
1990.000000	31.952609
1989.000000	31.869845
1988.000000	31.743411
1987.000000	31.617277
1986.000000	31.544169
1985.000000	31.454952
1984.000000	31.362502
1983.000000	31.300259
1982.000000	31.210895
1981.000000	31.173169
1980.000000	31.054532
1979.000000	30.912869
1978.000000	30.842767
1977.000000	30.794428
1976.000000	30.647602
1975.000000	30.615705
1974.000000	30.532008
1973.000000	30.481628
1972.000000	30.374090
1971.000000	30.215140
1970.000000	30.149406
1969.000000	30.115774
1968.000000	30.028946
1967.000000	29.944385
1966.000000	29.879551
1965.000000	29.795303
1964.000000	29.689879
1963.000000	29.613722
1962.000000	29.580858
1961.000000	29.455289
1960.000000	29.376949
1959.000000	29.323621
1958.000000	29.199339
1957.000000	29.111981
1956.000000	29.059150
1955.000000	29.013804
1954.000000	28.980741
1953.000000	28.868431
1952.000000	28.873643
1951.000000	28.840126
1950.000000	28.821770
1949.000000	28.775607
1948.000000	28.747875
1947.000000	28.761596
1946.000000	28.652521
1945.000000	28.652072
1944.000000	28.622357
1943.000000	28.656190
1942.000000	28.705688
1941.000000	28.719522
1940.000000	28.770698
1939.000000	28.779888
1938.000000	28.878382
1937.000000	28.974210
1936.000000	29.045620
1935.000000	29.169923
1934.000000	29.271000
1933.000000	29.417373
1932.000000	29.486387
1931.000000	29.667853
1930.000000	29.794409
1929.000000	29.940665
1928.000000	30.165758
1927.000000	30.393103
1926.000000	30.571883
1925.000000	30.814432
1924.000000	31.038550
1923.000000	31.246873
1922.000000	31.513186
1921.000000	31.785941
1920.000000	32.011562
1919.000000	32.213436
1918.000000	32.595914
1917.000000	32.926336
1916.000000	33.128883
1915.000000	33.588396
1914.000000	33.976412
1913.000000	34.264240
1912.000000	34.594739
1911.000000	34.827681
1910.000000	35.313932
1909.000000	35.706935
1908.000000	36.137162
1907.000000	36.483799
1906.000000	36.993990
1905.000000	37.421781
1904.000000	37.774337
1903.000000	38.253944
1902.000000	38.658513
1901.000000	39.105348
1900.000000	39.640145
1899.000000	40.088402
1898.000000	40.525665
1897.000000	41.043125
1896.000000	41.454414
1895.000000	41.929446
1894.000000	42.366691
1893.000000	42.767175
1892.000000	43.205851
1891.000000	43.536405
1890.000000	43.981164
1889.000000	44.463621
1888.000000	44.843021
1887.000000	45.145901
1886.000000	45.536207
1885.000000	45.906203
1884.000000	46.257625
1883.000000	46.535881
1882.000000	46.816358
1881.000000	47.115117
1880.000000	47.394063
1879.000000	47.677653
1878.000000	47.951256
1877.000000	48.249998
1876.000000	48.348559
1875.000000	48.634176
1874.000000	48.795879
1873.000000	49.008999
1872.000000	49.159356
1871.000000	49.395998
1870.000000	49.451504
1869.000000	49.639627
1868.000000	49.735322
1867.000000	49.851768
1866.000000	49.941764
1865.000000	49.974440
1864.000000	50.088174
1863.000000	50.126166
1862.000000	50.262182
1861.000000	50.274136
1860.000000	50.299933
1859.000000	50.371825
1858.000000	50.350158
1857.000000	50.385024
1856.000000	50.455898
1855.000000	50.516929
1854.000000	50.579476
1853.000000	50.528760
1852.000000	50.483272
1851.000000	50.502003
1850.000000	50.488134
1849.000000	50.501131
1848.000000	50.543794
1847.000000	50.544354
1846.000000	50.486602
1845.000000	50.460851
1844.000000	50.500843
1843.000000	50.468871
1842.000000	50.423246
1841.000000	50.409436
1840.000000	50.411737
1839.000000	50.375095
1838.000000	50.301477
1837.000000	50.282956
1836.000000	50.261820
1835.000000	50.205127
1834.000000	50.136842
1833.000000	50.103661
1832.000000	50.071604
1831.000000	50.014494
1830.000000	49.979883
1829.000000	49.950118
1828.000000	49.914006
1827.000000	49.867504
1826.000000	49.843783
1825.000000	49.816294
1824.000000	49.817374
1823.000000	49.754855
1822.000000	49.698458
1821.000000	49.671194
1820.000000	49.635691
1819.000000	49.602293
1818.000000	49.554414
1817.000000	49.527623
1816.000000	49.525534
1815.000000	49.519922
1814.000000	49.435331
1813.000000	49.375077
1812.000000	49.375823
1811.000000	49.370366
1810.000000	49.339892
1809.000000	49.292573
1808.000000	49.259045
1807.000000	49.244758
1806.000000	49.205842
1805.000000	49.149702
1804.000000	49.115931
1803.000000	49.090093
1802.000000	49.057403
1801.000000	49.045044
1800.000000	49.028604
1799.000000	49.011822
1798.000000	48.994995
1797.000000	48.959503
1796.000000	48.939287
1795.000000	48.909629
1794.000000	48.908881
1793.000000	48.877132
1792.000000	48.837542
1791.000000	48.814731
1790.000000	48.789370
1789.000000	48.773240
1788.000000	48.766529
1787.000000	48.748106
1786.000000	48.703297
1785.000000	48.678319
1784.000000	48.654932
1783.000000	48.620817
1782.000000	48.562243
1781.000000	48.541485
1780.000000	48.507125
1779.000000	48.476865
1778.000000	48.403849
1777.000000	48.327053
1776.000000	48.321942
1775.000000	48.260760
1774.000000	48.187235
1773.000000	48.139211
1772.000000	48.090714
1771.000000	48.006487
1770.000000	47.950178
1769.000000	47.899860
1768.000000	47.845927
1767.000000	47.803266
1766.000000	47.756719
1765.000000	47.695297
1764.000000	47.649530
1763.000000	47.587611
1762.000000	47.503440
1761.000000	47.470864
1760.000000	47.390718
1759.000000	47.335188
1758.000000	47.312598
1757.000000	47.242047
1756.000000	47.166872
1755.000000	47.116409
1754.000000	47.082175
1753.000000	47.013547
1752.000000	46.910590
1751.000000	46.896052
1750.000000	46.871742
1749.000000	46.806275
1748.000000	46.733258
1747.000000	46.642774
1746.000000	46.585815
1745.000000	46.541287
1744.000000	46.495722
1743.000000	46.403794
1742.000000	46.342060
1741.000000	46.317134
1740.000000	46.269071
1739.000000	46.225916
1738.000000	46.160391
1737.000000	46.121316
1736.000000	46.116610
1735.000000	46.087801
1734.000000	46.085107
1733.000000	46.056720
1732.000000	46.053811
1731.000000	46.082293
1730.000000	46.069329
1729.000000	46.100405
1728.000000	46.171010
1727.000000	46.227336
1726.000000	46.283607
1725.000000	46.347548
1724.000000	46.404647
1723.000000	46.505381
1722.000000	46.622302
1721.000000	46.683992
1720.000000	46.770059
1719.000000	46.896879
1718.000000	46.974094
1717.000000	47.092517
1716.000000	47.140088
1715.000000	47.256108
1714.000000	47.305988
1713.000000	47.377087
1712.000000	47.466157
1711.000000	47.537869
1710.000000	47.602862
1709.000000	47.633285
1708.000000	47.704072
1707.000000	47.761977
1706.000000	47.803446
1705.000000	47.790757
1704.000000	47.835968
1703.000000	47.846812
1702.000000	47.866568
1701.000000	47.905660
1700.000000	47.883474
1699.000000	47.919962
1698.000000	47.965891
1697.000000	48.022619
1696.000000	48.041520
1695.000000	48.065798
1694.000000	48.134580
1693.000000	48.141023
1692.000000	48.188370
1691.000000	48.280031
1690.000000	48.379856
1689.000000	48.435505
1688.000000	48.549179
1687.000000	48.660680
1686.000000	48.793508
1685.000000	48.932046
1684.000000	49.069978
1683.000000	49.224604
1682.000000	49.392647
1681.000000	49.576604
1680.000000	49.722781
1679.000000	49.917318
1678.000000	50.085871
1677.000000	50.230237
1676.000000	50.430432
1675.000000	50.599160
1674.000000	50.769829
1673.000000	50.932980
1672.000000	51.109268
1671.000000	51.271165
1670.000000	51.457658
1669.000000	51.613643
1668.000000	51.692522
1667.000000	51.822874
1666.000000	51.950158
1665.000000	52.051959
1664.000000	52.124538
1663.000000	52.209714
1662.000000	52.331054
1661.000000	52.407499
1660.000000	52.475967
1659.000000	52.514809
1658.000000	52.587096
1657.000000	52.631264
1656.000000	52.699845
1655.000000	52.735384
1654.000000	52.722587
1653.000000	52.783615
1652.000000	52.788611
1651.000000	52.776608
1650.000000	52.792774
1649.000000	52.797639
1648.000000	52.774114
1647.000000	52.766628
1646.000000	52.771230
1645.000000	52.752726
1644.000000	52.725065
1643.000000	52.717209
1642.000000	52.692982
1641.000000	52.681702
1640.000000	52.641847
1639.000000	52.626710
1638.000000	52.620686
1637.000000	52.593727
1636.000000	52.556716
1635.000000	52.505949
1634.000000	52.483163
1633.000000	52.449777
1632.000000	52.421354
1631.000000	52.365128
1630.000000	52.323393
1629.000000	52.294499
1628.000000	52.257642
1627.000000	52.197777
1626.000000	52.159501
1625.000000	52.127725
1624.000000	52.084065
1623.000000	52.043384
1622.000000	52.007195
1621.000000	51.937778
1620.000000	51.897420
1619.000000	51.847711
1618.000000	51.793490
1617.000000	51.733442
1616.000000	51.673018
1615.000000	51.628062
1614.000000	51.589410
1613.000000	51.532748
1612.000000	51.468340
1611.000000	51.406906
1610.000000	51.358159
1609.000000	51.316825
1608.000000	51.276396
1607.000000	51.234037
1606.000000	51.156606
1605.000000	51.076558
1604.000000	51.019673
1603.000000	50.959558
1602.000000	50.896336
1601.000000	50.843804
1600.000000	50.792467
1599.000000	50.737593
1598.000000	50.673943
1597.000000	50.614636
1596.000000	50.563213
1595.000000	50.504873
1594.000000	50.462474
1593.000000	50.419698
1592.000000	50.364082
1591.000000	50.315392
1590.000000	50.267361
1589.000000	50.216493
1588.000000	50.176107
1587.000000	50.136185
1586.000000	50.075066
1585.000000	50.022013
1584.000000	49.993051
1583.000000	49.951056
1582.000000	49.899593
1581.000000	49.851268
1580.000000	49.803899
1579.000000	49.769567
1578.000000	49.739034
1577.000000	49.699040
1576.000000	49.654979
1575.000000	49.615849
1574.000000	49.565504
1573.000000	49.517467
1572.000000	49.480325
1571.000000	49.441140
1570.000000	49.422161
1569.000000	49.377881
1568.000000	49.326703
1567.000000	49.283813
1566.000000	49.258443
1565.000000	49.249254
1564.000000	49.224664
1563.000000	49.208012
1562.000000	49.185476
1561.000000	49.158570
1560.000000	49.165482
1559.000000	49.121652
1558.000000	49.088186
1557.000000	49.084700
1556.000000	49.057855
1555.000000	49.043076
1554.000000	49.018568
1553.000000	49.014089
1552.000000	48.975777
1551.000000	48.916616
1550.000000	48.893522
1549.000000	48.878200
1548.000000	48.847569
1547.000000	48.786550
1546.000000	48.716724
1545.000000	48.652497
1544.000000	48.596083
1543.000000	48.536426
1542.000000	48.451087
1541.000000	48.382373
1540.000000	48.300497
1539.000000	48.206743
1538.000000	48.139877
1537.000000	48.055643
1536.000000	47.951637
1535.000000	47.866280
1534.000000	47.798187
1533.000000	47.711545
1532.000000	47.619120
1531.000000	47.538084
1530.000000	47.480325
1529.000000	47.391899
1528.000000	47.309521
1527.000000	47.225194
1526.000000	47.162926
1525.000000	47.126516
1524.000000	47.050508
1523.000000	46.976305
1522.000000	46.937685
1521.000000	46.897685
1520.000000	46.846926
1519.000000	46.816912
1518.000000	46.781535
1517.000000	46.711206
1516.000000	46.675850
1515.000000	46.648225
1514.000000	46.605694
1513.000000	46.588928
1512.000000	46.568512
1511.000000	46.527808
1510.000000	46.524757
1509.000000	46.524115
1508.000000	46.485624
1507.000000	46.456190
1506.000000	46.452890
1505.000000	46.462208
1504.000000	46.480228
1503.000000	46.462229
1502.000000	46.450320
1501.000000	46.444249
1500.000000	46.454415
1499.000000	46.470638
1498.000000	46.492162
1497.000000	46.509967
1496.000000	46.514343
1495.000000	46.570855
1494.000000	46.597393
1493.000000	46.618474
1492.000000	46.650763
1491.000000	46.698367
1490.000000	46.753904
1489.000000	46.804522
1488.000000	46.882696
1487.000000	46.927398
1486.000000	46.988377
1485.000000	47.046333
1484.000000	47.108744
1483.000000	47.196284
1482.000000	47.240777
1481.000000	47.335067
1480.000000	47.410497
1479.000000	47.489529
1478.000000	47.525699
1477.000000	47.615653
1476.000000	47.684695
1475.000000	47.767029
1474.000000	47.801861
1473.000000	47.879687
1472.000000	47.955286
1471.000000	48.005771
1470.000000	48.057187
