PE UV       SUBTECH     SPECTRUM    ASCII       PEDS        4.00        
   -1
RDVeauAl 22.Sample.asc
18/03/05
09:44:27.00
18/03/05
09:44:27.00
Administrator

200.000000
1
Lambda 750
750N8071901
PerkinElmer UV WinLab 6.0.4.0738 / 1.61.00 Lambda 900

0
0
3350/servo 860.8/2
0
0
UV/VIS
1
1
1
CommonBeamDepol,150mm sphere / downward view
0
0
0
0
Program
Program
3350/servo 860.8/2
3350/0.2 860.8/0.2
3350/0.2 860.8/0.2
0
1
 
 
 
0
 
860.8
319.2
860.8
Front
100
on
 
 
0
0
0
 
0
 
 
 
0
 
 
0
0
0
0
0
 
 
 
 
0
0


0
0
#HDR
-1
-1
#GR
nm
%R
1.0
0.0
2350.000000
-1.000000
2151
8
66.083916
15.712334
#DATA
2350.000000	29.991547
2349.000000	30.500057
2348.000000	30.170315
2347.000000	31.157377
2346.000000	30.324463
2345.000000	30.132826
2344.000000	30.283095
2343.000000	30.337078
2342.000000	30.339398
2341.000000	30.506029
2340.000000	30.627430
2339.000000	30.890767
2338.000000	30.766689
2337.000000	30.812403
2336.000000	30.921088
2335.000000	30.922139
2334.000000	30.734821
2333.000000	31.183263
2332.000000	31.252538
2331.000000	30.925849
2330.000000	30.937864
2329.000000	30.774617
2328.000000	30.811881
2327.000000	30.743428
2326.000000	30.766871
2325.000000	30.778762
2324.000000	30.791338
2323.000000	30.942148
2322.000000	30.870090
2321.000000	30.747610
2320.000000	30.471570
2319.000000	30.594110
2318.000000	30.434466
2317.000000	30.692132
2316.000000	30.394565
2315.000000	30.127824
2314.000000	30.200216
2313.000000	30.183714
2312.000000	30.107768
2311.000000	30.061096
2310.000000	29.944192
2309.000000	30.228992
2308.000000	29.759855
2307.000000	29.687714
2306.000000	29.833046
2305.000000	29.751742
2304.000000	29.700646
2303.000000	29.746282
2302.000000	29.659823
2301.000000	29.455020
2300.000000	29.488730
2299.000000	29.548355
2298.000000	29.368226
2297.000000	29.126992
2296.000000	29.095957
2295.000000	29.074845
2294.000000	28.924073
2293.000000	28.830921
2292.000000	28.548501
2291.000000	28.589483
2290.000000	28.548537
2289.000000	28.355032
2288.000000	28.488011
2287.000000	28.473279
2286.000000	28.328203
2285.000000	28.373840
2284.000000	28.363004
2283.000000	28.208230
2282.000000	28.226944
2281.000000	28.386399
2280.000000	28.359606
2279.000000	28.361104
2278.000000	28.451785
2277.000000	28.370014
2276.000000	28.219890
2275.000000	28.415196
2274.000000	28.530971
2273.000000	28.563916
2272.000000	28.630429
2271.000000	28.554001
2270.000000	28.509130
2269.000000	28.632774
2268.000000	28.562247
2267.000000	28.646320
2266.000000	28.777741
2265.000000	28.918038
2264.000000	28.934012
2263.000000	28.901174
2262.000000	29.087561
2261.000000	29.405867
2260.000000	29.561892
2259.000000	29.688589
2258.000000	29.920838
2257.000000	30.031851
2256.000000	30.055014
2255.000000	30.170121
2254.000000	30.589271
2253.000000	30.717122
2252.000000	30.756475
2251.000000	31.041386
2250.000000	31.205874
2249.000000	31.404360
2248.000000	31.538902
2247.000000	31.659499
2246.000000	31.881487
2245.000000	32.073413
2244.000000	32.290224
2243.000000	32.529968
2242.000000	32.676652
2241.000000	32.730149
2240.000000	32.805840
2239.000000	32.948854
2238.000000	33.054131
2237.000000	33.128259
2236.000000	33.160432
2235.000000	33.304076
2234.000000	33.437919
2233.000000	33.491121
2232.000000	33.489745
2231.000000	33.498959
2230.000000	33.500898
2229.000000	33.562895
2228.000000	33.748185
2227.000000	33.808585
2226.000000	33.721612
2225.000000	33.654552
2224.000000	33.683916
2223.000000	33.618214
2222.000000	33.583266
2221.000000	33.591982
2220.000000	33.638969
2219.000000	33.601162
2218.000000	33.515628
2217.000000	33.533479
2216.000000	33.380886
2215.000000	33.343557
2214.000000	33.486848
2213.000000	33.487966
2212.000000	33.358422
2211.000000	33.190186
2210.000000	33.260451
2209.000000	33.172427
2208.000000	33.025302
2207.000000	33.057554
2206.000000	32.950193
2205.000000	32.754274
2204.000000	32.807920
2203.000000	32.771225
2202.000000	32.643467
2201.000000	32.664923
2200.000000	32.609871
2199.000000	32.572465
2198.000000	32.418971
2197.000000	32.223739
2196.000000	32.059854
2195.000000	32.077663
2194.000000	32.044844
2193.000000	32.113541
2192.000000	32.049816
2191.000000	31.959529
2190.000000	31.905324
2189.000000	31.913164
2188.000000	31.689343
2187.000000	31.645814
2186.000000	31.748844
2185.000000	31.677268
2184.000000	31.696475
2183.000000	31.769801
2182.000000	31.716606
2181.000000	31.646231
2180.000000	31.555549
2179.000000	31.528166
2178.000000	31.447403
2177.000000	31.592416
2176.000000	31.550732
2175.000000	31.640806
2174.000000	31.509767
2173.000000	31.660172
2172.000000	31.900578
2171.000000	31.772358
2170.000000	31.818466
2169.000000	31.806169
2168.000000	31.958456
2167.000000	32.027567
2166.000000	32.158219
2165.000000	32.120413
2164.000000	32.232404
2163.000000	32.296813
2162.000000	32.582475
2161.000000	32.653076
2160.000000	32.835211
2159.000000	32.955235
2158.000000	32.832736
2157.000000	33.122304
2156.000000	33.265162
2155.000000	33.241040
2154.000000	33.543314
2153.000000	33.922028
2152.000000	33.656314
2151.000000	33.774647
2150.000000	34.119966
2149.000000	34.083317
2148.000000	34.369643
2147.000000	34.518532
2146.000000	34.553277
2145.000000	34.849580
2144.000000	35.081770
2143.000000	35.086344
2142.000000	35.127312
2141.000000	35.534989
2140.000000	35.292727
2139.000000	35.643201
2138.000000	35.938244
2137.000000	35.747993
2136.000000	35.904953
2135.000000	35.936036
2134.000000	36.073972
2133.000000	36.133323
2132.000000	36.252809
2131.000000	36.327829
2130.000000	36.594984
2129.000000	36.567072
2128.000000	36.397891
2127.000000	36.635870
2126.000000	36.567756
2125.000000	36.553391
2124.000000	36.829084
2123.000000	36.850434
2122.000000	36.922383
2121.000000	36.976700
2120.000000	36.954774
2119.000000	36.827424
2118.000000	37.074914
2117.000000	36.995155
2116.000000	37.060381
2115.000000	37.173206
2114.000000	37.256310
2113.000000	37.281920
2112.000000	37.333572
2111.000000	37.314500
2110.000000	37.219308
2109.000000	37.229946
2108.000000	37.267639
2107.000000	37.240534
2106.000000	37.365690
2105.000000	37.295554
2104.000000	37.348698
2103.000000	37.327397
2102.000000	37.356713
2101.000000	37.450578
2100.000000	37.471218
2099.000000	37.371991
2098.000000	37.370321
2097.000000	37.354679
2096.000000	37.370052
2095.000000	37.377455
2094.000000	37.411531
2093.000000	37.338796
2092.000000	37.418015
2091.000000	37.379829
2090.000000	37.345546
2089.000000	37.398986
2088.000000	37.309660
2087.000000	37.333410
2086.000000	37.368517
2085.000000	37.302004
2084.000000	37.145833
2083.000000	37.030930
2082.000000	37.052972
2081.000000	36.989228
2080.000000	36.897481
2079.000000	36.901639
2078.000000	36.791800
2077.000000	36.712895
2076.000000	36.657643
2075.000000	36.526692
2074.000000	36.437538
2073.000000	36.312311
2072.000000	36.247837
2071.000000	36.181186
2070.000000	36.032029
2069.000000	35.821116
2068.000000	35.700670
2067.000000	35.587112
2066.000000	35.502220
2065.000000	35.342717
2064.000000	35.223611
2063.000000	35.055603
2062.000000	34.934723
2061.000000	34.810982
2060.000000	34.665736
2059.000000	34.542832
2058.000000	34.363034
2057.000000	34.147818
2056.000000	34.080530
2055.000000	33.980295
2054.000000	33.733897
2053.000000	33.587442
2052.000000	33.529814
2051.000000	33.455294
2050.000000	33.394250
2049.000000	33.280932
2048.000000	33.142824
2047.000000	33.052169
2046.000000	33.017479
2045.000000	32.968939
2044.000000	32.972296
2043.000000	32.944762
2042.000000	32.899522
2041.000000	33.041540
2040.000000	33.099039
2039.000000	33.065117
2038.000000	33.076162
2037.000000	33.102063
2036.000000	33.198977
2035.000000	33.304815
2034.000000	33.417685
2033.000000	33.581512
2032.000000	33.713460
2031.000000	33.768532
2030.000000	33.876119
2029.000000	34.057734
2028.000000	34.199178
2027.000000	34.321180
2026.000000	34.424149
2025.000000	34.513064
2024.000000	34.590480
2023.000000	34.705022
2022.000000	34.806748
2021.000000	34.872745
2020.000000	34.998001
2019.000000	35.031193
2018.000000	35.011982
2017.000000	35.068004
2016.000000	35.090173
2015.000000	35.106602
2014.000000	35.172774
2013.000000	35.166652
2012.000000	35.107150
2011.000000	35.112922
2010.000000	35.113790
2009.000000	35.041966
2008.000000	34.967148
2007.000000	34.920157
2006.000000	34.848843
2005.000000	34.767767
2004.000000	34.669107
2003.000000	34.616158
2002.000000	34.571858
2001.000000	34.495034
2000.000000	34.411879
1999.000000	34.342794
1998.000000	34.244164
1997.000000	34.154129
1996.000000	34.063112
1995.000000	33.978266
1994.000000	33.862647
1993.000000	33.787547
1992.000000	33.701308
1991.000000	33.598751
1990.000000	33.544393
1989.000000	33.442934
1988.000000	33.357281
1987.000000	33.237796
1986.000000	33.157555
1985.000000	33.088727
1984.000000	32.968648
1983.000000	32.884282
1982.000000	32.803384
1981.000000	32.719637
1980.000000	32.630515
1979.000000	32.513760
1978.000000	32.448251
1977.000000	32.367028
1976.000000	32.298146
1975.000000	32.188823
1974.000000	32.084016
1973.000000	32.005415
1972.000000	31.947455
1971.000000	31.828762
1970.000000	31.765054
1969.000000	31.712231
1968.000000	31.658338
1967.000000	31.541124
1966.000000	31.459259
1965.000000	31.353516
1964.000000	31.279840
1963.000000	31.178780
1962.000000	31.101937
1961.000000	31.007603
1960.000000	30.977180
1959.000000	30.872033
1958.000000	30.772059
1957.000000	30.702137
1956.000000	30.635984
1955.000000	30.572527
1954.000000	30.566397
1953.000000	30.461311
1952.000000	30.419466
1951.000000	30.452429
1950.000000	30.374172
1949.000000	30.352348
1948.000000	30.229623
1947.000000	30.249560
1946.000000	30.280057
1945.000000	30.259112
1944.000000	30.267404
1943.000000	30.296706
1942.000000	30.358332
1941.000000	30.340058
1940.000000	30.345671
1939.000000	30.465797
1938.000000	30.501121
1937.000000	30.670476
1936.000000	30.736111
1935.000000	30.727857
1934.000000	30.860763
1933.000000	31.027232
1932.000000	31.055845
1931.000000	31.217898
1930.000000	31.362483
1929.000000	31.620644
1928.000000	31.721951
1927.000000	31.949415
1926.000000	32.236337
1925.000000	32.421724
1924.000000	32.612709
1923.000000	32.734356
1922.000000	33.058915
1921.000000	33.403516
1920.000000	33.638059
1919.000000	33.885228
1918.000000	34.139601
1917.000000	34.556892
1916.000000	34.739509
1915.000000	35.142686
1914.000000	35.577707
1913.000000	35.940681
1912.000000	36.226506
1911.000000	36.547883
1910.000000	37.012818
1909.000000	37.319438
1908.000000	37.771442
1907.000000	38.117833
1906.000000	38.581587
1905.000000	39.027669
1904.000000	39.459776
1903.000000	39.902914
1902.000000	40.360215
1901.000000	40.853334
1900.000000	41.283043
1899.000000	41.846300
1898.000000	42.279032
1897.000000	42.681292
1896.000000	43.126102
1895.000000	43.660998
1894.000000	44.086163
1893.000000	44.542678
1892.000000	44.928465
1891.000000	45.327328
1890.000000	45.828953
1889.000000	46.293421
1888.000000	46.642751
1887.000000	47.004061
1886.000000	47.411592
1885.000000	47.726603
1884.000000	48.109154
1883.000000	48.507590
1882.000000	48.819418
1881.000000	49.056231
1880.000000	49.390268
1879.000000	49.705541
1878.000000	49.941051
1877.000000	50.210401
1876.000000	50.409912
1875.000000	50.661980
1874.000000	50.845845
1873.000000	51.104334
1872.000000	51.281379
1871.000000	51.452085
1870.000000	51.557679
1869.000000	51.747519
1868.000000	51.882398
1867.000000	51.973512
1866.000000	51.994101
1865.000000	52.084128
1864.000000	52.203737
1863.000000	52.244357
1862.000000	52.358520
1861.000000	52.392475
1860.000000	52.436090
1859.000000	52.449668
1858.000000	52.494461
1857.000000	52.558695
1856.000000	52.589702
1855.000000	52.591226
1854.000000	52.655220
1853.000000	52.672560
1852.000000	52.683137
1851.000000	52.678446
1850.000000	52.704253
1849.000000	52.669154
1848.000000	52.693451
1847.000000	52.671852
1846.000000	52.646216
1845.000000	52.680713
1844.000000	52.643245
1843.000000	52.598713
1842.000000	52.577141
1841.000000	52.544657
1840.000000	52.495433
1839.000000	52.486000
1838.000000	52.431417
1837.000000	52.372381
1836.000000	52.368745
1835.000000	52.321964
1834.000000	52.255186
1833.000000	52.223706
1832.000000	52.165003
1831.000000	52.121304
1830.000000	52.112392
1829.000000	52.088132
1828.000000	52.039419
1827.000000	51.978622
1826.000000	51.921747
1825.000000	51.886095
1824.000000	51.850703
1823.000000	51.807867
1822.000000	51.783340
1821.000000	51.720298
1820.000000	51.674766
1819.000000	51.648804
1818.000000	51.642200
1817.000000	51.612514
1816.000000	51.560568
1815.000000	51.521710
1814.000000	51.466659
1813.000000	51.453318
1812.000000	51.421611
1811.000000	51.393375
1810.000000	51.367206
1809.000000	51.329294
1808.000000	51.297827
1807.000000	51.258094
1806.000000	51.214765
1805.000000	51.179495
1804.000000	51.162906
1803.000000	51.141977
1802.000000	51.085551
1801.000000	51.049684
1800.000000	51.041350
1799.000000	50.985234
1798.000000	50.955461
1797.000000	50.962833
1796.000000	50.944982
1795.000000	50.922754
1794.000000	50.892503
1793.000000	50.861483
1792.000000	50.833272
1791.000000	50.807413
1790.000000	50.787554
1789.000000	50.758074
1788.000000	50.715606
1787.000000	50.676269
1786.000000	50.652058
1785.000000	50.644414
1784.000000	50.614312
1783.000000	50.592573
1782.000000	50.566685
1781.000000	50.508680
1780.000000	50.451386
1779.000000	50.412751
1778.000000	50.374015
1777.000000	50.284164
1776.000000	50.242218
1775.000000	50.194411
1774.000000	50.150569
1773.000000	50.100738
1772.000000	50.022800
1771.000000	49.955366
1770.000000	49.877588
1769.000000	49.824261
1768.000000	49.762441
1767.000000	49.729134
1766.000000	49.674337
1765.000000	49.614495
1764.000000	49.579649
1763.000000	49.540763
1762.000000	49.445688
1761.000000	49.371270
1760.000000	49.300766
1759.000000	49.259134
1758.000000	49.178598
1757.000000	49.133548
1756.000000	49.103214
1755.000000	49.032371
1754.000000	48.971063
1753.000000	48.876419
1752.000000	48.845031
1751.000000	48.807369
1750.000000	48.718756
1749.000000	48.666604
1748.000000	48.612616
1747.000000	48.529062
1746.000000	48.463909
1745.000000	48.395067
1744.000000	48.305872
1743.000000	48.280685
1742.000000	48.199256
1741.000000	48.172935
1740.000000	48.118261
1739.000000	48.058298
1738.000000	48.011082
1737.000000	47.949404
1736.000000	47.948078
1735.000000	47.961210
1734.000000	47.920954
1733.000000	47.899557
1732.000000	47.904582
1731.000000	47.916584
1730.000000	47.952587
1729.000000	47.989804
1728.000000	48.053717
1727.000000	48.081706
1726.000000	48.177679
1725.000000	48.245970
1724.000000	48.309374
1723.000000	48.420760
1722.000000	48.513512
1721.000000	48.598403
1720.000000	48.712805
1719.000000	48.793206
1718.000000	48.874665
1717.000000	48.998041
1716.000000	49.102575
1715.000000	49.182127
1714.000000	49.230754
1713.000000	49.337318
1712.000000	49.415525
1711.000000	49.510883
1710.000000	49.536105
1709.000000	49.611021
1708.000000	49.682365
1707.000000	49.707431
1706.000000	49.748968
1705.000000	49.753378
1704.000000	49.787545
1703.000000	49.835065
1702.000000	49.805821
1701.000000	49.865915
1700.000000	49.881034
1699.000000	49.861439
1698.000000	49.920666
1697.000000	49.968015
1696.000000	49.984416
1695.000000	49.991524
1694.000000	50.050870
1693.000000	50.124311
1692.000000	50.166364
1691.000000	50.254164
1690.000000	50.362829
1689.000000	50.445650
1688.000000	50.527557
1687.000000	50.661515
1686.000000	50.824853
1685.000000	50.942008
1684.000000	51.094872
1683.000000	51.250103
1682.000000	51.442096
1681.000000	51.600154
1680.000000	51.791116
1679.000000	52.007065
1678.000000	52.167386
1677.000000	52.341736
1676.000000	52.558834
1675.000000	52.767769
1674.000000	52.918528
1673.000000	53.146040
1672.000000	53.324756
1671.000000	53.470638
1670.000000	53.637623
1669.000000	53.792632
1668.000000	53.930453
1667.000000	54.096851
1666.000000	54.191259
1665.000000	54.301843
1664.000000	54.415772
1663.000000	54.495926
1662.000000	54.580526
1661.000000	54.693894
1660.000000	54.745645
1659.000000	54.803239
1658.000000	54.880118
1657.000000	54.915023
1656.000000	54.988544
1655.000000	55.007396
1654.000000	55.036016
1653.000000	55.063696
1652.000000	55.074897
1651.000000	55.061323
1650.000000	55.086714
1649.000000	55.089342
1648.000000	55.088666
1647.000000	55.085189
1646.000000	55.057598
1645.000000	55.045194
1644.000000	55.037526
1643.000000	55.010933
1642.000000	54.986121
1641.000000	54.945777
1640.000000	54.928316
1639.000000	54.898884
1638.000000	54.881830
1637.000000	54.863117
1636.000000	54.817954
1635.000000	54.786584
1634.000000	54.750649
1633.000000	54.699089
1632.000000	54.664568
1631.000000	54.613365
1630.000000	54.571353
1629.000000	54.531212
1628.000000	54.489457
1627.000000	54.424366
1626.000000	54.394287
1625.000000	54.356964
1624.000000	54.298910
1623.000000	54.243116
1622.000000	54.185896
1621.000000	54.146209
1620.000000	54.112194
1619.000000	54.045850
1618.000000	53.985106
1617.000000	53.934705
1616.000000	53.861061
1615.000000	53.804154
1614.000000	53.761451
1613.000000	53.714502
1612.000000	53.640747
1611.000000	53.565267
1610.000000	53.512690
1609.000000	53.461651
1608.000000	53.399224
1607.000000	53.322572
1606.000000	53.263244
1605.000000	53.199438
1604.000000	53.108629
1603.000000	53.039362
1602.000000	52.994177
1601.000000	52.938855
1600.000000	52.871356
1599.000000	52.816670
1598.000000	52.750954
1597.000000	52.700383
1596.000000	52.637644
1595.000000	52.569807
1594.000000	52.522454
1593.000000	52.475632
1592.000000	52.420656
1591.000000	52.356968
1590.000000	52.308761
1589.000000	52.263638
1588.000000	52.203671
1587.000000	52.145333
1586.000000	52.090802
1585.000000	52.036171
1584.000000	52.005174
1583.000000	51.959628
1582.000000	51.895666
1581.000000	51.851773
1580.000000	51.808522
1579.000000	51.772772
1578.000000	51.734259
1577.000000	51.681706
1576.000000	51.643552
1575.000000	51.582397
1574.000000	51.530195
1573.000000	51.494969
1572.000000	51.459108
1571.000000	51.428163
1570.000000	51.375949
1569.000000	51.328272
1568.000000	51.295020
1567.000000	51.247292
1566.000000	51.216287
1565.000000	51.187148
1564.000000	51.157756
1563.000000	51.144828
1562.000000	51.110336
1561.000000	51.077419
1560.000000	51.057563
1559.000000	51.047009
1558.000000	51.026406
1557.000000	51.024324
1556.000000	51.007564
1555.000000	50.977920
1554.000000	50.966015
1553.000000	50.949295
1552.000000	50.895428
1551.000000	50.848142
1550.000000	50.820124
1549.000000	50.785422
1548.000000	50.751978
1547.000000	50.688134
1546.000000	50.640725
1545.000000	50.560116
1544.000000	50.487071
1543.000000	50.421735
1542.000000	50.353962
1541.000000	50.265497
1540.000000	50.174367
1539.000000	50.080163
1538.000000	50.007809
1537.000000	49.921816
1536.000000	49.818578
1535.000000	49.746586
1534.000000	49.662465
1533.000000	49.569308
1532.000000	49.470966
1531.000000	49.391557
1530.000000	49.306979
1529.000000	49.216916
1528.000000	49.123017
1527.000000	49.051673
1526.000000	48.977501
1525.000000	48.920744
1524.000000	48.840749
1523.000000	48.787033
1522.000000	48.719163
1521.000000	48.681188
1520.000000	48.636643
1519.000000	48.607760
1518.000000	48.563592
1517.000000	48.504494
1516.000000	48.481867
1515.000000	48.458899
1514.000000	48.397456
1513.000000	48.374615
1512.000000	48.355590
1511.000000	48.328839
1510.000000	48.310254
1509.000000	48.305694
1508.000000	48.277251
1507.000000	48.267886
1506.000000	48.251147
1505.000000	48.219667
1504.000000	48.236285
1503.000000	48.245925
1502.000000	48.230663
1501.000000	48.236454
1500.000000	48.247167
1499.000000	48.238159
1498.000000	48.261425
1497.000000	48.271139
1496.000000	48.299748
1495.000000	48.325752
1494.000000	48.369632
1493.000000	48.390761
1492.000000	48.412911
1491.000000	48.478354
1490.000000	48.536009
1489.000000	48.575156
1488.000000	48.655318
1487.000000	48.707468
1486.000000	48.766405
1485.000000	48.834738
1484.000000	48.891832
1483.000000	48.978443
1482.000000	49.056833
1481.000000	49.125851
1480.000000	49.215712
1479.000000	49.274228
1478.000000	49.353997
1477.000000	49.441575
1476.000000	49.494856
1475.000000	49.572263
1474.000000	49.626827
1473.000000	49.708221
1472.000000	49.783153
1471.000000	49.843361
1470.000000	49.914238
