PE UV       SUBTECH     SPECTRUM    ASCII       PEDS        4.00        
   -1
Empty chamber.Sample.asc
18/03/23
08:55:48.00
18/03/23
08:55:48.00
Administrator

200.000000
1
Lambda 750
750N8071901
PerkinElmer UV WinLab 6.0.4.0738 / 1.61.00 Lambda 900

0
0
3350/servo 860.8/2
0
0
UV/VIS
1
1
1
CommonBeamDepol,150mm sphere / downward view
0
0
0
0
Program
Program
3350/servo 860.8/2
3350/0.2 860.8/0.2
3350/0.2 860.8/0.2
0
1
 
 
 
0
 
860.8
319.2
860.8
Front
100
on
 
 
0
0
0
 
0
 
 
 
0
 
 
0
0
0
0
0
 
 
 
 
0
0


0
0
#HDR
-1
-1
#GR
nm
%T
1.0
0.0
2350.000000
-1.000000
2151
8
100.510383
99.382967
#DATA
2350.000000	99.755314
2349.000000	99.382967
2348.000000	100.193456
2347.000000	100.079442
2346.000000	100.043567
2345.000000	99.648489
2344.000000	100.279029
2343.000000	100.136454
2342.000000	100.147713
2341.000000	100.342472
2340.000000	100.085275
2339.000000	100.072769
2338.000000	100.106298
2337.000000	99.854655
2336.000000	100.022442
2335.000000	99.681191
2334.000000	99.954859
2333.000000	100.150794
2332.000000	100.132320
2331.000000	99.913086
2330.000000	99.804748
2329.000000	99.826659
2328.000000	100.006692
2327.000000	99.835278
2326.000000	100.128231
2325.000000	100.000000
2324.000000	100.115771
2323.000000	100.252960
2322.000000	99.850129
2321.000000	100.009523
2320.000000	100.143141
2319.000000	99.753413
2318.000000	99.892345
2317.000000	100.177314
2316.000000	99.717676
2315.000000	99.764180
2314.000000	100.139840
2313.000000	100.038770
2312.000000	100.105132
2311.000000	100.466479
2310.000000	100.167994
2309.000000	100.242688
2308.000000	100.170778
2307.000000	99.829444
2306.000000	99.895784
2305.000000	100.112443
2304.000000	99.848392
2303.000000	100.066141
2302.000000	100.248944
2301.000000	100.118954
2300.000000	100.232044
2299.000000	99.956605
2298.000000	99.695297
2297.000000	100.016124
2296.000000	99.943161
2295.000000	99.914162
2294.000000	100.144920
2293.000000	100.117407
2292.000000	100.128851
2291.000000	99.944418
2290.000000	99.946216
2289.000000	100.103261
2288.000000	100.127741
2287.000000	99.974953
2286.000000	100.071947
2285.000000	100.322018
2284.000000	100.147968
2283.000000	99.973412
2282.000000	99.890193
2281.000000	99.928615
2280.000000	99.856744
2279.000000	99.853692
2278.000000	99.906031
2277.000000	99.925759
2276.000000	99.864246
2275.000000	99.844931
2274.000000	99.920002
2273.000000	100.002130
2272.000000	100.183644
2271.000000	99.994114
2270.000000	99.974420
2269.000000	100.062207
2268.000000	100.125199
2267.000000	100.265333
2266.000000	100.213921
2265.000000	100.107871
2264.000000	100.079010
2263.000000	100.167629
2262.000000	100.076159
2261.000000	99.933450
2260.000000	99.989044
2259.000000	99.963188
2258.000000	99.919650
2257.000000	100.058111
2256.000000	100.049476
2255.000000	100.116469
2254.000000	99.995632
2253.000000	99.936154
2252.000000	100.048968
2251.000000	99.962325
2250.000000	100.034733
2249.000000	100.094782
2248.000000	100.050480
2247.000000	99.885601
2246.000000	99.797682
2245.000000	99.883733
2244.000000	99.933885
2243.000000	99.994927
2242.000000	100.028730
2241.000000	99.988836
2240.000000	100.041099
2239.000000	100.014111
2238.000000	99.990152
2237.000000	100.077765
2236.000000	99.957390
2235.000000	99.959525
2234.000000	100.100601
2233.000000	100.123878
2232.000000	99.972591
2231.000000	99.949611
2230.000000	99.978606
2229.000000	99.978690
2228.000000	100.011674
2227.000000	99.988835
2226.000000	99.979189
2225.000000	99.901878
2224.000000	99.920657
2223.000000	99.949860
2222.000000	99.892134
2221.000000	99.904085
2220.000000	99.957458
2219.000000	99.937472
2218.000000	99.923771
2217.000000	99.964590
2216.000000	99.863001
2215.000000	99.777113
2214.000000	99.745525
2213.000000	100.026798
2212.000000	100.030145
2211.000000	99.967423
2210.000000	100.006905
2209.000000	99.978272
2208.000000	99.909819
2207.000000	100.061930
2206.000000	99.902952
2205.000000	99.986210
2204.000000	100.165227
2203.000000	100.030115
2202.000000	100.009025
2201.000000	100.101550
2200.000000	99.991484
2199.000000	99.991991
2198.000000	100.157104
2197.000000	99.969784
2196.000000	100.052942
2195.000000	99.983580
2194.000000	99.876952
2193.000000	99.858637
2192.000000	99.939909
2191.000000	99.972222
2190.000000	99.913017
2189.000000	100.086636
2188.000000	100.076677
2187.000000	99.693428
2186.000000	100.049714
2185.000000	99.950083
2184.000000	100.125897
2183.000000	100.229226
2182.000000	99.985606
2181.000000	100.188379
2180.000000	100.146402
2179.000000	99.922245
2178.000000	100.019743
2177.000000	100.108997
2176.000000	99.918387
2175.000000	100.111841
2174.000000	99.943020
2173.000000	99.835962
2172.000000	99.940101
2171.000000	100.029151
2170.000000	99.712189
2169.000000	99.849329
2168.000000	100.232227
2167.000000	100.012340
2166.000000	99.942028
2165.000000	100.080754
2164.000000	100.049613
2163.000000	99.983228
2162.000000	99.961708
2161.000000	100.092752
2160.000000	100.089430
2159.000000	100.056325
2158.000000	99.905535
2157.000000	99.991211
2156.000000	100.090399
2155.000000	100.047125
2154.000000	99.932075
2153.000000	100.229799
2152.000000	99.976602
2151.000000	100.155015
2150.000000	99.911892
2149.000000	99.843339
2148.000000	99.743668
2147.000000	100.127757
2146.000000	100.070764
2145.000000	100.070691
2144.000000	99.867470
2143.000000	99.871493
2142.000000	99.841653
2141.000000	99.940669
2140.000000	99.853372
2139.000000	99.847800
2138.000000	100.263202
2137.000000	99.911428
2136.000000	99.885112
2135.000000	100.248526
2134.000000	99.801670
2133.000000	99.945181
2132.000000	99.877643
2131.000000	100.014451
2130.000000	100.057087
2129.000000	99.928951
2128.000000	99.898987
2127.000000	100.118398
2126.000000	99.804561
2125.000000	99.907112
2124.000000	100.039607
2123.000000	100.070993
2122.000000	100.054021
2121.000000	100.033077
2120.000000	99.939611
2119.000000	99.712168
2118.000000	99.836721
2117.000000	99.952631
2116.000000	100.092905
2115.000000	100.108176
2114.000000	99.892469
2113.000000	99.965832
2112.000000	100.153397
2111.000000	99.977143
2110.000000	99.865438
2109.000000	99.855130
2108.000000	99.978022
2107.000000	100.006480
2106.000000	99.940408
2105.000000	100.083105
2104.000000	99.976323
2103.000000	99.948707
2102.000000	99.949006
2101.000000	100.072297
2100.000000	99.938489
2099.000000	99.807523
2098.000000	99.929351
2097.000000	100.163737
2096.000000	99.946833
2095.000000	100.006075
2094.000000	99.937672
2093.000000	100.058363
2092.000000	99.998784
2091.000000	99.995545
2090.000000	99.992608
2089.000000	99.829384
2088.000000	99.904971
2087.000000	99.926851
2086.000000	99.988055
2085.000000	100.093750
2084.000000	99.965138
2083.000000	100.056862
2082.000000	100.016316
2081.000000	99.927334
2080.000000	100.085902
2079.000000	100.118181
2078.000000	100.063568
2077.000000	100.079033
2076.000000	100.111891
2075.000000	100.118792
2074.000000	99.987533
2073.000000	100.012668
2072.000000	99.955015
2071.000000	100.015305
2070.000000	100.033359
2069.000000	99.930662
2068.000000	99.999595
2067.000000	99.927439
2066.000000	99.956427
2065.000000	100.063490
2064.000000	100.050822
2063.000000	100.013896
2062.000000	100.020497
2061.000000	100.058646
2060.000000	100.029211
2059.000000	99.914047
2058.000000	99.992701
2057.000000	100.104387
2056.000000	100.037734
2055.000000	99.989450
2054.000000	99.964305
2053.000000	100.002231
2052.000000	100.024748
2051.000000	99.971808
2050.000000	99.959938
2049.000000	100.024865
2048.000000	100.004160
2047.000000	99.946235
2046.000000	99.993100
2045.000000	99.974331
2044.000000	99.994927
2043.000000	99.988743
2042.000000	99.946672
2041.000000	100.035317
2040.000000	99.995941
2039.000000	99.916932
2038.000000	100.014414
2037.000000	100.000000
2036.000000	99.962757
2035.000000	99.988329
2034.000000	99.993808
2033.000000	100.022852
2032.000000	100.033627
2031.000000	100.070387
2030.000000	100.011979
2029.000000	99.968225
2028.000000	99.991979
2027.000000	100.020114
2026.000000	100.016965
2025.000000	99.964965
2024.000000	99.966178
2023.000000	100.018289
2022.000000	99.977856
2021.000000	99.982023
2020.000000	100.041251
2019.000000	100.068380
2018.000000	100.030885
2017.000000	100.013511
2016.000000	99.995734
2015.000000	99.975623
2014.000000	100.003556
2013.000000	99.966684
2012.000000	99.957536
2011.000000	100.001321
2010.000000	99.965863
2009.000000	99.982420
2008.000000	100.001931
2007.000000	99.937111
2006.000000	99.984452
2005.000000	100.040052
2004.000000	100.027139
2003.000000	100.028670
2002.000000	100.030914
2001.000000	100.041598
2000.000000	99.976106
1999.000000	99.934130
1998.000000	99.972041
1997.000000	99.977023
1996.000000	99.955563
1995.000000	99.973349
1994.000000	100.007119
1993.000000	99.987085
1992.000000	100.003662
1991.000000	100.038669
1990.000000	100.040308
1989.000000	100.033492
1988.000000	99.983107
1987.000000	99.958184
1986.000000	99.975682
1985.000000	99.957274
1984.000000	99.990944
1983.000000	100.007122
1982.000000	100.014348
1981.000000	100.042437
1980.000000	99.991045
1979.000000	99.947809
1978.000000	100.037664
1977.000000	100.009160
1976.000000	99.982701
1975.000000	100.018523
1974.000000	100.027789
1973.000000	100.053047
1972.000000	100.048157
1971.000000	99.996439
1970.000000	99.990434
1969.000000	99.977414
1968.000000	100.018017
1967.000000	100.032467
1966.000000	100.023207
1965.000000	99.980568
1964.000000	99.936230
1963.000000	99.978738
1962.000000	99.960537
1961.000000	99.974366
1960.000000	99.990539
1959.000000	100.016279
1958.000000	99.982297
1957.000000	100.027780
1956.000000	99.976395
1955.000000	99.911533
1954.000000	99.958415
1953.000000	100.004983
1952.000000	99.957810
1951.000000	99.945002
1950.000000	99.964615
1949.000000	100.003966
1948.000000	99.988914
1947.000000	99.985261
1946.000000	99.997153
1945.000000	100.024709
1944.000000	99.980180
1943.000000	100.059479
1942.000000	100.047986
1941.000000	99.978358
1940.000000	99.979073
1939.000000	99.933078
1938.000000	99.998172
1937.000000	100.001422
1936.000000	100.062835
1935.000000	99.946951
1934.000000	99.994311
1933.000000	100.089146
1932.000000	99.977249
1931.000000	100.036870
1930.000000	100.023366
1929.000000	100.052549
1928.000000	99.986593
1927.000000	100.063199
1926.000000	100.049964
1925.000000	99.970149
1924.000000	99.965783
1923.000000	100.136131
1922.000000	100.057088
1921.000000	100.029148
1920.000000	100.082198
1919.000000	100.002131
1918.000000	99.935024
1917.000000	99.974506
1916.000000	99.955404
1915.000000	100.011573
1914.000000	99.968942
1913.000000	100.027021
1912.000000	99.984670
1911.000000	100.022853
1910.000000	100.119286
1909.000000	99.999492
1908.000000	100.045917
1907.000000	100.043881
1906.000000	99.946903
1905.000000	99.991776
1904.000000	100.087181
1903.000000	100.027944
1902.000000	99.943539
1901.000000	99.952358
1900.000000	100.004975
1899.000000	99.961622
1898.000000	100.030371
1897.000000	100.030993
1896.000000	100.000813
1895.000000	99.953266
1894.000000	99.917523
1893.000000	100.064418
1892.000000	100.034048
1891.000000	100.033543
1890.000000	100.002337
1889.000000	100.026522
1888.000000	99.998680
1887.000000	99.996445
1886.000000	99.950147
1885.000000	99.980003
1884.000000	100.046509
1883.000000	100.051784
1882.000000	99.992083
1881.000000	99.945122
1880.000000	100.033185
1879.000000	100.001928
1878.000000	100.056413
1877.000000	99.996349
1876.000000	99.958836
1875.000000	100.058628
1874.000000	100.009531
1873.000000	100.016124
1872.000000	100.007303
1871.000000	99.994119
1870.000000	99.961688
1869.000000	99.965237
1868.000000	100.026771
1867.000000	99.965623
1866.000000	99.990465
1865.000000	99.959236
1864.000000	99.974948
1863.000000	99.984177
1862.000000	99.966632
1861.000000	99.970277
1860.000000	99.982955
1859.000000	99.996448
1858.000000	99.971077
1857.000000	100.001015
1856.000000	99.997869
1855.000000	100.002233
1854.000000	99.995636
1853.000000	99.943195
1852.000000	99.970076
1851.000000	100.010652
1850.000000	99.990465
1849.000000	99.992492
1848.000000	100.038358
1847.000000	99.975143
1846.000000	99.967642
1845.000000	99.991071
1844.000000	100.022120
1843.000000	99.961052
1842.000000	99.967946
1841.000000	99.998884
1840.000000	99.949290
1839.000000	99.982549
1838.000000	99.999899
1837.000000	100.003958
1836.000000	99.985486
1835.000000	99.964267
1834.000000	100.000508
1833.000000	100.023968
1832.000000	100.020311
1831.000000	99.997867
1830.000000	100.002133
1829.000000	100.024988
1828.000000	99.985372
1827.000000	99.984454
1826.000000	99.986384
1825.000000	100.013516
1824.000000	100.025413
1823.000000	99.964225
1822.000000	99.965242
1821.000000	99.992477
1820.000000	99.978243
1819.000000	99.994916
1818.000000	100.035502
1817.000000	100.034791
1816.000000	99.999695
1815.000000	99.988709
1814.000000	99.994506
1813.000000	100.005189
1812.000000	100.003460
1811.000000	100.007632
1810.000000	100.001832
1809.000000	99.997965
1808.000000	99.976289
1807.000000	99.974049
1806.000000	99.998677
1805.000000	100.010688
1804.000000	99.998880
1803.000000	99.984020
1802.000000	99.969870
1801.000000	99.975570
1800.000000	99.992975
1799.000000	99.998473
1798.000000	99.973634
1797.000000	99.958672
1796.000000	99.977808
1795.000000	99.976891
1794.000000	100.007127
1793.000000	100.022812
1792.000000	100.019147
1791.000000	100.026787
1790.000000	100.001222
1789.000000	99.993889
1788.000000	100.026689
1787.000000	100.022614
1786.000000	100.009370
1785.000000	100.009777
1784.000000	100.028827
1783.000000	99.985640
1782.000000	99.966598
1781.000000	99.985539
1780.000000	100.001222
1779.000000	100.008249
1778.000000	100.002648
1777.000000	100.005702
1776.000000	99.984217
1775.000000	99.978108
1774.000000	100.012731
1773.000000	100.044722
1772.000000	100.009167
1771.000000	100.012323
1770.000000	100.001935
1769.000000	99.984825
1768.000000	100.014157
1767.000000	99.987578
1766.000000	100.005601
1765.000000	100.021595
1764.000000	100.011409
1763.000000	100.030457
1762.000000	100.029240
1761.000000	100.024753
1760.000000	99.998269
1759.000000	100.028520
1758.000000	100.015889
1757.000000	99.976175
1756.000000	99.981978
1755.000000	100.040033
1754.000000	100.002138
1753.000000	99.975773
1752.000000	99.973428
1751.000000	99.962945
1750.000000	99.982080
1749.000000	99.996640
1748.000000	100.005193
1747.000000	100.015279
1746.000000	100.002851
1745.000000	100.001935
1744.000000	100.005601
1743.000000	100.009268
1742.000000	100.022610
1741.000000	100.016193
1740.000000	100.016702
1739.000000	99.998880
1738.000000	100.013848
1737.000000	99.987071
1736.000000	99.981677
1735.000000	99.978011
1734.000000	99.992771
1733.000000	100.017313
1732.000000	100.002546
1731.000000	99.995826
1730.000000	100.004683
1729.000000	100.006211
1728.000000	99.968539
1727.000000	99.991956
1726.000000	99.992973
1725.000000	100.001527
1724.000000	99.964374
1723.000000	100.004582
1722.000000	99.974960
1721.000000	99.990736
1720.000000	100.001731
1719.000000	99.982896
1718.000000	99.974143
1717.000000	99.997149
1716.000000	100.057853
1715.000000	100.016084
1714.000000	100.006312
1713.000000	100.002240
1712.000000	99.995826
1711.000000	99.973023
1710.000000	99.958262
1709.000000	99.990636
1708.000000	100.011706
1707.000000	99.986155
1706.000000	100.020870
1705.000000	100.004886
1704.000000	99.945645
1703.000000	99.991347
1702.000000	99.972924
1701.000000	100.008044
1700.000000	100.027592
1699.000000	100.002443
1698.000000	100.018425
1697.000000	100.002545
1696.000000	100.018326
1695.000000	100.014555
1694.000000	100.005293
1693.000000	99.998168
1692.000000	99.991349
1691.000000	99.973739
1690.000000	100.031667
1689.000000	100.017207
1688.000000	100.011400
1687.000000	100.013743
1686.000000	100.005599
1685.000000	100.006718
1684.000000	99.954206
1683.000000	99.964788
1682.000000	99.984632
1681.000000	100.023008
1680.000000	100.004887
1679.000000	99.989108
1678.000000	100.011503
1677.000000	100.006107
1676.000000	99.980459
1675.000000	99.983614
1674.000000	99.983105
1673.000000	99.980867
1672.000000	99.999287
1671.000000	99.986261
1670.000000	99.984022
1669.000000	99.997151
1668.000000	99.988197
1667.000000	99.991759
1666.000000	99.986469
1665.000000	99.967954
1664.000000	99.962361
1663.000000	99.979855
1662.000000	99.968462
1661.000000	99.986163
1660.000000	99.984741
1659.000000	100.001628
1658.000000	100.002849
1657.000000	99.974974
1656.000000	99.993083
1655.000000	99.999797
1654.000000	99.986673
1653.000000	99.996541
1652.000000	99.981892
1651.000000	99.992268
1650.000000	99.978433
1649.000000	99.993896
1648.000000	100.008038
1647.000000	100.003357
1646.000000	99.989826
1645.000000	99.996236
1644.000000	100.007122
1643.000000	99.993285
1642.000000	99.988300
1641.000000	100.005189
1640.000000	100.003968
1639.000000	99.980569
1638.000000	99.989523
1637.000000	100.010682
1636.000000	100.002645
1635.000000	100.000407
1634.000000	100.007631
1633.000000	99.995117
1632.000000	100.013735
1631.000000	99.983724
1630.000000	99.988809
1629.000000	100.009767
1628.000000	100.007427
1627.000000	99.997762
1626.000000	99.990032
1625.000000	100.003663
1624.000000	100.027677
1623.000000	100.006511
1622.000000	99.978233
1621.000000	100.004679
1620.000000	100.024215
1619.000000	100.006206
1618.000000	100.006003
1617.000000	100.014143
1616.000000	100.009970
1615.000000	100.003357
1614.000000	99.993897
1613.000000	99.999390
1612.000000	99.992879
1611.000000	99.977624
1610.000000	99.973555
1609.000000	99.996745
1608.000000	100.008241
1607.000000	100.004070
1606.000000	100.002645
1605.000000	100.000712
1604.000000	99.994710
1603.000000	100.000305
1602.000000	100.012718
1601.000000	99.996643
1600.000000	99.980365
1599.000000	99.993184
1598.000000	100.003663
1597.000000	100.007325
1596.000000	100.002848
1595.000000	99.995829
1594.000000	99.991354
1593.000000	99.996745
1592.000000	100.001119
1591.000000	100.000102
1590.000000	99.998677
1589.000000	99.993998
1588.000000	100.006003
1587.000000	100.021569
1586.000000	100.010581
1585.000000	99.992981
1584.000000	99.994202
1583.000000	100.011495
1582.000000	100.006713
1581.000000	99.989727
1580.000000	99.994405
1579.000000	99.997355
1578.000000	99.985455
1577.000000	99.980167
1576.000000	99.994202
1575.000000	99.991659
1574.000000	99.992575
1573.000000	100.002950
1572.000000	99.982812
1571.000000	99.978132
1570.000000	99.993389
1569.000000	99.997254
1568.000000	99.997661
1567.000000	100.004272
1566.000000	99.995525
1565.000000	99.999288
1564.000000	100.014647
1563.000000	100.021260
1562.000000	100.011900
1561.000000	100.003356
1560.000000	99.983424
1559.000000	99.987898
1558.000000	100.010476
1557.000000	99.998779
1556.000000	99.987185
1555.000000	99.986475
1554.000000	100.007831
1553.000000	100.014747
1552.000000	100.014644
1551.000000	99.984138
1550.000000	99.985054
1549.000000	100.009457
1548.000000	99.986578
1547.000000	99.990950
1546.000000	99.991764
1545.000000	99.997051
1544.000000	99.996441
1543.000000	100.009049
1542.000000	100.014645
1541.000000	100.002136
1540.000000	99.999492
1539.000000	100.005898
1538.000000	99.986479
1537.000000	99.997763
1536.000000	100.001932
1535.000000	100.005592
1534.000000	99.996645
1533.000000	100.005695
1532.000000	99.991051
1531.000000	99.986169
1530.000000	100.001729
1529.000000	99.994813
1528.000000	100.006509
1527.000000	99.983017
1526.000000	99.988304
1525.000000	99.964818
1524.000000	99.975798
1523.000000	99.974884
1522.000000	99.986577
1521.000000	99.989526
1520.000000	100.023193
1519.000000	100.001424
1518.000000	100.023703
1517.000000	99.995525
1516.000000	99.986269
1515.000000	99.980270
1514.000000	100.004882
1513.000000	100.006917
1512.000000	100.034898
1511.000000	100.012818
1510.000000	100.000407
1509.000000	100.017193
1508.000000	100.001221
1507.000000	100.016686
1506.000000	100.011292
1505.000000	99.999288
1504.000000	99.998169
1503.000000	100.009869
1502.000000	99.992369
1501.000000	99.988606
1500.000000	100.012717
1499.000000	100.003154
1498.000000	99.994813
1497.000000	100.009258
1496.000000	99.987895
1495.000000	99.995727
1494.000000	99.996541
1493.000000	100.010682
1492.000000	99.999186
1491.000000	99.990337
1490.000000	99.978846
1489.000000	100.014343
1488.000000	99.991049
