PE UV       SUBTECH     SPECTRUM    ASCII       PEDS        4.00        
   -1
RDms499172.Sample.asc
18/03/23
10:40:24.00
18/03/23
10:40:24.00
Administrator

200.000000
1
Lambda 750
750N8071901
PerkinElmer UV WinLab 6.0.4.0738 / 1.61.00 Lambda 900

0
0
3350/servo 860.8/2
0
0
UV/VIS
1
1
1
CommonBeamDepol,150mm sphere / downward view
0
0
0
0
Program
Program
3350/servo 860.8/2
3350/0.2 860.8/0.2
3350/0.2 860.8/0.2
0
1
 
 
 
0
 
860.8
319.2
860.8
Front
100
on
 
 
0
0
0
 
0
 
 
 
0
 
 
0
0
0
0
0
 
 
 
 
0
0


0
0
#HDR
-1
-1
#GR
nm
%R
1.0
0.0
2350.000000
-1.000000
2151
8
55.946739
7.078209
#DATA
2350.000000	31.990100
2349.000000	31.838412
2348.000000	31.952048
2347.000000	32.797023
2346.000000	32.160498
2345.000000	31.903599
2344.000000	32.033394
2343.000000	31.708689
2342.000000	32.334412
2341.000000	32.319915
2340.000000	31.924536
2339.000000	32.272711
2338.000000	32.560506
2337.000000	32.309544
2336.000000	32.572217
2335.000000	32.852002
2334.000000	32.870249
2333.000000	32.702414
2332.000000	32.679933
2331.000000	32.855004
2330.000000	32.650745
2329.000000	32.519477
2328.000000	32.484096
2327.000000	32.331896
2326.000000	32.423158
2325.000000	32.604503
2324.000000	32.625540
2323.000000	32.726352
2322.000000	32.510005
2321.000000	32.269738
2320.000000	32.576174
2319.000000	32.205576
2318.000000	32.225523
2317.000000	32.199270
2316.000000	32.294765
2315.000000	31.674373
2314.000000	31.968261
2313.000000	31.725680
2312.000000	31.604016
2311.000000	31.606437
2310.000000	31.525736
2309.000000	31.872225
2308.000000	31.796369
2307.000000	31.404116
2306.000000	31.610214
2305.000000	31.686438
2304.000000	31.578174
2303.000000	31.643012
2302.000000	31.528698
2301.000000	31.362307
2300.000000	31.149732
2299.000000	31.249480
2298.000000	31.159250
2297.000000	31.244518
2296.000000	31.152696
2295.000000	31.147180
2294.000000	31.135065
2293.000000	30.946592
2292.000000	31.008462
2291.000000	30.795243
2290.000000	30.852436
2289.000000	30.885335
2288.000000	30.641678
2287.000000	30.745354
2286.000000	30.705105
2285.000000	30.752175
2284.000000	30.656135
2283.000000	30.647417
2282.000000	30.651110
2281.000000	30.531760
2280.000000	30.727563
2279.000000	30.772680
2278.000000	30.797146
2277.000000	30.861142
2276.000000	30.828190
2275.000000	30.862523
2274.000000	31.045423
2273.000000	31.120503
2272.000000	31.195532
2271.000000	31.041359
2270.000000	31.018808
2269.000000	31.257058
2268.000000	31.462130
2267.000000	31.567934
2266.000000	31.713184
2265.000000	31.855196
2264.000000	31.838922
2263.000000	31.877600
2262.000000	32.014570
2261.000000	32.188313
2260.000000	32.360815
2259.000000	32.559847
2258.000000	32.685495
2257.000000	32.959436
2256.000000	33.044539
2255.000000	33.213138
2254.000000	33.455263
2253.000000	33.665792
2252.000000	33.831515
2251.000000	33.955426
2250.000000	34.088820
2249.000000	34.372070
2248.000000	34.466753
2247.000000	34.553930
2246.000000	34.881530
2245.000000	35.049163
2244.000000	35.201149
2243.000000	35.301679
2242.000000	35.378915
2241.000000	35.578726
2240.000000	35.786640
2239.000000	35.879930
2238.000000	35.902007
2237.000000	35.983700
2236.000000	36.037631
2235.000000	36.234879
2234.000000	36.306161
2233.000000	36.415519
2232.000000	36.588654
2231.000000	36.604068
2230.000000	36.574618
2229.000000	36.515943
2228.000000	36.604877
2227.000000	36.674452
2226.000000	36.623467
2225.000000	36.581668
2224.000000	36.670282
2223.000000	36.725387
2222.000000	36.687973
2221.000000	36.574446
2220.000000	36.686452
2219.000000	36.671157
2218.000000	36.518096
2217.000000	36.451631
2216.000000	36.425494
2215.000000	36.320089
2214.000000	36.407270
2213.000000	36.466343
2212.000000	36.374552
2211.000000	36.269355
2210.000000	36.360147
2209.000000	36.291197
2208.000000	36.103421
2207.000000	36.071798
2206.000000	35.988111
2205.000000	35.931332
2204.000000	36.027001
2203.000000	35.776413
2202.000000	35.694200
2201.000000	35.772467
2200.000000	35.706190
2199.000000	35.649653
2198.000000	35.626004
2197.000000	35.449004
2196.000000	35.370434
2195.000000	35.289634
2194.000000	35.261227
2193.000000	35.078094
2192.000000	35.132835
2191.000000	35.305836
2190.000000	35.201201
2189.000000	35.157146
2188.000000	35.136229
2187.000000	34.748360
2186.000000	34.701323
2185.000000	34.827679
2184.000000	34.991622
2183.000000	34.964344
2182.000000	34.805001
2181.000000	34.817774
2180.000000	34.810093
2179.000000	34.648663
2178.000000	34.731474
2177.000000	34.684379
2176.000000	34.572870
2175.000000	34.705321
2174.000000	34.862858
2173.000000	34.709579
2172.000000	34.907086
2171.000000	35.020724
2170.000000	34.975498
2169.000000	35.006837
2168.000000	35.192227
2167.000000	35.175773
2166.000000	35.120361
2165.000000	35.250711
2164.000000	35.355869
2163.000000	35.251860
2162.000000	35.482864
2161.000000	35.546034
2160.000000	35.739686
2159.000000	35.869993
2158.000000	35.809666
2157.000000	36.057621
2156.000000	36.040632
2155.000000	36.177339
2154.000000	36.408935
2153.000000	36.630116
2152.000000	36.507932
2151.000000	36.778810
2150.000000	36.713032
2149.000000	36.938717
2148.000000	37.009742
2147.000000	37.146282
2146.000000	37.307837
2145.000000	37.511112
2144.000000	37.440667
2143.000000	37.465488
2142.000000	37.451532
2141.000000	37.640456
2140.000000	37.608003
2139.000000	37.874628
2138.000000	38.044350
2137.000000	38.178987
2136.000000	38.246883
2135.000000	38.254032
2134.000000	38.376377
2133.000000	38.273462
2132.000000	38.451692
2131.000000	38.615123
2130.000000	38.591820
2129.000000	38.558035
2128.000000	38.494273
2127.000000	38.674187
2126.000000	38.757979
2125.000000	38.752985
2124.000000	38.775725
2123.000000	38.687820
2122.000000	38.806357
2121.000000	38.889631
2120.000000	38.788925
2119.000000	38.760717
2118.000000	38.792787
2117.000000	38.868201
2116.000000	39.193771
2115.000000	39.179114
2114.000000	38.883493
2113.000000	38.937170
2112.000000	38.938227
2111.000000	38.993536
2110.000000	38.958134
2109.000000	38.935223
2108.000000	39.086315
2107.000000	39.005816
2106.000000	39.008106
2105.000000	39.041608
2104.000000	39.104483
2103.000000	39.073147
2102.000000	39.197649
2101.000000	39.174926
2100.000000	39.206373
2099.000000	39.116426
2098.000000	39.052533
2097.000000	39.095355
2096.000000	39.147440
2095.000000	39.044004
2094.000000	39.058824
2093.000000	39.157506
2092.000000	39.203513
2091.000000	39.248922
2090.000000	39.137540
2089.000000	39.168577
2088.000000	39.036841
2087.000000	38.936492
2086.000000	38.988372
2085.000000	39.042334
2084.000000	38.958433
2083.000000	38.871793
2082.000000	38.827624
2081.000000	38.846064
2080.000000	38.759883
2079.000000	38.823222
2078.000000	38.703869
2077.000000	38.695945
2076.000000	38.575185
2075.000000	38.474086
2074.000000	38.354197
2073.000000	38.361393
2072.000000	38.250807
2071.000000	38.139750
2070.000000	38.076615
2069.000000	37.923012
2068.000000	37.732438
2067.000000	37.606650
2066.000000	37.558558
2065.000000	37.560904
2064.000000	37.459892
2063.000000	37.359206
2062.000000	37.312610
2061.000000	37.181289
2060.000000	36.992946
2059.000000	36.862687
2058.000000	36.719177
2057.000000	36.651048
2056.000000	36.595391
2055.000000	36.442759
2054.000000	36.308923
2053.000000	36.218132
2052.000000	36.176603
2051.000000	36.071138
2050.000000	35.965529
2049.000000	35.848614
2048.000000	35.775863
2047.000000	35.746574
2046.000000	35.695602
2045.000000	35.650351
2044.000000	35.693856
2043.000000	35.708795
2042.000000	35.674123
2041.000000	35.713648
2040.000000	35.666456
2039.000000	35.667825
2038.000000	35.802256
2037.000000	35.850060
2036.000000	35.889229
2035.000000	35.914635
2034.000000	35.960232
2033.000000	36.060289
2032.000000	36.214241
2031.000000	36.258670
2030.000000	36.304766
2029.000000	36.470635
2028.000000	36.533578
2027.000000	36.603884
2026.000000	36.683964
2025.000000	36.733815
2024.000000	36.776123
2023.000000	36.859902
2022.000000	36.913621
2021.000000	36.913531
2020.000000	36.915505
2019.000000	36.888774
2018.000000	36.895721
2017.000000	36.924901
2016.000000	36.914224
2015.000000	36.902529
2014.000000	36.876415
2013.000000	36.844340
2012.000000	36.829284
2011.000000	36.801353
2010.000000	36.693509
2009.000000	36.593976
2008.000000	36.521589
2007.000000	36.429971
2006.000000	36.334471
2005.000000	36.287173
2004.000000	36.197584
2003.000000	36.115983
2002.000000	36.047778
2001.000000	35.948341
2000.000000	35.828207
1999.000000	35.744977
1998.000000	35.648433
1997.000000	35.533328
1996.000000	35.441950
1995.000000	35.362200
1994.000000	35.230852
1993.000000	35.095665
1992.000000	35.020087
1991.000000	34.910604
1990.000000	34.812330
1989.000000	34.689980
1988.000000	34.606699
1987.000000	34.503289
1986.000000	34.400799
1985.000000	34.263674
1984.000000	34.174031
1983.000000	34.092012
1982.000000	34.025044
1981.000000	33.919276
1980.000000	33.805354
1979.000000	33.668351
1978.000000	33.598269
1977.000000	33.468256
1976.000000	33.327228
1975.000000	33.265892
1974.000000	33.174638
1973.000000	33.076378
1972.000000	32.939798
1971.000000	32.849959
1970.000000	32.796938
1969.000000	32.687033
1968.000000	32.594890
1967.000000	32.519613
1966.000000	32.414502
1965.000000	32.282537
1964.000000	32.201375
1963.000000	32.129839
1962.000000	31.985073
1961.000000	31.897820
1960.000000	31.850682
1959.000000	31.765812
1958.000000	31.672498
1957.000000	31.607199
1956.000000	31.488656
1955.000000	31.425256
1954.000000	31.386072
1953.000000	31.282306
1952.000000	31.262441
1951.000000	31.254765
1950.000000	31.198917
1949.000000	31.092711
1948.000000	31.070328
1947.000000	31.004997
1946.000000	31.052756
1945.000000	31.081959
1944.000000	31.047202
1943.000000	31.027558
1942.000000	31.045403
1941.000000	31.090260
1940.000000	31.152472
1939.000000	31.154067
1938.000000	31.211238
1937.000000	31.292719
1936.000000	31.384140
1935.000000	31.401760
1934.000000	31.511757
1933.000000	31.595414
1932.000000	31.659339
1931.000000	31.865172
1930.000000	32.017985
1929.000000	32.213247
1928.000000	32.296100
1927.000000	32.432018
1926.000000	32.645281
1925.000000	32.816225
1924.000000	33.132938
1923.000000	33.280100
1922.000000	33.570964
1921.000000	33.836641
1920.000000	34.030510
1919.000000	34.260410
1918.000000	34.576610
1917.000000	34.936854
1916.000000	35.155556
1915.000000	35.472488
1914.000000	35.828181
1913.000000	36.183801
1912.000000	36.464791
1911.000000	36.841972
1910.000000	37.262062
1909.000000	37.612211
1908.000000	37.968327
1907.000000	38.444739
1906.000000	38.682878
1905.000000	39.117778
1904.000000	39.677390
1903.000000	40.066983
1902.000000	40.454981
1901.000000	40.909493
1900.000000	41.343030
1899.000000	41.769396
1898.000000	42.210378
1897.000000	42.643489
1896.000000	43.040315
1895.000000	43.377429
1894.000000	43.845097
1893.000000	44.241424
1892.000000	44.546859
1891.000000	44.985216
1890.000000	45.374816
1889.000000	45.679562
1888.000000	45.916669
1887.000000	46.304429
1886.000000	46.686121
1885.000000	46.991953
1884.000000	47.259397
1883.000000	47.551375
1882.000000	47.778511
1881.000000	47.968562
1880.000000	48.218958
1879.000000	48.471471
1878.000000	48.718074
1877.000000	48.908459
1876.000000	49.060524
1875.000000	49.311379
1874.000000	49.476290
1873.000000	49.591159
1872.000000	49.742833
1871.000000	49.810886
1870.000000	49.932650
1869.000000	50.039881
1868.000000	50.088982
1867.000000	50.158397
1866.000000	50.274945
1865.000000	50.275966
1864.000000	50.372989
1863.000000	50.382502
1862.000000	50.454124
1861.000000	50.505283
1860.000000	50.585722
1859.000000	50.592408
1858.000000	50.637990
1857.000000	50.681775
1856.000000	50.686611
1855.000000	50.722470
1854.000000	50.779686
1853.000000	50.752762
1852.000000	50.803827
1851.000000	50.811848
1850.000000	50.789463
1849.000000	50.794545
1848.000000	50.846099
1847.000000	50.843759
1846.000000	50.787555
1845.000000	50.780086
1844.000000	50.769120
1843.000000	50.761827
1842.000000	50.781831
1841.000000	50.737501
1840.000000	50.659236
1839.000000	50.679838
1838.000000	50.656097
1837.000000	50.587238
1836.000000	50.567566
1835.000000	50.495901
1834.000000	50.462995
1833.000000	50.501753
1832.000000	50.463747
1831.000000	50.408490
1830.000000	50.375906
1829.000000	50.372034
1828.000000	50.314752
1827.000000	50.306191
1826.000000	50.301074
1825.000000	50.292121
1824.000000	50.252453
1823.000000	50.192900
1822.000000	50.154024
1821.000000	50.126927
1820.000000	50.080775
1819.000000	50.085466
1818.000000	50.099537
1817.000000	50.074719
1816.000000	50.044041
1815.000000	50.026294
1814.000000	50.021874
1813.000000	49.999898
1812.000000	49.956551
1811.000000	49.931618
1810.000000	49.914218
1809.000000	49.885211
1808.000000	49.846541
1807.000000	49.822773
1806.000000	49.790039
1805.000000	49.796513
1804.000000	49.754450
1803.000000	49.738618
1802.000000	49.755400
1801.000000	49.720935
1800.000000	49.696873
1799.000000	49.681025
1798.000000	49.661675
1797.000000	49.635430
1796.000000	49.632618
1795.000000	49.648025
1794.000000	49.630758
1793.000000	49.595093
1792.000000	49.586402
1791.000000	49.593668
1790.000000	49.604581
1789.000000	49.592221
1788.000000	49.579960
1787.000000	49.560498
1786.000000	49.529852
1785.000000	49.507816
1784.000000	49.516816
1783.000000	49.496013
1782.000000	49.477382
1781.000000	49.458774
1780.000000	49.425780
1779.000000	49.413134
1778.000000	49.385568
1777.000000	49.337267
1776.000000	49.296477
1775.000000	49.280319
1774.000000	49.246289
1773.000000	49.223381
1772.000000	49.158324
1771.000000	49.100552
1770.000000	49.092553
1769.000000	49.086258
1768.000000	49.051069
1767.000000	49.001392
1766.000000	48.968912
1765.000000	48.925403
1764.000000	48.934614
1763.000000	48.885779
1762.000000	48.866418
1761.000000	48.812990
1760.000000	48.766002
1759.000000	48.746537
1758.000000	48.722757
1757.000000	48.701992
1756.000000	48.663630
1755.000000	48.652674
1754.000000	48.628526
1753.000000	48.591349
1752.000000	48.567211
1751.000000	48.546770
1750.000000	48.503975
1749.000000	48.461668
1748.000000	48.396477
1747.000000	48.400260
1746.000000	48.333159
1745.000000	48.299805
1744.000000	48.267308
1743.000000	48.229793
1742.000000	48.175338
1741.000000	48.138360
1740.000000	48.120043
1739.000000	48.094316
1738.000000	48.073349
1737.000000	48.015686
1736.000000	48.005701
1735.000000	47.960307
1734.000000	47.958787
1733.000000	47.924530
1732.000000	47.938658
1731.000000	47.952334
1730.000000	47.963633
1729.000000	48.007698
1728.000000	48.027246
1727.000000	48.055027
1726.000000	48.113316
1725.000000	48.142503
1724.000000	48.202167
1723.000000	48.255189
1722.000000	48.307525
1721.000000	48.422161
1720.000000	48.506413
1719.000000	48.567158
1718.000000	48.632606
1717.000000	48.731988
1716.000000	48.817272
1715.000000	48.828183
1714.000000	48.878123
1713.000000	48.953002
1712.000000	48.999511
1711.000000	49.069786
1710.000000	49.110164
1709.000000	49.148821
1708.000000	49.195326
1707.000000	49.241601
1706.000000	49.277354
1705.000000	49.291519
1704.000000	49.358836
1703.000000	49.319930
1702.000000	49.386506
1701.000000	49.393572
1700.000000	49.411966
1699.000000	49.382230
1698.000000	49.438637
1697.000000	49.487178
1696.000000	49.517874
1695.000000	49.505895
1694.000000	49.562975
1693.000000	49.570989
1692.000000	49.586204
1691.000000	49.677840
1690.000000	49.723351
1689.000000	49.779316
1688.000000	49.840551
1687.000000	49.902321
1686.000000	49.988192
1685.000000	50.084280
1684.000000	50.141807
1683.000000	50.240987
1682.000000	50.346084
1681.000000	50.457657
1680.000000	50.550056
1679.000000	50.600305
1678.000000	50.707916
1677.000000	50.796092
1676.000000	50.901156
1675.000000	50.973464
1674.000000	51.073739
1673.000000	51.184269
1672.000000	51.256294
1671.000000	51.330467
1670.000000	51.434689
1669.000000	51.531683
1668.000000	51.591844
1667.000000	51.676261
1666.000000	51.724450
1665.000000	51.759113
1664.000000	51.812601
1663.000000	51.855560
1662.000000	51.884979
1661.000000	51.939735
1660.000000	51.975191
1659.000000	51.992927
1658.000000	52.023462
1657.000000	52.051782
1656.000000	52.084628
1655.000000	52.098570
1654.000000	52.104917
1653.000000	52.128492
1652.000000	52.117847
1651.000000	52.103593
1650.000000	52.096052
1649.000000	52.082628
1648.000000	52.073472
1647.000000	52.072988
1646.000000	52.062744
1645.000000	52.027802
1644.000000	52.036282
1643.000000	52.009739
1642.000000	52.006975
1641.000000	51.994636
1640.000000	52.001127
1639.000000	51.970750
1638.000000	51.917048
1637.000000	51.903209
1636.000000	51.867987
1635.000000	51.855647
1634.000000	51.824061
1633.000000	51.798091
1632.000000	51.773391
1631.000000	51.727277
1630.000000	51.702441
1629.000000	51.685657
1628.000000	51.669975
1627.000000	51.631581
1626.000000	51.597357
1625.000000	51.583285
1624.000000	51.557194
1623.000000	51.523839
1622.000000	51.491689
1621.000000	51.473438
1620.000000	51.442091
1619.000000	51.378403
1618.000000	51.339931
1617.000000	51.319526
1616.000000	51.280729
1615.000000	51.241227
1614.000000	51.206360
1613.000000	51.175207
1612.000000	51.138621
1611.000000	51.083114
1610.000000	51.036119
1609.000000	51.014583
1608.000000	50.991370
1607.000000	50.948811
1606.000000	50.897600
1605.000000	50.871415
1604.000000	50.842856
1603.000000	50.791955
1602.000000	50.759392
1601.000000	50.725913
1600.000000	50.685861
1599.000000	50.652847
1598.000000	50.607126
1597.000000	50.570758
1596.000000	50.548586
1595.000000	50.514774
1594.000000	50.476398
1593.000000	50.453268
1592.000000	50.432359
1591.000000	50.399644
1590.000000	50.364064
1589.000000	50.333694
1588.000000	50.307300
1587.000000	50.279628
1586.000000	50.240267
1585.000000	50.198877
1584.000000	50.177391
1583.000000	50.156247
1582.000000	50.111685
1581.000000	50.080865
1580.000000	50.088046
1579.000000	50.062301
1578.000000	50.026699
1577.000000	49.982099
1576.000000	49.942224
1575.000000	49.913335
1574.000000	49.883286
1573.000000	49.865282
1572.000000	49.833412
1571.000000	49.804105
1570.000000	49.786709
1569.000000	49.746649
1568.000000	49.724777
1567.000000	49.693348
1566.000000	49.665282
1565.000000	49.646767
1564.000000	49.647609
1563.000000	49.648040
1562.000000	49.605364
1561.000000	49.580490
1560.000000	49.565114
1559.000000	49.534214
1558.000000	49.531895
1557.000000	49.508478
1556.000000	49.480040
1555.000000	49.458709
1554.000000	49.442177
1553.000000	49.415554
1552.000000	49.408799
1551.000000	49.383666
1550.000000	49.355033
1549.000000	49.322934
1548.000000	49.298126
1547.000000	49.241681
1546.000000	49.197187
1545.000000	49.152680
1544.000000	49.118440
1543.000000	49.078833
1542.000000	49.041341
1541.000000	48.993204
1540.000000	48.932495
1539.000000	48.874832
1538.000000	48.803449
1537.000000	48.748316
1536.000000	48.686051
1535.000000	48.643180
1534.000000	48.587528
1533.000000	48.549742
1532.000000	48.493200
1531.000000	48.442124
1530.000000	48.391460
1529.000000	48.343022
1528.000000	48.300203
1527.000000	48.243758
1526.000000	48.202882
1525.000000	48.147071
1524.000000	48.113081
1523.000000	48.091826
1522.000000	48.054237
1521.000000	48.015718
1520.000000	47.998474
1519.000000	47.961576
1518.000000	47.958662
1517.000000	47.917932
1516.000000	47.901726
1515.000000	47.875975
1514.000000	47.845620
1513.000000	47.840495
1512.000000	47.837027
1511.000000	47.814605
1510.000000	47.790018
1509.000000	47.758124
1508.000000	47.742258
1507.000000	47.747936
1506.000000	47.736091
1505.000000	47.719653
1504.000000	47.712553
1503.000000	47.720481
1502.000000	47.688110
1501.000000	47.694518
1500.000000	47.686631
1499.000000	47.679048
1498.000000	47.668529
1497.000000	47.691583
1496.000000	47.683157
1495.000000	47.679164
1494.000000	47.682209
1493.000000	47.689112
1492.000000	47.703749
1491.000000	47.712422
1490.000000	47.715325
1489.000000	47.737889
1488.000000	47.760040
1487.000000	47.777918
1486.000000	47.775350
1485.000000	47.777218
1484.000000	47.783009
1483.000000	47.800281
1482.000000	47.820852
1481.000000	47.843214
1480.000000	47.884614
1479.000000	47.888461
1478.000000	47.888748
1477.000000	47.900705
1476.000000	47.921367
1475.000000	47.932288
1474.000000	47.967237
1473.000000	47.974258
1472.000000	47.977121
1471.000000	48.004229
1470.000000	48.026993
