PE UV       SUBTECH     SPECTRUM    ASCII       PEDS        4.00        
   -1
RDms499182.Sample.asc
18/03/23
09:47:17.00
18/03/23
09:47:17.00
Administrator

200.000000
1
Lambda 750
750N8071901
PerkinElmer UV WinLab 6.0.4.0738 / 1.61.00 Lambda 900

0
0
3350/servo 860.8/2
0
0
UV/VIS
1
1
1
CommonBeamDepol,150mm sphere / downward view
0
0
0
0
Program
Program
3350/servo 860.8/2
3350/0.2 860.8/0.2
3350/0.2 860.8/0.2
0
1
 
 
 
0
 
860.8
319.2
860.8
Front
100
on
 
 
0
0
0
 
0
 
 
 
0
 
 
0
0
0
0
0
 
 
 
 
0
0


0
0
#HDR
-1
-1
#GR
nm
%R
1.0
0.0
2350.000000
-1.000000
2151
8
62.557687
6.375603
#DATA
2350.000000	34.170090
2349.000000	34.384478
2348.000000	34.222493
2347.000000	34.907363
2346.000000	34.093361
2345.000000	34.213745
2344.000000	34.297667
2343.000000	34.228430
2342.000000	34.185050
2341.000000	34.877374
2340.000000	34.559433
2339.000000	34.805333
2338.000000	34.989847
2337.000000	34.732876
2336.000000	34.972933
2335.000000	34.976486
2334.000000	35.086011
2333.000000	35.294326
2332.000000	35.191383
2331.000000	35.039496
2330.000000	34.938142
2329.000000	34.654685
2328.000000	34.856194
2327.000000	34.587662
2326.000000	34.925142
2325.000000	34.851115
2324.000000	35.009302
2323.000000	34.594065
2322.000000	34.596332
2321.000000	34.372075
2320.000000	34.475992
2319.000000	34.518078
2318.000000	34.671814
2317.000000	34.425701
2316.000000	34.236554
2315.000000	34.397264
2314.000000	34.313601
2313.000000	34.126199
2312.000000	33.933587
2311.000000	33.864999
2310.000000	33.748098
2309.000000	34.164000
2308.000000	34.048721
2307.000000	33.559896
2306.000000	33.598234
2305.000000	33.755830
2304.000000	33.533992
2303.000000	33.734780
2302.000000	33.608618
2301.000000	33.588207
2300.000000	33.415696
2299.000000	33.263273
2298.000000	33.172439
2297.000000	33.169792
2296.000000	33.218777
2295.000000	33.162233
2294.000000	33.229239
2293.000000	33.124519
2292.000000	33.026584
2291.000000	33.012349
2290.000000	33.064378
2289.000000	33.027033
2288.000000	33.149880
2287.000000	33.007618
2286.000000	32.998492
2285.000000	32.968095
2284.000000	32.879009
2283.000000	32.860271
2282.000000	32.830203
2281.000000	32.778778
2280.000000	32.800316
2279.000000	32.898503
2278.000000	32.717685
2277.000000	32.785824
2276.000000	32.941651
2275.000000	33.047976
2274.000000	33.110170
2273.000000	33.188908
2272.000000	33.228713
2271.000000	33.351737
2270.000000	33.379689
2269.000000	33.507689
2268.000000	33.691823
2267.000000	33.763941
2266.000000	33.741164
2265.000000	33.832637
2264.000000	33.917747
2263.000000	34.005882
2262.000000	34.120408
2261.000000	34.439160
2260.000000	34.544187
2259.000000	34.644021
2258.000000	34.907192
2257.000000	35.127744
2256.000000	35.359023
2255.000000	35.512534
2254.000000	35.616675
2253.000000	35.664505
2252.000000	35.865014
2251.000000	36.064915
2250.000000	36.319939
2249.000000	36.622141
2248.000000	36.683416
2247.000000	36.734619
2246.000000	37.050033
2245.000000	37.284292
2244.000000	37.591428
2243.000000	37.786463
2242.000000	37.798589
2241.000000	37.879363
2240.000000	38.041387
2239.000000	38.123320
2238.000000	38.204504
2237.000000	38.403953
2236.000000	38.458503
2235.000000	38.543496
2234.000000	38.722923
2233.000000	38.778656
2232.000000	38.765703
2231.000000	38.812855
2230.000000	38.856381
2229.000000	38.908254
2228.000000	38.929405
2227.000000	39.004719
2226.000000	39.020614
2225.000000	38.882305
2224.000000	38.917259
2223.000000	38.981196
2222.000000	38.959757
2221.000000	38.884322
2220.000000	38.951523
2219.000000	38.878123
2218.000000	38.774106
2217.000000	38.773663
2216.000000	38.724054
2215.000000	38.781776
2214.000000	38.851791
2213.000000	38.784354
2212.000000	38.589214
2211.000000	38.531604
2210.000000	38.517896
2209.000000	38.526957
2208.000000	38.536082
2207.000000	38.478142
2206.000000	38.246685
2205.000000	38.188999
2204.000000	38.291565
2203.000000	38.250790
2202.000000	37.973972
2201.000000	38.141296
2200.000000	37.957894
2199.000000	37.912413
2198.000000	37.865225
2197.000000	37.833949
2196.000000	37.682925
2195.000000	37.546826
2194.000000	37.375230
2193.000000	37.477314
2192.000000	37.461303
2191.000000	37.219268
2190.000000	37.392703
2189.000000	37.386341
2188.000000	37.147282
2187.000000	36.981148
2186.000000	37.078775
2185.000000	37.018774
2184.000000	37.181342
2183.000000	37.060836
2182.000000	37.009462
2181.000000	37.105097
2180.000000	36.897233
2179.000000	36.811844
2178.000000	36.866602
2177.000000	36.918669
2176.000000	36.871593
2175.000000	36.922107
2174.000000	36.964040
2173.000000	36.953289
2172.000000	37.066267
2171.000000	37.040816
2170.000000	37.089476
2169.000000	37.049477
2168.000000	37.333976
2167.000000	37.385265
2166.000000	37.409311
2165.000000	37.492790
2164.000000	37.533286
2163.000000	37.623242
2162.000000	37.924791
2161.000000	37.841777
2160.000000	37.841741
2159.000000	38.125430
2158.000000	38.154125
2157.000000	38.364134
2156.000000	38.803517
2155.000000	38.622179
2154.000000	38.795496
2153.000000	38.907177
2152.000000	38.933887
2151.000000	38.947701
2150.000000	38.965592
2149.000000	39.349596
2148.000000	39.389478
2147.000000	39.491456
2146.000000	39.629417
2145.000000	39.678462
2144.000000	39.875813
2143.000000	39.954977
2142.000000	40.040288
2141.000000	40.348174
2140.000000	40.388679
2139.000000	40.395497
2138.000000	40.679701
2137.000000	40.701125
2136.000000	40.767243
2135.000000	40.752027
2134.000000	40.885295
2133.000000	40.685198
2132.000000	41.144954
2131.000000	41.323474
2130.000000	41.269275
2129.000000	41.236691
2128.000000	41.183980
2127.000000	41.232288
2126.000000	41.444833
2125.000000	41.210668
2124.000000	41.464487
2123.000000	41.356636
2122.000000	41.451468
2121.000000	41.798218
2120.000000	41.529057
2119.000000	41.494468
2118.000000	41.664958
2117.000000	41.651845
2116.000000	41.869091
2115.000000	41.949504
2114.000000	41.647069
2113.000000	41.793744
2112.000000	41.866952
2111.000000	41.719755
2110.000000	41.680894
2109.000000	41.805315
2108.000000	41.916943
2107.000000	41.920656
2106.000000	41.945503
2105.000000	41.823050
2104.000000	41.847271
2103.000000	42.026788
2102.000000	42.085709
2101.000000	42.065480
2100.000000	41.966353
2099.000000	41.926980
2098.000000	41.955825
2097.000000	42.062169
2096.000000	41.932393
2095.000000	41.873941
2094.000000	41.857825
2093.000000	41.942008
2092.000000	41.963678
2091.000000	41.833891
2090.000000	41.925289
2089.000000	41.840850
2088.000000	41.811192
2087.000000	41.904554
2086.000000	41.930164
2085.000000	41.904791
2084.000000	41.767470
2083.000000	41.733969
2082.000000	41.662089
2081.000000	41.575640
2080.000000	41.546180
2079.000000	41.568774
2078.000000	41.389931
2077.000000	41.327369
2076.000000	41.289268
2075.000000	41.230445
2074.000000	41.122475
2073.000000	41.014436
2072.000000	40.902266
2071.000000	40.876789
2070.000000	40.775421
2069.000000	40.601155
2068.000000	40.550270
2067.000000	40.476043
2066.000000	40.192310
2065.000000	40.078298
2064.000000	40.127614
2063.000000	39.932835
2062.000000	39.786649
2061.000000	39.598060
2060.000000	39.436361
2059.000000	39.359081
2058.000000	39.246825
2057.000000	39.169513
2056.000000	39.009981
2055.000000	38.852658
2054.000000	38.747332
2053.000000	38.683311
2052.000000	38.521116
2051.000000	38.407354
2050.000000	38.291837
2049.000000	38.228948
2048.000000	38.156124
2047.000000	38.090630
2046.000000	38.032436
2045.000000	38.018843
2044.000000	37.999556
2043.000000	37.950216
2042.000000	37.956685
2041.000000	38.012876
2040.000000	38.039227
2039.000000	37.988050
2038.000000	37.981004
2037.000000	38.039625
2036.000000	38.127156
2035.000000	38.180707
2034.000000	38.256911
2033.000000	38.390396
2032.000000	38.497416
2031.000000	38.608250
2030.000000	38.645922
2029.000000	38.719430
2028.000000	38.884314
2027.000000	38.985129
2026.000000	39.049659
2025.000000	39.113039
2024.000000	39.159320
2023.000000	39.226233
2022.000000	39.236587
2021.000000	39.249706
2020.000000	39.297885
2019.000000	39.318845
2018.000000	39.348852
2017.000000	39.358482
2016.000000	39.307354
2015.000000	39.260877
2014.000000	39.243617
2013.000000	39.216397
2012.000000	39.176296
2011.000000	39.147113
2010.000000	39.077626
2009.000000	38.984331
2008.000000	38.913289
2007.000000	38.822500
2006.000000	38.761003
2005.000000	38.660525
2004.000000	38.528531
2003.000000	38.473762
2002.000000	38.392139
2001.000000	38.292064
2000.000000	38.161381
1999.000000	38.070150
1998.000000	37.991391
1997.000000	37.891148
1996.000000	37.766886
1995.000000	37.672739
1994.000000	37.559865
1993.000000	37.390822
1992.000000	37.283480
1991.000000	37.226038
1990.000000	37.114444
1989.000000	37.024240
1988.000000	36.906655
1987.000000	36.755229
1986.000000	36.652368
1985.000000	36.533745
1984.000000	36.439194
1983.000000	36.303649
1982.000000	36.221577
1981.000000	36.157955
1980.000000	36.001343
1979.000000	35.862501
1978.000000	35.749884
1977.000000	35.658904
1976.000000	35.575297
1975.000000	35.471819
1974.000000	35.375606
1973.000000	35.292962
1972.000000	35.145748
1971.000000	35.036640
1970.000000	34.931427
1969.000000	34.843447
1968.000000	34.767062
1967.000000	34.645362
1966.000000	34.575259
1965.000000	34.444425
1964.000000	34.285950
1963.000000	34.243838
1962.000000	34.080898
1961.000000	34.043003
1960.000000	33.919666
1959.000000	33.806676
1958.000000	33.748483
1957.000000	33.703532
1956.000000	33.585017
1955.000000	33.498641
1954.000000	33.400947
1953.000000	33.416889
1952.000000	33.312560
1951.000000	33.276065
1950.000000	33.277713
1949.000000	33.198284
1948.000000	33.181795
1947.000000	33.090558
1946.000000	33.077646
1945.000000	33.045395
1944.000000	33.036975
1943.000000	33.016893
1942.000000	33.037146
1941.000000	33.064524
1940.000000	33.127285
1939.000000	33.141404
1938.000000	33.215748
1937.000000	33.312784
1936.000000	33.476287
1935.000000	33.469648
1934.000000	33.528307
1933.000000	33.671382
1932.000000	33.812517
1931.000000	33.997331
1930.000000	34.126579
1929.000000	34.298213
1928.000000	34.499388
1927.000000	34.623462
1926.000000	34.902692
1925.000000	35.093918
1924.000000	35.224549
1923.000000	35.569230
1922.000000	35.757893
1921.000000	36.145250
1920.000000	36.291109
1919.000000	36.523212
1918.000000	36.987831
1917.000000	37.283732
1916.000000	37.477270
1915.000000	37.865712
1914.000000	38.224034
1913.000000	38.684931
1912.000000	38.886227
1911.000000	39.311171
1910.000000	39.687112
1909.000000	40.168467
1908.000000	40.569251
1907.000000	41.050147
1906.000000	41.360798
1905.000000	41.841062
1904.000000	42.308873
1903.000000	42.819067
1902.000000	43.302320
1901.000000	43.789776
1900.000000	44.130262
1899.000000	44.681130
1898.000000	45.223026
1897.000000	45.683726
1896.000000	46.100096
1895.000000	46.534518
1894.000000	46.922955
1893.000000	47.436021
1892.000000	47.838115
1891.000000	48.259455
1890.000000	48.689950
1889.000000	49.066041
1888.000000	49.467564
1887.000000	49.824098
1886.000000	50.189260
1885.000000	50.568193
1884.000000	50.897219
1883.000000	51.243071
1882.000000	51.413767
1881.000000	51.694767
1880.000000	51.985532
1879.000000	52.282875
1878.000000	52.527276
1877.000000	52.778879
1876.000000	52.997179
1875.000000	53.229285
1874.000000	53.406399
1873.000000	53.650874
1872.000000	53.875958
1871.000000	54.067919
1870.000000	54.156890
1869.000000	54.342082
1868.000000	54.460607
1867.000000	54.537342
1866.000000	54.681980
1865.000000	54.723968
1864.000000	54.776942
1863.000000	54.863593
1862.000000	54.898906
1861.000000	54.980909
1860.000000	55.002222
1859.000000	55.061727
1858.000000	55.101633
1857.000000	55.164909
1856.000000	55.198769
1855.000000	55.200271
1854.000000	55.247718
1853.000000	55.237991
1852.000000	55.177020
1851.000000	55.232832
1850.000000	55.258537
1849.000000	55.233098
1848.000000	55.238243
1847.000000	55.255877
1846.000000	55.255742
1845.000000	55.220846
1844.000000	55.178166
1843.000000	55.179933
1842.000000	55.203499
1841.000000	55.194866
1840.000000	55.133318
1839.000000	55.119962
1838.000000	55.096103
1837.000000	55.047795
1836.000000	55.011368
1835.000000	54.974032
1834.000000	54.966221
1833.000000	54.926080
1832.000000	54.898410
1831.000000	54.850542
1830.000000	54.800764
1829.000000	54.785754
1828.000000	54.746467
1827.000000	54.698945
1826.000000	54.667517
1825.000000	54.632621
1824.000000	54.627867
1823.000000	54.596253
1822.000000	54.549945
1821.000000	54.498652
1820.000000	54.452882
1819.000000	54.423008
1818.000000	54.423506
1817.000000	54.388812
1816.000000	54.329270
1815.000000	54.310330
1814.000000	54.304202
1813.000000	54.264853
1812.000000	54.231154
1811.000000	54.192785
1810.000000	54.158933
1809.000000	54.134857
1808.000000	54.084764
1807.000000	54.061970
1806.000000	54.043307
1805.000000	53.991360
1804.000000	53.947584
1803.000000	53.933148
1802.000000	53.882759
1801.000000	53.842012
1800.000000	53.834971
1799.000000	53.819354
1798.000000	53.794159
1797.000000	53.780529
1796.000000	53.747725
1795.000000	53.714244
1794.000000	53.708457
1793.000000	53.680009
1792.000000	53.656688
1791.000000	53.645477
1790.000000	53.592478
1789.000000	53.571836
1788.000000	53.570210
1787.000000	53.535728
1786.000000	53.506556
1785.000000	53.492441
1784.000000	53.458176
1783.000000	53.434412
1782.000000	53.400477
1781.000000	53.349757
1780.000000	53.309720
1779.000000	53.303609
1778.000000	53.239970
1777.000000	53.180886
1776.000000	53.146454
1775.000000	53.086237
1774.000000	53.046467
1773.000000	53.009239
1772.000000	52.956510
1771.000000	52.905485
1770.000000	52.852295
1769.000000	52.800297
1768.000000	52.787719
1767.000000	52.728137
1766.000000	52.673600
1765.000000	52.681985
1764.000000	52.653915
1763.000000	52.561991
1762.000000	52.528947
1761.000000	52.506137
1760.000000	52.457609
1759.000000	52.423505
1758.000000	52.397995
1757.000000	52.329613
1756.000000	52.305480
1755.000000	52.266256
1754.000000	52.200835
1753.000000	52.152779
1752.000000	52.122128
1751.000000	52.078173
1750.000000	52.037498
1749.000000	51.986395
1748.000000	51.933320
1747.000000	51.881787
1746.000000	51.825089
1745.000000	51.748460
1744.000000	51.709882
1743.000000	51.659706
1742.000000	51.625651
1741.000000	51.564454
1740.000000	51.496419
1739.000000	51.476485
1738.000000	51.417025
1737.000000	51.351618
1736.000000	51.343818
1735.000000	51.309795
1734.000000	51.344417
1733.000000	51.337715
1732.000000	51.313762
1731.000000	51.292092
1730.000000	51.346567
1729.000000	51.382388
1728.000000	51.410317
1727.000000	51.482379
1726.000000	51.503471
1725.000000	51.557467
1724.000000	51.635073
1723.000000	51.731981
1722.000000	51.781743
1721.000000	51.876029
1720.000000	52.006960
1719.000000	52.089117
1718.000000	52.191241
1717.000000	52.277534
1716.000000	52.395910
1715.000000	52.459732
1714.000000	52.558532
1713.000000	52.598788
1712.000000	52.662473
1711.000000	52.756742
1710.000000	52.813657
1709.000000	52.856042
1708.000000	52.926446
1707.000000	52.979644
1706.000000	53.013612
1705.000000	53.047450
1704.000000	53.132227
1703.000000	53.118774
1702.000000	53.153890
1701.000000	53.158702
1700.000000	53.183305
1699.000000	53.178209
1698.000000	53.232737
1697.000000	53.289819
1696.000000	53.318476
1695.000000	53.342908
1694.000000	53.368708
1693.000000	53.422064
1692.000000	53.448843
1691.000000	53.515256
1690.000000	53.594200
1689.000000	53.688192
1688.000000	53.794673
1687.000000	53.864470
1686.000000	53.932118
1685.000000	54.049221
1684.000000	54.155053
1683.000000	54.293088
1682.000000	54.414212
1681.000000	54.556468
1680.000000	54.681837
1679.000000	54.812264
1678.000000	54.962130
1677.000000	55.051180
1676.000000	55.216570
1675.000000	55.352167
1674.000000	55.483702
1673.000000	55.620610
1672.000000	55.744855
1671.000000	55.879710
1670.000000	56.006827
1669.000000	56.133142
1668.000000	56.231691
1667.000000	56.314647
1666.000000	56.393793
1665.000000	56.480126
1664.000000	56.512637
1663.000000	56.576158
1662.000000	56.639215
1661.000000	56.716277
1660.000000	56.762891
1659.000000	56.826883
1658.000000	56.867337
1657.000000	56.897174
1656.000000	56.943183
1655.000000	56.984773
1654.000000	56.985973
1653.000000	56.987628
1652.000000	57.012949
1651.000000	57.007653
1650.000000	56.982788
1649.000000	56.984466
1648.000000	56.998807
1647.000000	56.993606
1646.000000	56.980672
1645.000000	56.973064
1644.000000	56.963484
1643.000000	56.940455
1642.000000	56.904594
1641.000000	56.869115
1640.000000	56.849801
1639.000000	56.824175
1638.000000	56.794300
1637.000000	56.768181
1636.000000	56.740118
1635.000000	56.720099
1634.000000	56.699415
1633.000000	56.642472
1632.000000	56.609939
1631.000000	56.561721
1630.000000	56.543682
1629.000000	56.502737
1628.000000	56.461621
1627.000000	56.411884
1626.000000	56.382206
1625.000000	56.351807
1624.000000	56.318983
1623.000000	56.277615
1622.000000	56.224349
1621.000000	56.168664
1620.000000	56.147558
1619.000000	56.090010
1618.000000	56.040525
1617.000000	55.981645
1616.000000	55.920611
1615.000000	55.864434
1614.000000	55.820731
1613.000000	55.788239
1612.000000	55.729425
1611.000000	55.668318
1610.000000	55.629137
1609.000000	55.581146
1608.000000	55.537898
1607.000000	55.482982
1606.000000	55.415004
1605.000000	55.360800
1604.000000	55.294374
1603.000000	55.224748
1602.000000	55.188261
1601.000000	55.137043
1600.000000	55.073276
1599.000000	55.023369
1598.000000	54.968975
1597.000000	54.920826
1596.000000	54.880817
1595.000000	54.834276
1594.000000	54.789967
1593.000000	54.742738
1592.000000	54.693076
1591.000000	54.643932
1590.000000	54.594168
1589.000000	54.547905
1588.000000	54.506544
1587.000000	54.450089
1586.000000	54.410626
1585.000000	54.374173
1584.000000	54.333471
1583.000000	54.296703
1582.000000	54.259068
1581.000000	54.227434
1580.000000	54.206523
1579.000000	54.145972
1578.000000	54.105085
1577.000000	54.074264
1576.000000	54.032196
1575.000000	54.001847
1574.000000	53.949516
1573.000000	53.902964
1572.000000	53.854001
1571.000000	53.813646
1570.000000	53.790830
1569.000000	53.744025
1568.000000	53.717031
1567.000000	53.690610
1566.000000	53.666336
1565.000000	53.648785
1564.000000	53.631676
1563.000000	53.617560
1562.000000	53.568813
1561.000000	53.523274
1560.000000	53.504766
1559.000000	53.497362
1558.000000	53.491033
1557.000000	53.471675
1556.000000	53.451974
1555.000000	53.427633
1554.000000	53.378569
1553.000000	53.371866
1552.000000	53.359326
1551.000000	53.318176
1550.000000	53.272722
1549.000000	53.247132
1548.000000	53.200859
1547.000000	53.154231
1546.000000	53.103523
1545.000000	53.069284
1544.000000	53.001044
1543.000000	52.951506
1542.000000	52.879434
1541.000000	52.810497
1540.000000	52.756765
1539.000000	52.687622
1538.000000	52.605633
1537.000000	52.541747
1536.000000	52.469398
1535.000000	52.391885
1534.000000	52.321620
1533.000000	52.274560
1532.000000	52.194173
1531.000000	52.104287
1530.000000	52.038135
1529.000000	51.983552
1528.000000	51.925569
1527.000000	51.858040
1526.000000	51.813593
1525.000000	51.741995
1524.000000	51.693000
1523.000000	51.635861
1522.000000	51.596056
1521.000000	51.548833
1520.000000	51.546107
1519.000000	51.505388
1518.000000	51.482136
1517.000000	51.405827
1516.000000	51.369607
1515.000000	51.345079
1514.000000	51.334390
1513.000000	51.305691
1512.000000	51.282278
1511.000000	51.239213
1510.000000	51.213675
1509.000000	51.202860
1508.000000	51.160252
1507.000000	51.169730
1506.000000	51.158251
1505.000000	51.153884
1504.000000	51.117577
1503.000000	51.113230
1502.000000	51.089178
1501.000000	51.076672
1500.000000	51.081933
1499.000000	51.055033
1498.000000	51.048155
1497.000000	51.069943
1496.000000	51.055173
1495.000000	51.072626
1494.000000	51.088757
1493.000000	51.089598
1492.000000	51.086456
1491.000000	51.106102
1490.000000	51.104021
1489.000000	51.141533
1488.000000	51.142077
1487.000000	51.181123
1486.000000	51.196550
1485.000000	51.209648
1484.000000	51.262311
1483.000000	51.259248
1482.000000	51.295794
1481.000000	51.303264
1480.000000	51.352682
1479.000000	51.358598
1478.000000	51.394772
1477.000000	51.418935
1476.000000	51.437356
1475.000000	51.449635
1474.000000	51.509383
1473.000000	51.521086
1472.000000	51.545431
1471.000000	51.580563
1470.000000	51.606322
