PE UV       SUBTECH     SPECTRUM    ASCII       PEDS        4.00        
   -1
RTms499172.Sample.asc
18/03/23
10:30:47.00
18/03/23
10:30:47.00
Administrator

200.000000
1
Lambda 750
750N8071901
PerkinElmer UV WinLab 6.0.4.0738 / 1.61.00 Lambda 900

0
0
3350/servo 860.8/2
0
0
UV/VIS
1
1
1
CommonBeamDepol,150mm sphere / downward view
0
0
0
0
Program
Program
3350/servo 860.8/2
3350/0.2 860.8/0.2
3350/0.2 860.8/0.2
0
1
 
 
 
0
 
860.8
319.2
860.8
Front
100
on
 
 
0
0
0
 
0
 
 
 
0
 
 
0
0
0
0
0
 
 
 
 
0
0


0
0
#HDR
-1
-1
#GR
nm
%R
1.0
0.0
2350.000000
-1.000000
2151
8
55.420581
7.213899
#DATA
2350.000000	31.887265
2349.000000	31.802364
2348.000000	31.874909
2347.000000	32.476109
2346.000000	32.052086
2345.000000	31.754381
2344.000000	31.822196
2343.000000	32.012315
2342.000000	32.037358
2341.000000	32.131392
2340.000000	31.903521
2339.000000	31.880185
2338.000000	32.007535
2337.000000	32.391471
2336.000000	32.406427
2335.000000	32.624498
2334.000000	32.694036
2333.000000	32.658015
2332.000000	32.629718
2331.000000	32.590819
2330.000000	32.534121
2329.000000	32.548755
2328.000000	32.489774
2327.000000	32.348409
2326.000000	32.537784
2325.000000	32.436530
2324.000000	32.362822
2323.000000	32.342032
2322.000000	31.980433
2321.000000	32.173698
2320.000000	32.188881
2319.000000	32.083648
2318.000000	32.048798
2317.000000	31.929489
2316.000000	31.742692
2315.000000	31.720340
2314.000000	31.704956
2313.000000	31.793173
2312.000000	31.577402
2311.000000	31.462640
2310.000000	31.605869
2309.000000	31.469133
2308.000000	31.699741
2307.000000	31.434739
2306.000000	31.204906
2305.000000	31.390680
2304.000000	31.314759
2303.000000	31.409590
2302.000000	31.437997
2301.000000	30.992441
2300.000000	30.916671
2299.000000	31.002395
2298.000000	30.868931
2297.000000	30.753286
2296.000000	30.954877
2295.000000	30.844922
2294.000000	30.911236
2293.000000	30.936131
2292.000000	30.905422
2291.000000	30.711058
2290.000000	30.726534
2289.000000	30.662989
2288.000000	30.731543
2287.000000	30.649018
2286.000000	30.658019
2285.000000	30.850335
2284.000000	30.712562
2283.000000	30.626005
2282.000000	30.552770
2281.000000	30.557820
2280.000000	30.676024
2279.000000	30.729458
2278.000000	30.730547
2277.000000	30.745927
2276.000000	30.687063
2275.000000	30.704618
2274.000000	30.947174
2273.000000	31.059751
2272.000000	31.043376
2271.000000	30.953775
2270.000000	30.959223
2269.000000	31.030084
2268.000000	31.206652
2267.000000	31.390876
2266.000000	31.543855
2265.000000	31.589377
2264.000000	31.653077
2263.000000	31.939775
2262.000000	32.055086
2261.000000	32.105024
2260.000000	32.294265
2259.000000	32.413513
2258.000000	32.485837
2257.000000	32.624787
2256.000000	32.819004
2255.000000	33.013129
2254.000000	33.191257
2253.000000	33.387266
2252.000000	33.533845
2251.000000	33.731509
2250.000000	33.990614
2249.000000	34.124906
2248.000000	34.175247
2247.000000	34.438921
2246.000000	34.579321
2245.000000	34.646028
2244.000000	34.912048
2243.000000	35.179825
2242.000000	35.437287
2241.000000	35.456738
2240.000000	35.460082
2239.000000	35.668261
2238.000000	35.758038
2237.000000	35.868981
2236.000000	35.990354
2235.000000	36.039704
2234.000000	36.242206
2233.000000	36.345908
2232.000000	36.343601
2231.000000	36.373922
2230.000000	36.441387
2229.000000	36.493822
2228.000000	36.445394
2227.000000	36.508802
2226.000000	36.524386
2225.000000	36.388570
2224.000000	36.476693
2223.000000	36.405869
2222.000000	36.306129
2221.000000	36.338770
2220.000000	36.316267
2219.000000	36.319333
2218.000000	36.307173
2217.000000	36.321152
2216.000000	36.374690
2215.000000	36.273870
2214.000000	36.178131
2213.000000	36.272769
2212.000000	36.328878
2211.000000	36.263063
2210.000000	36.137254
2209.000000	35.983958
2208.000000	35.853470
2207.000000	35.816057
2206.000000	35.788437
2205.000000	35.700647
2204.000000	35.680410
2203.000000	35.624926
2202.000000	35.578391
2201.000000	35.439106
2200.000000	35.514475
2199.000000	35.536216
2198.000000	35.537563
2197.000000	35.396987
2196.000000	35.271143
2195.000000	35.097464
2194.000000	35.029916
2193.000000	35.014354
2192.000000	34.936347
2191.000000	34.809889
2190.000000	34.830257
2189.000000	34.838704
2188.000000	34.925975
2187.000000	34.766870
2186.000000	34.714485
2185.000000	34.697671
2184.000000	34.751485
2183.000000	34.737247
2182.000000	34.623053
2181.000000	34.577761
2180.000000	34.595256
2179.000000	34.622744
2178.000000	34.542443
2177.000000	34.576292
2176.000000	34.524833
2175.000000	34.552690
2174.000000	34.686452
2173.000000	34.540389
2172.000000	34.659904
2171.000000	34.668691
2170.000000	34.610991
2169.000000	34.742153
2168.000000	34.918716
2167.000000	34.923014
2166.000000	35.039523
2165.000000	35.137069
2164.000000	35.205916
2163.000000	35.154559
2162.000000	35.338888
2161.000000	35.592764
2160.000000	35.575074
2159.000000	35.628209
2158.000000	35.542319
2157.000000	35.870320
2156.000000	35.999220
2155.000000	35.961997
2154.000000	36.143795
2153.000000	36.360181
2152.000000	36.451352
2151.000000	36.415087
2150.000000	36.486252
2149.000000	36.592993
2148.000000	36.771144
2147.000000	36.955606
2146.000000	37.047828
2145.000000	37.180209
2144.000000	37.164494
2143.000000	37.239263
2142.000000	37.350509
2141.000000	37.549745
2140.000000	37.583077
2139.000000	37.660641
2138.000000	37.888064
2137.000000	38.005276
2136.000000	37.966731
2135.000000	38.101762
2134.000000	38.201339
2133.000000	38.083712
2132.000000	38.096414
2131.000000	38.388147
2130.000000	38.423584
2129.000000	38.255472
2128.000000	38.215150
2127.000000	38.371818
2126.000000	38.357910
2125.000000	38.369117
2124.000000	38.520196
2123.000000	38.354598
2122.000000	38.563970
2121.000000	38.618841
2120.000000	38.503036
2119.000000	38.563784
2118.000000	38.772693
2117.000000	38.763565
2116.000000	38.876295
2115.000000	38.789213
2114.000000	38.720074
2113.000000	38.656244
2112.000000	38.679122
2111.000000	38.697006
2110.000000	38.714468
2109.000000	38.892126
2108.000000	38.875649
2107.000000	38.825195
2106.000000	38.808894
2105.000000	38.808691
2104.000000	38.817324
2103.000000	38.831048
2102.000000	38.873369
2101.000000	38.949530
2100.000000	38.889917
2099.000000	38.847949
2098.000000	38.895850
2097.000000	38.939319
2096.000000	38.924339
2095.000000	38.890706
2094.000000	38.784520
2093.000000	38.861030
2092.000000	38.957418
2091.000000	38.874274
2090.000000	38.854017
2089.000000	38.884723
2088.000000	38.836663
2087.000000	38.836227
2086.000000	38.784896
2085.000000	38.757437
2084.000000	38.623493
2083.000000	38.568020
2082.000000	38.613594
2081.000000	38.621175
2080.000000	38.579864
2079.000000	38.558658
2078.000000	38.497756
2077.000000	38.469702
2076.000000	38.334868
2075.000000	38.194200
2074.000000	38.109511
2073.000000	38.061002
2072.000000	38.040373
2071.000000	37.996527
2070.000000	37.873827
2069.000000	37.771664
2068.000000	37.647408
2067.000000	37.458082
2066.000000	37.311102
2065.000000	37.280979
2064.000000	37.222822
2063.000000	37.059994
2062.000000	37.010535
2061.000000	36.855082
2060.000000	36.714118
2059.000000	36.635640
2058.000000	36.541867
2057.000000	36.379886
2056.000000	36.344133
2055.000000	36.264631
2054.000000	36.091205
2053.000000	35.980600
2052.000000	35.911469
2051.000000	35.790837
2050.000000	35.708121
2049.000000	35.632848
2048.000000	35.560444
2047.000000	35.567323
2046.000000	35.536099
2045.000000	35.478985
2044.000000	35.495398
2043.000000	35.408701
2042.000000	35.409004
2041.000000	35.515855
2040.000000	35.535538
2039.000000	35.499154
2038.000000	35.555898
2037.000000	35.610069
2036.000000	35.611683
2035.000000	35.679177
2034.000000	35.814678
2033.000000	35.952224
2032.000000	36.021623
2031.000000	36.027196
2030.000000	36.086508
2029.000000	36.236436
2028.000000	36.353049
2027.000000	36.415952
2026.000000	36.457726
2025.000000	36.522692
2024.000000	36.577862
2023.000000	36.627638
2022.000000	36.675829
2021.000000	36.680747
2020.000000	36.709455
2019.000000	36.741346
2018.000000	36.730730
2017.000000	36.716439
2016.000000	36.682631
2015.000000	36.685779
2014.000000	36.710014
2013.000000	36.636926
2012.000000	36.574194
2011.000000	36.554126
2010.000000	36.471922
2009.000000	36.357308
2008.000000	36.290203
2007.000000	36.240490
2006.000000	36.188541
2005.000000	36.127472
2004.000000	36.008014
2003.000000	35.919764
2002.000000	35.844601
2001.000000	35.730283
2000.000000	35.624956
1999.000000	35.536084
1998.000000	35.440622
1997.000000	35.345545
1996.000000	35.257696
1995.000000	35.186423
1994.000000	35.059583
1993.000000	34.938045
1992.000000	34.820594
1991.000000	34.698538
1990.000000	34.633084
1989.000000	34.542880
1988.000000	34.446829
1987.000000	34.324428
1986.000000	34.195168
1985.000000	34.096941
1984.000000	34.010613
1983.000000	33.895967
1982.000000	33.785292
1981.000000	33.692131
1980.000000	33.596939
1979.000000	33.448499
1978.000000	33.387657
1977.000000	33.259816
1976.000000	33.170722
1975.000000	33.095219
1974.000000	32.979399
1973.000000	32.901251
1972.000000	32.805814
1971.000000	32.709343
1970.000000	32.592190
1969.000000	32.466773
1968.000000	32.431010
1967.000000	32.352085
1966.000000	32.274143
1965.000000	32.151196
1964.000000	32.047188
1963.000000	31.975308
1962.000000	31.839018
1961.000000	31.755208
1960.000000	31.726565
1959.000000	31.606482
1958.000000	31.573196
1957.000000	31.484172
1956.000000	31.385487
1955.000000	31.316757
1954.000000	31.246066
1953.000000	31.169023
1952.000000	31.109643
1951.000000	31.062628
1950.000000	31.037547
1949.000000	30.946781
1948.000000	30.950420
1947.000000	30.914935
1946.000000	30.902048
1945.000000	30.873912
1944.000000	30.829482
1943.000000	30.888978
1942.000000	30.919439
1941.000000	30.895282
1940.000000	30.975714
1939.000000	31.046525
1938.000000	31.082750
1937.000000	31.084619
1936.000000	31.259792
1935.000000	31.327877
1934.000000	31.341705
1933.000000	31.478315
1932.000000	31.545180
1931.000000	31.683768
1930.000000	31.849347
1929.000000	32.049503
1928.000000	32.212002
1927.000000	32.342198
1926.000000	32.532964
1925.000000	32.727282
1924.000000	32.913624
1923.000000	33.181355
1922.000000	33.462679
1921.000000	33.636970
1920.000000	33.897509
1919.000000	34.112230
1918.000000	34.415693
1917.000000	34.768044
1916.000000	34.963663
1915.000000	35.403556
1914.000000	35.706992
1913.000000	36.104771
1912.000000	36.305602
1911.000000	36.697340
1910.000000	37.140642
1909.000000	37.441286
1908.000000	37.776024
1907.000000	38.257536
1906.000000	38.604704
1905.000000	39.073204
1904.000000	39.447854
1903.000000	39.830632
1902.000000	40.341957
1901.000000	40.713742
1900.000000	41.105633
1899.000000	41.535272
1898.000000	42.031300
1897.000000	42.474096
1896.000000	42.805635
1895.000000	43.230827
1894.000000	43.585173
1893.000000	43.952152
1892.000000	44.372656
1891.000000	44.731201
1890.000000	45.134602
1889.000000	45.429585
1888.000000	45.758639
1887.000000	46.127308
1886.000000	46.409541
1885.000000	46.739096
1884.000000	47.064833
1883.000000	47.323018
1882.000000	47.548313
1881.000000	47.807581
1880.000000	48.081447
1879.000000	48.265916
1878.000000	48.469592
1877.000000	48.643649
1876.000000	48.802690
1875.000000	49.014286
1874.000000	49.175752
1873.000000	49.321403
1872.000000	49.452754
1871.000000	49.567118
1870.000000	49.617743
1869.000000	49.749514
1868.000000	49.892461
1867.000000	49.910154
1866.000000	49.962722
1865.000000	50.016883
1864.000000	50.087276
1863.000000	50.157423
1862.000000	50.190017
1861.000000	50.218303
1860.000000	50.298695
1859.000000	50.338193
1858.000000	50.387827
1857.000000	50.428811
1856.000000	50.431611
1855.000000	50.448379
1854.000000	50.511147
1853.000000	50.498156
1852.000000	50.507533
1851.000000	50.527909
1850.000000	50.537281
1849.000000	50.498296
1848.000000	50.488095
1847.000000	50.490692
1846.000000	50.456770
1845.000000	50.478542
1844.000000	50.459646
1843.000000	50.425694
1842.000000	50.424365
1841.000000	50.396265
1840.000000	50.357610
1839.000000	50.346641
1838.000000	50.300218
1837.000000	50.257139
1836.000000	50.227859
1835.000000	50.201609
1834.000000	50.184762
1833.000000	50.148429
1832.000000	50.093684
1831.000000	50.088502
1830.000000	50.054383
1829.000000	50.014983
1828.000000	49.995784
1827.000000	49.969569
1826.000000	49.948381
1825.000000	49.919666
1824.000000	49.908970
1823.000000	49.867471
1822.000000	49.831950
1821.000000	49.813804
1820.000000	49.797529
1819.000000	49.776041
1818.000000	49.756321
1817.000000	49.733421
1816.000000	49.706764
1815.000000	49.669978
1814.000000	49.628141
1813.000000	49.613970
1812.000000	49.615368
1811.000000	49.601206
1810.000000	49.574755
1809.000000	49.529242
1808.000000	49.485690
1807.000000	49.457634
1806.000000	49.441766
1805.000000	49.436262
1804.000000	49.419992
1803.000000	49.403849
1802.000000	49.367480
1801.000000	49.353362
1800.000000	49.372928
1799.000000	49.349730
1798.000000	49.311592
1797.000000	49.313968
1796.000000	49.302595
1795.000000	49.297118
1794.000000	49.292621
1793.000000	49.284793
1792.000000	49.285956
1791.000000	49.283534
1790.000000	49.260239
1789.000000	49.216318
1788.000000	49.226489
1787.000000	49.235850
1786.000000	49.215639
1785.000000	49.203493
1784.000000	49.192792
1783.000000	49.176521
1782.000000	49.151408
1781.000000	49.127286
1780.000000	49.095923
1779.000000	49.083064
1778.000000	49.040676
1777.000000	48.985051
1776.000000	48.950775
1775.000000	48.917424
1774.000000	48.912234
1773.000000	48.902485
1772.000000	48.840315
1771.000000	48.815300
1770.000000	48.813292
1769.000000	48.765959
1768.000000	48.705494
1767.000000	48.668845
1766.000000	48.651387
1765.000000	48.627252
1764.000000	48.613730
1763.000000	48.562773
1762.000000	48.540398
1761.000000	48.486926
1760.000000	48.450297
1759.000000	48.449316
1758.000000	48.437782
1757.000000	48.385445
1756.000000	48.344734
1755.000000	48.357467
1754.000000	48.315416
1753.000000	48.248093
1752.000000	48.231958
1751.000000	48.224678
1750.000000	48.200046
1749.000000	48.193848
1748.000000	48.124718
1747.000000	48.082155
1746.000000	48.039474
1745.000000	47.990669
1744.000000	47.964160
1743.000000	47.948194
1742.000000	47.899635
1741.000000	47.859811
1740.000000	47.819303
1739.000000	47.772442
1738.000000	47.727048
1737.000000	47.717000
1736.000000	47.691963
1735.000000	47.680360
1734.000000	47.677075
1733.000000	47.668699
1732.000000	47.670865
1731.000000	47.666130
1730.000000	47.685615
1729.000000	47.710581
1728.000000	47.739104
1727.000000	47.793436
1726.000000	47.845587
1725.000000	47.879430
1724.000000	47.920520
1723.000000	47.976920
1722.000000	48.050816
1721.000000	48.121731
1720.000000	48.176518
1719.000000	48.263557
1718.000000	48.290465
1717.000000	48.399927
1716.000000	48.472904
1715.000000	48.495923
1714.000000	48.574849
1713.000000	48.635885
1712.000000	48.695130
1711.000000	48.763566
1710.000000	48.768523
1709.000000	48.803973
1708.000000	48.887505
1707.000000	48.933558
1706.000000	48.957083
1705.000000	48.997417
1704.000000	49.016319
1703.000000	49.020538
1702.000000	49.042962
1701.000000	49.054212
1700.000000	49.071088
1699.000000	49.062150
1698.000000	49.126525
1697.000000	49.123814
1696.000000	49.193505
1695.000000	49.186602
1694.000000	49.218221
1693.000000	49.249828
1692.000000	49.276073
1691.000000	49.323516
1690.000000	49.401187
1689.000000	49.456054
1688.000000	49.507809
1687.000000	49.582966
1686.000000	49.661830
1685.000000	49.742172
1684.000000	49.819014
1683.000000	49.908714
1682.000000	49.989670
1681.000000	50.087805
1680.000000	50.192718
1679.000000	50.277530
1678.000000	50.395594
1677.000000	50.467415
1676.000000	50.563267
1675.000000	50.655218
1674.000000	50.757520
1673.000000	50.858803
1672.000000	50.938722
1671.000000	51.029029
1670.000000	51.124385
1669.000000	51.220197
1668.000000	51.284352
1667.000000	51.361155
1666.000000	51.408657
1665.000000	51.423191
1664.000000	51.483009
1663.000000	51.532531
1662.000000	51.590765
1661.000000	51.628096
1660.000000	51.632980
1659.000000	51.692592
1658.000000	51.721387
1657.000000	51.722577
1656.000000	51.739776
1655.000000	51.758669
1654.000000	51.772257
1653.000000	51.771310
1652.000000	51.774410
1651.000000	51.781505
1650.000000	51.781698
1649.000000	51.765612
1648.000000	51.752958
1647.000000	51.750373
1646.000000	51.746338
1645.000000	51.716701
1644.000000	51.707245
1643.000000	51.699617
1642.000000	51.669113
1641.000000	51.658602
1640.000000	51.650920
1639.000000	51.624353
1638.000000	51.595099
1637.000000	51.594036
1636.000000	51.562964
1635.000000	51.533120
1634.000000	51.512725
1633.000000	51.482429
1632.000000	51.464303
1631.000000	51.430243
1630.000000	51.396430
1629.000000	51.379840
1628.000000	51.350925
1627.000000	51.315824
1626.000000	51.277662
1625.000000	51.263830
1624.000000	51.245216
1623.000000	51.202458
1622.000000	51.165797
1621.000000	51.136016
1620.000000	51.107869
1619.000000	51.073595
1618.000000	51.040789
1617.000000	51.006242
1616.000000	50.962810
1615.000000	50.917937
1614.000000	50.885837
1613.000000	50.864721
1612.000000	50.821628
1611.000000	50.768218
1610.000000	50.730989
1609.000000	50.707670
1608.000000	50.680957
1607.000000	50.643698
1606.000000	50.611524
1605.000000	50.573025
1604.000000	50.522092
1603.000000	50.489396
1602.000000	50.468515
1601.000000	50.422118
1600.000000	50.375461
1599.000000	50.332375
1598.000000	50.304453
1597.000000	50.283141
1596.000000	50.251633
1595.000000	50.213976
1594.000000	50.175515
1593.000000	50.144545
1592.000000	50.117195
1591.000000	50.095536
1590.000000	50.066383
1589.000000	50.026451
1588.000000	49.987842
1587.000000	49.963120
1586.000000	49.947755
1585.000000	49.909056
1584.000000	49.863498
1583.000000	49.836123
1582.000000	49.816809
1581.000000	49.788430
1580.000000	49.765668
1579.000000	49.735184
1578.000000	49.709261
1577.000000	49.683481
1576.000000	49.648463
1575.000000	49.615907
1574.000000	49.583643
1573.000000	49.549668
1572.000000	49.522610
1571.000000	49.497854
1570.000000	49.478011
1569.000000	49.460548
1568.000000	49.428399
1567.000000	49.403681
1566.000000	49.382943
1565.000000	49.365442
1564.000000	49.347550
1563.000000	49.333615
1562.000000	49.293927
1561.000000	49.266747
1560.000000	49.247530
1559.000000	49.227487
1558.000000	49.220265
1557.000000	49.209446
1556.000000	49.186829
1555.000000	49.156489
1554.000000	49.144806
1553.000000	49.133324
1552.000000	49.115613
1551.000000	49.079541
1550.000000	49.053266
1549.000000	49.021823
1548.000000	48.980771
1547.000000	48.961944
1546.000000	48.915025
1545.000000	48.865936
1544.000000	48.807523
1543.000000	48.775421
1542.000000	48.732382
1541.000000	48.683452
1540.000000	48.620753
1539.000000	48.574563
1538.000000	48.513195
1537.000000	48.460393
1536.000000	48.407686
1535.000000	48.345777
1534.000000	48.300712
1533.000000	48.261755
1532.000000	48.205295
1531.000000	48.147817
1530.000000	48.100792
1529.000000	48.051333
1528.000000	47.995716
1527.000000	47.950873
1526.000000	47.920050
1525.000000	47.877922
1524.000000	47.842490
1523.000000	47.796837
1522.000000	47.779372
1521.000000	47.729249
1520.000000	47.708153
1519.000000	47.680870
1518.000000	47.668226
1517.000000	47.619324
1516.000000	47.599131
1515.000000	47.605647
1514.000000	47.614228
1513.000000	47.613666
1512.000000	47.617870
1511.000000	47.577576
1510.000000	47.539593
1509.000000	47.514469
1508.000000	47.482661
1507.000000	47.461226
1506.000000	47.428370
1505.000000	47.418781
1504.000000	47.394626
1503.000000	47.394189
1502.000000	47.389299
1501.000000	47.374675
1500.000000	47.372871
1499.000000	47.369792
1498.000000	47.353828
1497.000000	47.361744
1496.000000	47.352252
1495.000000	47.363908
1494.000000	47.369610
1493.000000	47.364180
1492.000000	47.367452
1491.000000	47.379696
1490.000000	47.370964
1489.000000	47.405154
1488.000000	47.412388
1487.000000	47.431576
1486.000000	47.457470
1485.000000	47.447846
1484.000000	47.472682
1483.000000	47.488012
1482.000000	47.514637
1481.000000	47.532371
1480.000000	47.548922
1479.000000	47.562170
1478.000000	47.593918
1477.000000	47.586301
1476.000000	47.607185
1475.000000	47.590821
1474.000000	47.629129
1473.000000	47.647548
1472.000000	47.637407
1471.000000	47.668932
1470.000000	47.700462
