PE UV       SUBTECH     SPECTRUM    ASCII       PEDS        4.00        
   -1
RTms499182.Sample.asc
18/03/23
09:37:41.00
18/03/23
09:37:41.00
Administrator

200.000000
1
Lambda 750
750N8071901
PerkinElmer UV WinLab 6.0.4.0738 / 1.61.00 Lambda 900

0
0
3350/servo 860.8/2
0
0
UV/VIS
1
1
1
CommonBeamDepol,150mm sphere / downward view
0
0
0
0
Program
Program
3350/servo 860.8/2
3350/0.2 860.8/0.2
3350/0.2 860.8/0.2
0
1
 
 
 
0
 
860.8
319.2
860.8
Front
100
on
 
 
0
0
0
 
0
 
 
 
0
 
 
0
0
0
0
0
 
 
 
 
0
0


0
0
#HDR
-1
-1
#GR
nm
%R
1.0
0.0
2350.000000
-1.000000
2151
8
62.302314
6.465938
#DATA
2350.000000	33.872878
2349.000000	34.064885
2348.000000	33.866053
2347.000000	34.771307
2346.000000	34.466824
2345.000000	34.029346
2344.000000	33.826197
2343.000000	33.840357
2342.000000	34.284271
2341.000000	34.308553
2340.000000	34.733333
2339.000000	34.698207
2338.000000	34.761038
2337.000000	34.751891
2336.000000	34.636501
2335.000000	35.124617
2334.000000	34.727817
2333.000000	34.952689
2332.000000	34.839778
2331.000000	34.756571
2330.000000	34.838134
2329.000000	34.666741
2328.000000	34.814420
2327.000000	34.487876
2326.000000	34.548164
2325.000000	34.720413
2324.000000	34.522354
2323.000000	34.540280
2322.000000	34.257016
2321.000000	34.271578
2320.000000	34.099866
2319.000000	33.990731
2318.000000	34.377915
2317.000000	34.355284
2316.000000	34.052800
2315.000000	33.888992
2314.000000	34.047448
2313.000000	33.819994
2312.000000	33.715399
2311.000000	33.850965
2310.000000	33.570749
2309.000000	33.794228
2308.000000	33.580634
2307.000000	33.630167
2306.000000	33.392234
2305.000000	33.496167
2304.000000	33.362230
2303.000000	33.615583
2302.000000	33.433107
2301.000000	33.336990
2300.000000	33.298911
2299.000000	33.122241
2298.000000	32.936112
2297.000000	33.078726
2296.000000	33.160720
2295.000000	33.171974
2294.000000	33.108185
2293.000000	32.985275
2292.000000	32.790324
2291.000000	32.680173
2290.000000	32.685254
2289.000000	32.752145
2288.000000	32.805955
2287.000000	32.789189
2286.000000	32.629318
2285.000000	32.633375
2284.000000	32.723835
2283.000000	32.597034
2282.000000	32.569284
2281.000000	32.719662
2280.000000	32.762574
2279.000000	32.717597
2278.000000	32.666798
2277.000000	32.697080
2276.000000	32.884470
2275.000000	32.876904
2274.000000	32.865004
2273.000000	32.988295
2272.000000	33.073612
2271.000000	33.049809
2270.000000	33.175657
2269.000000	33.311310
2268.000000	33.383399
2267.000000	33.386664
2266.000000	33.463047
2265.000000	33.705161
2264.000000	33.840870
2263.000000	33.894129
2262.000000	34.057247
2261.000000	34.214958
2260.000000	34.285190
2259.000000	34.516346
2258.000000	34.829175
2257.000000	35.025642
2256.000000	35.149336
2255.000000	35.332140
2254.000000	35.386089
2253.000000	35.455915
2252.000000	35.727761
2251.000000	35.937571
2250.000000	36.075998
2249.000000	36.276031
2248.000000	36.494191
2247.000000	36.594742
2246.000000	36.840312
2245.000000	37.101225
2244.000000	37.386289
2243.000000	37.569133
2242.000000	37.600629
2241.000000	37.690493
2240.000000	37.766381
2239.000000	37.980685
2238.000000	38.104700
2237.000000	38.155430
2236.000000	38.251640
2235.000000	38.243938
2234.000000	38.342446
2233.000000	38.469723
2232.000000	38.495780
2231.000000	38.569834
2230.000000	38.563759
2229.000000	38.722146
2228.000000	38.887073
2227.000000	38.907176
2226.000000	38.833922
2225.000000	38.721271
2224.000000	38.675881
2223.000000	38.628590
2222.000000	38.654221
2221.000000	38.656765
2220.000000	38.712517
2219.000000	38.794888
2218.000000	38.704170
2217.000000	38.684581
2216.000000	38.590706
2215.000000	38.515508
2214.000000	38.489790
2213.000000	38.567434
2212.000000	38.440724
2211.000000	38.434277
2210.000000	38.388019
2209.000000	38.330693
2208.000000	38.167039
2207.000000	38.166359
2206.000000	38.109580
2205.000000	38.117309
2204.000000	38.004955
2203.000000	37.834051
2202.000000	37.828045
2201.000000	37.762385
2200.000000	37.668852
2199.000000	37.676111
2198.000000	37.657307
2197.000000	37.561294
2196.000000	37.387487
2195.000000	37.379792
2194.000000	37.373913
2193.000000	37.319433
2192.000000	37.158008
2191.000000	37.112212
2190.000000	36.935080
2189.000000	37.060494
2188.000000	37.100018
2187.000000	36.852087
2186.000000	36.824536
2185.000000	36.784983
2184.000000	36.835986
2183.000000	36.805656
2182.000000	36.903943
2181.000000	36.841956
2180.000000	36.794934
2179.000000	36.820348
2178.000000	36.555769
2177.000000	36.680940
2176.000000	36.672667
2175.000000	36.835974
2174.000000	36.851699
2173.000000	36.856220
2172.000000	36.963164
2171.000000	37.019155
2170.000000	36.866553
2169.000000	36.955661
2168.000000	37.271037
2167.000000	37.090834
2166.000000	37.142314
2165.000000	37.319038
2164.000000	37.384548
2163.000000	37.377415
2162.000000	37.440528
2161.000000	37.584357
2160.000000	37.762416
2159.000000	37.885972
2158.000000	37.927955
2157.000000	38.191280
2156.000000	38.560096
2155.000000	38.458705
2154.000000	38.635726
2153.000000	38.696182
2152.000000	38.732178
2151.000000	38.742430
2150.000000	38.877888
2149.000000	39.154476
2148.000000	39.051028
2147.000000	39.277249
2146.000000	39.588171
2145.000000	39.760075
2144.000000	39.660148
2143.000000	39.740865
2142.000000	39.766486
2141.000000	40.021452
2140.000000	40.119744
2139.000000	40.129803
2138.000000	40.461022
2137.000000	40.496005
2136.000000	40.499206
2135.000000	40.669725
2134.000000	40.787189
2133.000000	40.665850
2132.000000	40.637485
2131.000000	41.014641
2130.000000	41.104266
2129.000000	41.108622
2128.000000	40.909095
2127.000000	40.998630
2126.000000	41.099204
2125.000000	41.079616
2124.000000	41.298075
2123.000000	41.393245
2122.000000	41.361129
2121.000000	41.604912
2120.000000	41.308001
2119.000000	41.410227
2118.000000	41.464722
2117.000000	41.477520
2116.000000	41.541899
2115.000000	41.582372
2114.000000	41.448075
2113.000000	41.453681
2112.000000	41.643387
2111.000000	41.524765
2110.000000	41.582498
2109.000000	41.665301
2108.000000	41.641355
2107.000000	41.711889
2106.000000	41.664542
2105.000000	41.766162
2104.000000	41.648445
2103.000000	41.734408
2102.000000	41.723993
2101.000000	41.768091
2100.000000	41.754810
2099.000000	41.679755
2098.000000	41.683351
2097.000000	41.727502
2096.000000	41.806108
2095.000000	41.695937
2094.000000	41.713539
2093.000000	41.747870
2092.000000	41.738259
2091.000000	41.703878
2090.000000	41.670422
2089.000000	41.599296
2088.000000	41.617693
2087.000000	41.614890
2086.000000	41.649753
2085.000000	41.633880
2084.000000	41.600557
2083.000000	41.443373
2082.000000	41.341755
2081.000000	41.354805
2080.000000	41.349629
2079.000000	41.298023
2078.000000	41.149449
2077.000000	41.187159
2076.000000	41.124628
2075.000000	40.964964
2074.000000	40.871606
2073.000000	40.795021
2072.000000	40.720808
2071.000000	40.672649
2070.000000	40.464446
2069.000000	40.278083
2068.000000	40.147317
2067.000000	40.098038
2066.000000	40.017308
2065.000000	39.900505
2064.000000	39.800666
2063.000000	39.702999
2062.000000	39.598423
2061.000000	39.413802
2060.000000	39.234620
2059.000000	39.144806
2058.000000	38.986386
2057.000000	38.815167
2056.000000	38.722916
2055.000000	38.656778
2054.000000	38.480837
2053.000000	38.361497
2052.000000	38.208514
2051.000000	38.158186
2050.000000	38.108771
2049.000000	38.043019
2048.000000	37.922948
2047.000000	37.841180
2046.000000	37.809620
2045.000000	37.827793
2044.000000	37.826971
2043.000000	37.748599
2042.000000	37.710119
2041.000000	37.786262
2040.000000	37.836760
2039.000000	37.819480
2038.000000	37.855541
2037.000000	37.877600
2036.000000	37.913744
2035.000000	38.005129
2034.000000	38.080603
2033.000000	38.152632
2032.000000	38.293724
2031.000000	38.387847
2030.000000	38.457712
2029.000000	38.582382
2028.000000	38.680737
2027.000000	38.759103
2026.000000	38.837338
2025.000000	38.884449
2024.000000	38.921752
2023.000000	38.988686
2022.000000	39.049381
2021.000000	39.056938
2020.000000	39.103621
2019.000000	39.111064
2018.000000	39.093034
2017.000000	39.089269
2016.000000	39.098818
2015.000000	39.078559
2014.000000	39.040847
2013.000000	39.005530
2012.000000	38.952800
2011.000000	38.912588
2010.000000	38.876054
2009.000000	38.795118
2008.000000	38.723363
2007.000000	38.647549
2006.000000	38.547902
2005.000000	38.481815
2004.000000	38.387853
2003.000000	38.288218
2002.000000	38.189166
2001.000000	38.082752
2000.000000	37.977753
1999.000000	37.896529
1998.000000	37.810217
1997.000000	37.674592
1996.000000	37.590665
1995.000000	37.510694
1994.000000	37.370290
1993.000000	37.252320
1992.000000	37.160183
1991.000000	37.028116
1990.000000	36.890309
1989.000000	36.747346
1988.000000	36.672294
1987.000000	36.594885
1986.000000	36.468307
1985.000000	36.353787
1984.000000	36.261021
1983.000000	36.159082
1982.000000	36.044002
1981.000000	35.934067
1980.000000	35.812569
1979.000000	35.687514
1978.000000	35.608493
1977.000000	35.476622
1976.000000	35.389993
1975.000000	35.275805
1974.000000	35.167948
1973.000000	35.088205
1972.000000	34.996798
1971.000000	34.844945
1970.000000	34.740824
1969.000000	34.633971
1968.000000	34.557580
1967.000000	34.455036
1966.000000	34.369046
1965.000000	34.235358
1964.000000	34.145188
1963.000000	34.055226
1962.000000	33.949082
1961.000000	33.853702
1960.000000	33.777339
1959.000000	33.689977
1958.000000	33.603091
1957.000000	33.507036
1956.000000	33.461092
1955.000000	33.358009
1954.000000	33.303645
1953.000000	33.219508
1952.000000	33.198800
1951.000000	33.122864
1950.000000	33.048623
1949.000000	33.022252
1948.000000	32.985507
1947.000000	32.916330
1946.000000	32.927549
1945.000000	32.933948
1944.000000	32.819661
1943.000000	32.901494
1942.000000	32.914841
1941.000000	32.904091
1940.000000	32.973892
1939.000000	33.026652
1938.000000	33.050085
1937.000000	33.173949
1936.000000	33.259416
1935.000000	33.280928
1934.000000	33.423168
1933.000000	33.571259
1932.000000	33.663217
1931.000000	33.784338
1930.000000	33.967489
1929.000000	34.156830
1928.000000	34.244353
1927.000000	34.501738
1926.000000	34.656631
1925.000000	34.850137
1924.000000	35.082806
1923.000000	35.359649
1922.000000	35.585714
1921.000000	35.962540
1920.000000	36.102734
1919.000000	36.405682
1918.000000	36.690667
1917.000000	37.132291
1916.000000	37.283244
1915.000000	37.756375
1914.000000	38.025606
1913.000000	38.437175
1912.000000	38.794145
1911.000000	39.120225
1910.000000	39.605420
1909.000000	39.985558
1908.000000	40.365875
1907.000000	40.770408
1906.000000	41.177038
1905.000000	41.709878
1904.000000	42.151073
1903.000000	42.620414
1902.000000	43.056469
1901.000000	43.577976
1900.000000	43.991763
1899.000000	44.499495
1898.000000	44.956185
1897.000000	45.416070
1896.000000	45.866228
1895.000000	46.303286
1894.000000	46.719606
1893.000000	47.202226
1892.000000	47.618481
1891.000000	47.998122
1890.000000	48.387143
1889.000000	48.803768
1888.000000	49.109052
1887.000000	49.504183
1886.000000	49.860999
1885.000000	50.217583
1884.000000	50.531447
1883.000000	50.874186
1882.000000	51.174536
1881.000000	51.377064
1880.000000	51.681284
1879.000000	51.956787
1878.000000	52.246225
1877.000000	52.514982
1876.000000	52.703656
1875.000000	52.923873
1874.000000	53.114176
1873.000000	53.325951
1872.000000	53.547336
1871.000000	53.706626
1870.000000	53.827590
1869.000000	53.949554
1868.000000	54.133579
1867.000000	54.233629
1866.000000	54.331413
1865.000000	54.419762
1864.000000	54.474900
1863.000000	54.535053
1862.000000	54.617355
1861.000000	54.617949
1860.000000	54.668828
1859.000000	54.746825
1858.000000	54.785099
1857.000000	54.825391
1856.000000	54.835397
1855.000000	54.849767
1854.000000	54.872312
1853.000000	54.886208
1852.000000	54.885900
1851.000000	54.879608
1850.000000	54.858962
1849.000000	54.876687
1848.000000	54.918800
1847.000000	54.926044
1846.000000	54.907307
1845.000000	54.912403
1844.000000	54.900654
1843.000000	54.874838
1842.000000	54.848467
1841.000000	54.823504
1840.000000	54.796499
1839.000000	54.789302
1838.000000	54.763463
1837.000000	54.715564
1836.000000	54.688407
1835.000000	54.658118
1834.000000	54.610000
1833.000000	54.590325
1832.000000	54.544393
1831.000000	54.502323
1830.000000	54.459234
1829.000000	54.429516
1828.000000	54.396314
1827.000000	54.377259
1826.000000	54.347848
1825.000000	54.317787
1824.000000	54.298514
1823.000000	54.250294
1822.000000	54.190267
1821.000000	54.166518
1820.000000	54.132528
1819.000000	54.105754
1818.000000	54.066558
1817.000000	54.030830
1816.000000	54.003995
1815.000000	53.974967
1814.000000	53.956455
1813.000000	53.929493
1812.000000	53.884374
1811.000000	53.842123
1810.000000	53.827916
1809.000000	53.808908
1808.000000	53.764313
1807.000000	53.726954
1806.000000	53.713048
1805.000000	53.696461
1804.000000	53.659641
1803.000000	53.619042
1802.000000	53.583396
1801.000000	53.560962
1800.000000	53.532710
1799.000000	53.514123
1798.000000	53.487951
1797.000000	53.455098
1796.000000	53.428085
1795.000000	53.393572
1794.000000	53.381418
1793.000000	53.363396
1792.000000	53.354612
1791.000000	53.338297
1790.000000	53.300077
1789.000000	53.262641
1788.000000	53.247909
1787.000000	53.227379
1786.000000	53.197334
1785.000000	53.162146
1784.000000	53.146986
1783.000000	53.099032
1782.000000	53.059838
1781.000000	53.043118
1780.000000	52.995241
1779.000000	52.950929
1778.000000	52.910149
1777.000000	52.865634
1776.000000	52.835983
1775.000000	52.779243
1774.000000	52.734208
1773.000000	52.700262
1772.000000	52.650723
1771.000000	52.591819
1770.000000	52.556738
1769.000000	52.498432
1768.000000	52.484514
1767.000000	52.426340
1766.000000	52.387746
1765.000000	52.373546
1764.000000	52.338939
1763.000000	52.270053
1762.000000	52.235937
1761.000000	52.190362
1760.000000	52.143839
1759.000000	52.103977
1758.000000	52.090817
1757.000000	52.023959
1756.000000	51.990759
1755.000000	51.965243
1754.000000	51.903303
1753.000000	51.856655
1752.000000	51.794817
1751.000000	51.756896
1750.000000	51.749554
1749.000000	51.705236
1748.000000	51.633254
1747.000000	51.605241
1746.000000	51.531812
1745.000000	51.471704
1744.000000	51.413352
1743.000000	51.348673
1742.000000	51.301162
1741.000000	51.267675
1740.000000	51.227861
1739.000000	51.158786
1738.000000	51.134261
1737.000000	51.088156
1736.000000	51.041075
1735.000000	51.036465
1734.000000	51.066574
1733.000000	51.026176
1732.000000	51.008397
1731.000000	51.026048
1730.000000	51.036889
1729.000000	51.080791
1728.000000	51.116983
1727.000000	51.136477
1726.000000	51.236964
1725.000000	51.274032
1724.000000	51.332254
1723.000000	51.404534
1722.000000	51.505186
1721.000000	51.605734
1720.000000	51.692950
1719.000000	51.799261
1718.000000	51.853273
1717.000000	51.977142
1716.000000	52.079450
1715.000000	52.132460
1714.000000	52.226448
1713.000000	52.286760
1712.000000	52.360331
1711.000000	52.440443
1710.000000	52.514975
1709.000000	52.548854
1708.000000	52.624630
1707.000000	52.666410
1706.000000	52.712174
1705.000000	52.751516
1704.000000	52.788285
1703.000000	52.802789
1702.000000	52.799657
1701.000000	52.866077
1700.000000	52.898426
1699.000000	52.874921
1698.000000	52.912990
1697.000000	52.957101
1696.000000	53.009581
1695.000000	53.012113
1694.000000	53.048484
1693.000000	53.102023
1692.000000	53.154488
1691.000000	53.217525
1690.000000	53.319689
1689.000000	53.388755
1688.000000	53.435263
1687.000000	53.535343
1686.000000	53.631409
1685.000000	53.746198
1684.000000	53.848541
1683.000000	53.980456
1682.000000	54.101255
1681.000000	54.251872
1680.000000	54.373366
1679.000000	54.501093
1678.000000	54.642479
1677.000000	54.742148
1676.000000	54.885092
1675.000000	55.020589
1674.000000	55.151911
1673.000000	55.281506
1672.000000	55.419852
1671.000000	55.519450
1670.000000	55.660291
1669.000000	55.795504
1668.000000	55.909140
1667.000000	55.969118
1666.000000	56.051854
1665.000000	56.111548
1664.000000	56.184470
1663.000000	56.259030
1662.000000	56.330453
1661.000000	56.419797
1660.000000	56.430547
1659.000000	56.480154
1658.000000	56.527415
1657.000000	56.547013
1656.000000	56.582868
1655.000000	56.599090
1654.000000	56.612722
1653.000000	56.633092
1652.000000	56.638179
1651.000000	56.633173
1650.000000	56.640152
1649.000000	56.647001
1648.000000	56.643800
1647.000000	56.621444
1646.000000	56.625402
1645.000000	56.591971
1644.000000	56.586222
1643.000000	56.583632
1642.000000	56.559611
1641.000000	56.536540
1640.000000	56.520350
1639.000000	56.472488
1638.000000	56.459839
1637.000000	56.445274
1636.000000	56.415560
1635.000000	56.386991
1634.000000	56.342701
1633.000000	56.288765
1632.000000	56.279689
1631.000000	56.230304
1630.000000	56.195147
1629.000000	56.175860
1628.000000	56.144606
1627.000000	56.097144
1626.000000	56.041049
1625.000000	56.004578
1624.000000	55.979429
1623.000000	55.942194
1622.000000	55.877605
1621.000000	55.828495
1620.000000	55.791767
1619.000000	55.747355
1618.000000	55.713809
1617.000000	55.666529
1616.000000	55.594045
1615.000000	55.545824
1614.000000	55.511499
1613.000000	55.462900
1612.000000	55.402157
1611.000000	55.345388
1610.000000	55.296342
1609.000000	55.248496
1608.000000	55.211714
1607.000000	55.160268
1606.000000	55.087522
1605.000000	55.021410
1604.000000	54.955604
1603.000000	54.901434
1602.000000	54.860961
1601.000000	54.817581
1600.000000	54.760434
1599.000000	54.700456
1598.000000	54.656942
1597.000000	54.613065
1596.000000	54.552021
1595.000000	54.495943
1594.000000	54.457857
1593.000000	54.420994
1592.000000	54.374453
1591.000000	54.325376
1590.000000	54.278479
1589.000000	54.224894
1588.000000	54.179253
1587.000000	54.149859
1586.000000	54.113637
1585.000000	54.061972
1584.000000	54.013577
1583.000000	53.973121
1582.000000	53.938559
1581.000000	53.900314
1580.000000	53.858917
1579.000000	53.816007
1578.000000	53.778391
1577.000000	53.742590
1576.000000	53.708937
1575.000000	53.670954
1574.000000	53.619259
1573.000000	53.590808
1572.000000	53.546860
1571.000000	53.511768
1570.000000	53.483454
1569.000000	53.433209
1568.000000	53.401227
1567.000000	53.374600
1566.000000	53.352976
1565.000000	53.326268
1564.000000	53.297645
1563.000000	53.290827
1562.000000	53.256766
1561.000000	53.214209
1560.000000	53.202334
1559.000000	53.178024
1558.000000	53.158249
1557.000000	53.141620
1556.000000	53.119301
1555.000000	53.103855
1554.000000	53.083335
1553.000000	53.058819
1552.000000	53.030243
1551.000000	52.983242
1550.000000	52.979902
1549.000000	52.960360
1548.000000	52.908315
1547.000000	52.860157
1546.000000	52.799196
1545.000000	52.747053
1544.000000	52.685958
1543.000000	52.626436
1542.000000	52.576780
1541.000000	52.513965
1540.000000	52.448074
1539.000000	52.375457
1538.000000	52.295045
1537.000000	52.222510
1536.000000	52.147519
1535.000000	52.076485
1534.000000	52.013148
1533.000000	51.961659
1532.000000	51.888267
1531.000000	51.810488
1530.000000	51.752653
1529.000000	51.685862
1528.000000	51.625455
1527.000000	51.562003
1526.000000	51.506149
1525.000000	51.433597
1524.000000	51.382649
1523.000000	51.344330
1522.000000	51.293125
1521.000000	51.241823
1520.000000	51.233813
1519.000000	51.169253
1518.000000	51.135139
1517.000000	51.102541
1516.000000	51.070675
1515.000000	51.042308
1514.000000	51.062824
1513.000000	51.118837
1512.000000	51.153064
1511.000000	51.132499
1510.000000	51.084292
1509.000000	51.031641
1508.000000	50.992715
1507.000000	50.982830
1506.000000	50.947271
1505.000000	50.927289
1504.000000	50.900573
1503.000000	50.891225
1502.000000	50.875219
1501.000000	50.869649
1500.000000	50.852412
1499.000000	50.831229
1498.000000	50.827844
1497.000000	50.837468
1496.000000	50.838604
1495.000000	50.832343
1494.000000	50.835463
1493.000000	50.841678
1492.000000	50.852594
1491.000000	50.852209
1490.000000	50.861565
1489.000000	50.908690
1488.000000	50.905291
1487.000000	50.930190
1486.000000	50.955572
1485.000000	50.971491
1484.000000	50.992771
1483.000000	51.008802
1482.000000	51.057615
1481.000000	51.078139
1480.000000	51.110142
1479.000000	51.131445
1478.000000	51.184354
1477.000000	51.193402
1476.000000	51.205635
1475.000000	51.239509
1474.000000	51.281300
1473.000000	51.292908
1472.000000	51.317532
1471.000000	51.333920
1470.000000	51.351360
