PE UV       SUBTECH     SPECTRUM    ASCII       PEDS        4.00        
   -1
TTms4991722.Sample.asc
18/03/23
11:07:47.00
18/03/23
11:07:47.00
Administrator

200.000000
1
Lambda 750
750N8071901
PerkinElmer UV WinLab 6.0.4.0738 / 1.61.00 Lambda 900

0
0
3350/servo 860.8/2
0
0
UV/VIS
1
1
1
CommonBeamDepol,150mm sphere / downward view
0
0
0
0
Program
Program
3350/servo 860.8/2
3350/0.2 860.8/0.2
3350/0.2 860.8/0.2
0
1
 
 
 
0
 
860.8
319.2
860.8
Front
100
on
 
 
0
0
0
 
0
 
 
 
0
 
 
0
0
0
0
0
 
 
 
 
0
0


0
0
#HDR
-1
-1
#GR
nm
%T
1.0
0.0
2350.000000
-1.000000
2151
8
11.949802
-0.024446
#DATA
2350.000000	5.396089
2349.000000	5.093642
2348.000000	5.312282
2347.000000	6.060634
2346.000000	5.448838
2345.000000	5.322102
2344.000000	5.486593
2343.000000	5.030864
2342.000000	5.306910
2341.000000	5.319405
2340.000000	5.537598
2339.000000	5.668070
2338.000000	6.001710
2337.000000	5.711858
2336.000000	5.916772
2335.000000	6.161621
2334.000000	5.873714
2333.000000	6.143099
2332.000000	6.231903
2331.000000	6.117591
2330.000000	6.132350
2329.000000	6.244035
2328.000000	5.903222
2327.000000	5.868516
2326.000000	5.911235
2325.000000	6.350673
2324.000000	5.880650
2323.000000	5.870840
2322.000000	5.638998
2321.000000	5.529474
2320.000000	5.735695
2319.000000	5.703861
2318.000000	5.852566
2317.000000	5.868629
2316.000000	5.711788
2315.000000	5.519550
2314.000000	5.320924
2313.000000	5.312970
2312.000000	5.431739
2311.000000	5.419571
2310.000000	5.542991
2309.000000	5.379778
2308.000000	5.391548
2307.000000	5.454549
2306.000000	5.361772
2305.000000	5.544774
2304.000000	5.551375
2303.000000	5.374992
2302.000000	5.332652
2301.000000	5.252176
2300.000000	5.106600
2299.000000	5.081426
2298.000000	5.069136
2297.000000	5.148804
2296.000000	5.199305
2295.000000	5.269881
2294.000000	5.137080
2293.000000	5.156580
2292.000000	5.231368
2291.000000	5.156477
2290.000000	5.105052
2289.000000	4.988269
2288.000000	5.148613
2287.000000	5.361127
2286.000000	5.209946
2285.000000	5.096301
2284.000000	5.155143
2283.000000	5.223234
2282.000000	5.208532
2281.000000	5.320342
2280.000000	5.278974
2279.000000	5.219994
2278.000000	5.152490
2277.000000	5.117239
2276.000000	5.171218
2275.000000	5.133085
2274.000000	5.149092
2273.000000	5.349922
2272.000000	5.362432
2271.000000	5.292301
2270.000000	5.346646
2269.000000	5.298365
2268.000000	5.203056
2267.000000	5.200204
2266.000000	5.288290
2265.000000	5.325925
2264.000000	5.469635
2263.000000	5.520895
2262.000000	5.656559
2261.000000	5.622703
2260.000000	5.614153
2259.000000	5.773463
2258.000000	5.812184
2257.000000	5.791534
2256.000000	5.755225
2255.000000	5.882897
2254.000000	5.912952
2253.000000	5.912906
2252.000000	6.005000
2251.000000	5.961364
2250.000000	6.023685
2249.000000	6.208444
2248.000000	6.292970
2247.000000	6.391635
2246.000000	6.461090
2245.000000	6.488769
2244.000000	6.508167
2243.000000	6.636066
2242.000000	6.676818
2241.000000	6.641998
2240.000000	6.697469
2239.000000	6.719308
2238.000000	6.697322
2237.000000	6.733461
2236.000000	6.757582
2235.000000	6.923112
2234.000000	7.031829
2233.000000	6.891043
2232.000000	6.871012
2231.000000	6.905781
2230.000000	6.970611
2229.000000	7.074643
2228.000000	7.086776
2227.000000	7.008665
2226.000000	7.021093
2225.000000	7.034632
2224.000000	7.049882
2223.000000	6.987680
2222.000000	6.944325
2221.000000	7.024221
2220.000000	7.044371
2219.000000	7.056163
2218.000000	7.013158
2217.000000	6.975737
2216.000000	6.866071
2215.000000	6.822725
2214.000000	6.973185
2213.000000	7.062949
2212.000000	6.905137
2211.000000	6.837490
2210.000000	6.882174
2209.000000	6.837852
2208.000000	6.687104
2207.000000	6.687547
2206.000000	6.668938
2205.000000	6.603664
2204.000000	6.652620
2203.000000	6.662962
2202.000000	6.645019
2201.000000	6.657983
2200.000000	6.598882
2199.000000	6.573166
2198.000000	6.671515
2197.000000	6.546154
2196.000000	6.546598
2195.000000	6.480584
2194.000000	6.390012
2193.000000	6.337421
2192.000000	6.333823
2191.000000	6.275478
2190.000000	6.299061
2189.000000	6.281594
2188.000000	6.318367
2187.000000	6.167756
2186.000000	6.139397
2185.000000	6.286641
2184.000000	6.354262
2183.000000	6.213946
2182.000000	6.335342
2181.000000	6.467055
2180.000000	6.355100
2179.000000	6.260124
2178.000000	6.270319
2177.000000	6.047775
2176.000000	6.109465
2175.000000	6.161798
2174.000000	6.275106
2173.000000	6.203056
2172.000000	6.278520
2171.000000	6.194286
2170.000000	6.250303
2169.000000	6.301414
2168.000000	6.440828
2167.000000	6.268604
2166.000000	6.313328
2165.000000	6.516055
2164.000000	6.511596
2163.000000	6.413746
2162.000000	6.471325
2161.000000	6.349124
2160.000000	6.476638
2159.000000	6.506832
2158.000000	6.642398
2157.000000	6.559283
2156.000000	6.618945
2155.000000	6.659536
2154.000000	6.768685
2153.000000	6.791652
2152.000000	6.791343
2151.000000	6.787982
2150.000000	6.743451
2149.000000	6.807271
2148.000000	6.998044
2147.000000	7.004719
2146.000000	6.854651
2145.000000	7.039869
2144.000000	7.061086
2143.000000	6.969781
2142.000000	7.025297
2141.000000	7.021601
2140.000000	7.190099
2139.000000	7.203075
2138.000000	7.146838
2137.000000	7.141530
2136.000000	7.131312
2135.000000	7.072565
2134.000000	7.466661
2133.000000	7.110352
2132.000000	7.279727
2131.000000	7.321542
2130.000000	7.225578
2129.000000	7.299747
2128.000000	7.367177
2127.000000	7.331556
2126.000000	7.370415
2125.000000	7.288138
2124.000000	7.371740
2123.000000	7.518193
2122.000000	7.454201
2121.000000	7.526477
2120.000000	7.388280
2119.000000	7.445808
2118.000000	7.422569
2117.000000	7.481631
2116.000000	7.372185
2115.000000	7.495446
2114.000000	7.463119
2113.000000	7.413769
2112.000000	7.353455
2111.000000	7.314752
2110.000000	7.379596
2109.000000	7.401641
2108.000000	7.358132
2107.000000	7.386018
2106.000000	7.489943
2105.000000	7.446566
2104.000000	7.502674
2103.000000	7.451431
2102.000000	7.527432
2101.000000	7.529091
2100.000000	7.539792
2099.000000	7.570879
2098.000000	7.480399
2097.000000	7.345653
2096.000000	7.378305
2095.000000	7.337344
2094.000000	7.388621
2093.000000	7.351709
2092.000000	7.378108
2091.000000	7.416610
2090.000000	7.449692
2089.000000	7.375744
2088.000000	7.394322
2087.000000	7.449395
2086.000000	7.386674
2085.000000	7.427914
2084.000000	7.357835
2083.000000	7.338799
2082.000000	7.283473
2081.000000	7.244682
2080.000000	7.269747
2079.000000	7.255807
2078.000000	7.128700
2077.000000	7.188048
2076.000000	7.254733
2075.000000	7.136546
2074.000000	7.126306
2073.000000	7.103057
2072.000000	7.047388
2071.000000	7.005434
2070.000000	7.025189
2069.000000	6.983609
2068.000000	6.928437
2067.000000	6.776832
2066.000000	6.778991
2065.000000	6.825798
2064.000000	6.719417
2063.000000	6.611470
2062.000000	6.680473
2061.000000	6.607946
2060.000000	6.538089
2059.000000	6.553326
2058.000000	6.504084
2057.000000	6.402782
2056.000000	6.391199
2055.000000	6.411080
2054.000000	6.363835
2053.000000	6.284553
2052.000000	6.217549
2051.000000	6.169162
2050.000000	6.167449
2049.000000	6.135038
2048.000000	6.080128
2047.000000	6.122219
2046.000000	6.074390
2045.000000	6.014980
2044.000000	6.063610
2043.000000	6.039496
2042.000000	6.029920
2041.000000	6.077997
2040.000000	6.129015
2039.000000	6.112650
2038.000000	6.156607
2037.000000	6.203022
2036.000000	6.172387
2035.000000	6.169081
2034.000000	6.188154
2033.000000	6.210098
2032.000000	6.233269
2031.000000	6.289110
2030.000000	6.350418
2029.000000	6.345292
2028.000000	6.333544
2027.000000	6.398002
2026.000000	6.475565
2025.000000	6.467438
2024.000000	6.475177
2023.000000	6.497911
2022.000000	6.499816
2021.000000	6.499384
2020.000000	6.491090
2019.000000	6.483779
2018.000000	6.530373
2017.000000	6.556699
2016.000000	6.520262
2015.000000	6.472635
2014.000000	6.442706
2013.000000	6.425875
2012.000000	6.429063
2011.000000	6.426275
2010.000000	6.389343
2009.000000	6.343082
2008.000000	6.297113
2007.000000	6.292976
2006.000000	6.279737
2005.000000	6.249377
2004.000000	6.230090
2003.000000	6.174696
2002.000000	6.138923
2001.000000	6.142153
2000.000000	6.116562
1999.000000	6.045611
1998.000000	5.986360
1997.000000	5.967600
1996.000000	5.975138
1995.000000	5.962295
1994.000000	5.913660
1993.000000	5.857989
1992.000000	5.831272
1991.000000	5.799066
1990.000000	5.765921
1989.000000	5.720923
1988.000000	5.688476
1987.000000	5.664238
1986.000000	5.629786
1985.000000	5.600050
1984.000000	5.545024
1983.000000	5.521514
1982.000000	5.513974
1981.000000	5.495134
1980.000000	5.436801
1979.000000	5.400679
1978.000000	5.367079
1977.000000	5.350317
1976.000000	5.305024
1975.000000	5.233772
1974.000000	5.209968
1973.000000	5.197008
1972.000000	5.158689
1971.000000	5.179719
1970.000000	5.170805
1969.000000	5.106885
1968.000000	5.093305
1967.000000	5.097585
1966.000000	5.075829
1965.000000	5.050985
1964.000000	5.005482
1963.000000	4.976444
1962.000000	4.970642
1961.000000	4.975353
1960.000000	4.883585
1959.000000	4.841342
1958.000000	4.878523
1957.000000	4.864681
1956.000000	4.861901
1955.000000	4.854304
1954.000000	4.781426
1953.000000	4.743247
1952.000000	4.744065
1951.000000	4.738867
1950.000000	4.748875
1949.000000	4.745445
1948.000000	4.755861
1947.000000	4.743516
1946.000000	4.694100
1945.000000	4.751538
1944.000000	4.716460
1943.000000	4.722916
1942.000000	4.742322
1941.000000	4.707711
1940.000000	4.714866
1939.000000	4.777935
1938.000000	4.798127
1937.000000	4.779499
1936.000000	4.828400
1935.000000	4.968907
1934.000000	4.923995
1933.000000	4.934325
1932.000000	4.977295
1931.000000	5.034727
1930.000000	5.071453
1929.000000	5.085617
1928.000000	5.187929
1927.000000	5.299276
1926.000000	5.254024
1925.000000	5.319829
1924.000000	5.347517
1923.000000	5.413431
1922.000000	5.534923
1921.000000	5.645026
1920.000000	5.697271
1919.000000	5.707903
1918.000000	5.820130
1917.000000	5.921738
1916.000000	5.909374
1915.000000	6.135949
1914.000000	6.237338
1913.000000	6.403368
1912.000000	6.427146
1911.000000	6.515128
1910.000000	6.619379
1909.000000	6.753107
1908.000000	6.884631
1907.000000	6.986453
1906.000000	7.091304
1905.000000	7.341424
1904.000000	7.358864
1903.000000	7.585606
1902.000000	7.710227
1901.000000	7.868617
1900.000000	8.011287
1899.000000	8.080341
1898.000000	8.315634
1897.000000	8.392838
1896.000000	8.565922
1895.000000	8.735407
1894.000000	8.828805
1893.000000	9.005652
1892.000000	9.100324
1891.000000	9.232558
1890.000000	9.347002
1889.000000	9.494558
1888.000000	9.585985
1887.000000	9.717988
1886.000000	9.847110
1885.000000	9.969943
1884.000000	10.122313
1883.000000	10.261570
1882.000000	10.358999
1881.000000	10.438727
1880.000000	10.492116
1879.000000	10.609859
1878.000000	10.668870
1877.000000	10.772512
1876.000000	10.854471
1875.000000	10.899558
1874.000000	10.998122
1873.000000	11.050332
1872.000000	11.108823
1871.000000	11.119471
1870.000000	11.119771
1869.000000	11.179297
1868.000000	11.204121
1867.000000	11.242557
1866.000000	11.282134
1865.000000	11.302784
1864.000000	11.306905
1863.000000	11.327591
1862.000000	11.329814
1861.000000	11.307041
1860.000000	11.342584
1859.000000	11.344500
1858.000000	11.361521
1857.000000	11.362576
1856.000000	11.369233
1855.000000	11.380309
1854.000000	11.393001
1853.000000	11.384551
1852.000000	11.405827
1851.000000	11.385345
1850.000000	11.400826
1849.000000	11.394001
1848.000000	11.409651
1847.000000	11.400103
1846.000000	11.406664
1845.000000	11.439767
1844.000000	11.386425
1843.000000	11.339764
1842.000000	11.347934
1841.000000	11.355925
1840.000000	11.345957
1839.000000	11.346353
1838.000000	11.324888
1837.000000	11.268646
1836.000000	11.270426
1835.000000	11.267252
1834.000000	11.220543
1833.000000	11.180454
1832.000000	11.169832
1831.000000	11.170428
1830.000000	11.144353
1829.000000	11.107793
1828.000000	11.101483
1827.000000	11.096243
1826.000000	11.057043
1825.000000	11.038291
1824.000000	11.045421
1823.000000	11.046089
1822.000000	11.030708
1821.000000	11.007799
1820.000000	10.970833
1819.000000	10.950066
1818.000000	10.946895
1817.000000	10.946978
1816.000000	10.929160
1815.000000	10.921408
1814.000000	10.916980
1813.000000	10.906022
1812.000000	10.894544
1811.000000	10.872260
1810.000000	10.867504
1809.000000	10.863871
1808.000000	10.857699
1807.000000	10.838874
1806.000000	10.833718
1805.000000	10.823497
1804.000000	10.799939
1803.000000	10.792594
1802.000000	10.794569
1801.000000	10.786766
1800.000000	10.775933
1799.000000	10.770020
1798.000000	10.750057
1797.000000	10.746049
1796.000000	10.760152
1795.000000	10.743113
1794.000000	10.748595
1793.000000	10.755901
1792.000000	10.745291
1791.000000	10.745412
1790.000000	10.744079
1789.000000	10.759402
1788.000000	10.756723
1787.000000	10.735994
1786.000000	10.738039
1785.000000	10.743709
1784.000000	10.744033
1783.000000	10.723710
1782.000000	10.701644
1781.000000	10.699261
1780.000000	10.701050
1779.000000	10.699137
1778.000000	10.675875
1777.000000	10.645179
1776.000000	10.643872
1775.000000	10.645330
1774.000000	10.620598
1773.000000	10.609121
1772.000000	10.582929
1771.000000	10.557307
1770.000000	10.566304
1769.000000	10.546738
1768.000000	10.532957
1767.000000	10.502618
1766.000000	10.489301
1765.000000	10.468903
1764.000000	10.451856
1763.000000	10.409415
1762.000000	10.397184
1761.000000	10.372106
1760.000000	10.380373
1759.000000	10.357114
1758.000000	10.352083
1757.000000	10.323379
1756.000000	10.348138
1755.000000	10.339365
1754.000000	10.311155
1753.000000	10.268660
1752.000000	10.259049
1751.000000	10.245854
1750.000000	10.250413
1749.000000	10.238339
1748.000000	10.198764
1747.000000	10.186371
1746.000000	10.169989
1745.000000	10.136005
1744.000000	10.096973
1743.000000	10.116602
1742.000000	10.089698
1741.000000	10.065120
1740.000000	10.055290
1739.000000	10.010977
1738.000000	10.019316
1737.000000	10.003522
1736.000000	9.976689
1735.000000	9.971710
1734.000000	9.994299
1733.000000	9.983725
1732.000000	9.944985
1731.000000	9.961442
1730.000000	9.964034
1729.000000	9.981214
1728.000000	9.957288
1727.000000	9.975460
1726.000000	9.990926
1725.000000	10.010731
1724.000000	10.054731
1723.000000	10.060164
1722.000000	10.090011
1721.000000	10.107293
1720.000000	10.166251
1719.000000	10.175126
1718.000000	10.212421
1717.000000	10.229530
1716.000000	10.256489
1715.000000	10.269218
1714.000000	10.287779
1713.000000	10.272884
1712.000000	10.320466
1711.000000	10.351104
1710.000000	10.380977
1709.000000	10.394611
1708.000000	10.397644
1707.000000	10.392515
1706.000000	10.389975
1705.000000	10.405848
1704.000000	10.426167
1703.000000	10.416105
1702.000000	10.397331
1701.000000	10.438591
1700.000000	10.439424
1699.000000	10.423218
1698.000000	10.454720
1697.000000	10.474826
1696.000000	10.505664
1695.000000	10.478756
1694.000000	10.492560
1693.000000	10.502710
1692.000000	10.494570
1691.000000	10.517776
1690.000000	10.565619
1689.000000	10.593122
1688.000000	10.608962
1687.000000	10.625525
1686.000000	10.665387
1685.000000	10.697796
1684.000000	10.753243
1683.000000	10.761266
1682.000000	10.794604
1681.000000	10.839522
1680.000000	10.882919
1679.000000	10.904433
1678.000000	10.930552
1677.000000	10.974284
1676.000000	11.018949
1675.000000	11.053213
1674.000000	11.098898
1673.000000	11.126829
1672.000000	11.171221
1671.000000	11.213535
1670.000000	11.255447
1669.000000	11.245027
1668.000000	11.250510
1667.000000	11.286860
1666.000000	11.312495
1665.000000	11.305466
1664.000000	11.334286
1663.000000	11.344981
1662.000000	11.374478
1661.000000	11.394432
1660.000000	11.390421
1659.000000	11.421191
1658.000000	11.437220
1657.000000	11.450037
1656.000000	11.463141
1655.000000	11.458383
1654.000000	11.472516
1653.000000	11.492482
1652.000000	11.495591
1651.000000	11.448979
1650.000000	11.450842
1649.000000	11.452442
1648.000000	11.453649
1647.000000	11.435591
1646.000000	11.410561
1645.000000	11.425987
1644.000000	11.420534
1643.000000	11.400646
1642.000000	11.394511
1641.000000	11.388534
1640.000000	11.384083
1639.000000	11.364876
1638.000000	11.358962
1637.000000	11.363098
1636.000000	11.343547
1635.000000	11.307758
1634.000000	11.288767
1633.000000	11.275718
1632.000000	11.266967
1631.000000	11.269620
1630.000000	11.254147
1629.000000	11.228966
1628.000000	11.223916
1627.000000	11.210802
1626.000000	11.193705
1625.000000	11.178065
1624.000000	11.169755
1623.000000	11.160136
1622.000000	11.144010
1621.000000	11.119170
1620.000000	11.102192
1619.000000	11.095794
1618.000000	11.079230
1617.000000	11.054675
1616.000000	11.038744
1615.000000	11.024100
1614.000000	11.002756
1613.000000	10.983991
1612.000000	10.975221
1611.000000	10.951460
1610.000000	10.944499
1609.000000	10.939813
1608.000000	10.912398
1607.000000	10.894646
1606.000000	10.880163
1605.000000	10.854772
1604.000000	10.837789
1603.000000	10.823880
1602.000000	10.806681
1601.000000	10.790620
1600.000000	10.764402
1599.000000	10.748113
1598.000000	10.740364
1597.000000	10.725869
1596.000000	10.707735
1595.000000	10.693727
1594.000000	10.680221
1593.000000	10.672253
1592.000000	10.664306
1591.000000	10.643277
1590.000000	10.630248
1589.000000	10.616052
1588.000000	10.595321
1587.000000	10.581099
1586.000000	10.574290
1585.000000	10.563061
1584.000000	10.535957
1583.000000	10.521476
1582.000000	10.523677
1581.000000	10.517574
1580.000000	10.504482
1579.000000	10.493778
1578.000000	10.481060
1577.000000	10.457833
1576.000000	10.426991
1575.000000	10.418921
1574.000000	10.404497
1573.000000	10.392580
1572.000000	10.383274
1571.000000	10.373177
1570.000000	10.368383
1569.000000	10.360448
1568.000000	10.345056
1567.000000	10.337185
1566.000000	10.320926
1565.000000	10.310576
1564.000000	10.302388
1563.000000	10.302869
1562.000000	10.289732
1561.000000	10.280080
1560.000000	10.272830
1559.000000	10.261430
1558.000000	10.248073
1557.000000	10.238199
1556.000000	10.212164
1555.000000	10.207751
1554.000000	10.194186
1553.000000	10.185825
1552.000000	10.184809
1551.000000	10.167599
1550.000000	10.151707
1549.000000	10.139115
1548.000000	10.132504
1547.000000	10.113227
1546.000000	10.074236
1545.000000	10.066765
1544.000000	10.024696
1543.000000	9.996329
1542.000000	9.982498
1541.000000	9.969218
1540.000000	9.950199
1539.000000	9.914760
1538.000000	9.891127
1537.000000	9.858326
1536.000000	9.837637
1535.000000	9.801802
1534.000000	9.773791
1533.000000	9.781600
1532.000000	9.749936
1531.000000	9.741530
1530.000000	9.748772
1529.000000	9.774968
1528.000000	9.805714
1527.000000	9.792225
1526.000000	9.743214
1525.000000	9.683061
1524.000000	9.645801
1523.000000	9.634879
1522.000000	9.622399
1521.000000	9.591673
1520.000000	9.579981
1519.000000	9.578076
1518.000000	9.564530
1517.000000	9.531249
1516.000000	9.529326
1515.000000	9.536934
1514.000000	9.501690
1513.000000	9.480744
1512.000000	9.466353
1511.000000	9.435983
1510.000000	9.440054
1509.000000	9.446167
1508.000000	9.433586
1507.000000	9.404035
1506.000000	9.389502
1505.000000	9.395397
1504.000000	9.385205
1503.000000	9.354120
1502.000000	9.356626
1501.000000	9.342684
1500.000000	9.345347
1499.000000	9.335790
1498.000000	9.337175
1497.000000	9.339070
1496.000000	9.322810
1495.000000	9.325662
1494.000000	9.324061
1493.000000	9.323616
1492.000000	9.331892
1491.000000	9.336664
1490.000000	9.341696
1489.000000	9.342220
1488.000000	9.336378
1487.000000	9.344218
1486.000000	9.354516
1485.000000	9.353102
1484.000000	9.354355
1483.000000	9.385791
1482.000000	9.371533
1481.000000	9.384882
1480.000000	9.389298
1479.000000	9.407642
1478.000000	9.387773
1477.000000	9.399877
1476.000000	9.416913
1475.000000	9.408903
1474.000000	9.410168
1473.000000	9.400148
1472.000000	9.402696
1471.000000	9.409672
1470.000000	9.404113
1469.000000	9.408218
1468.000000	9.444976
1467.000000	9.467113
1466.000000	9.453545
1465.000000	9.464408
1464.000000	9.448758
1463.000000	9.477261
1462.000000	9.462018
1461.000000	9.469225
1460.000000	9.479942
1459.000000	9.490871
1458.000000	9.506257
1457.000000	9.518088
1456.000000	9.524487
1455.000000	9.527615
1454.000000	9.528699
1453.000000	9.561452
1452.000000	9.568760
1451.000000	9.566886
1450.000000	9.559988
1449.000000	9.560964
1448.000000	9.587818
1447.000000	9.622343
1446.000000	9.640306
1445.000000	9.654085
1444.000000	9.649210
1443.000000	9.652038
