PE UV       SUBTECH     SPECTRUM    ASCII       PEDS        4.00        
   -1
TTms499172.Sample.asc
18/03/23
10:18:29.00
18/03/23
10:18:29.00
Administrator

200.000000
1
Lambda 750
750N8071901
PerkinElmer UV WinLab 6.0.4.0738 / 1.61.00 Lambda 900

0
0
3350/servo 860.8/2
0
0
UV/VIS
1
1
1
CommonBeamDepol,150mm sphere / downward view
0
0
0
0
Program
Program
3350/servo 860.8/2
3350/0.2 860.8/0.2
3350/0.2 860.8/0.2
0
1
 
 
 
0
 
860.8
319.2
860.8
Front
100
on
 
 
0
0
0
 
0
 
 
 
0
 
 
0
0
0
0
0
 
 
 
 
0
0


0
0
#HDR
-1
-1
#GR
nm
%T
1.0
0.0
2350.000000
-1.000000
2151
8
11.944167
-0.004410
#DATA
2350.000000	5.134769
2349.000000	5.252935
2348.000000	5.510799
2347.000000	6.074736
2346.000000	5.454006
2345.000000	5.234856
2344.000000	5.071395
2343.000000	5.109939
2342.000000	5.340153
2341.000000	5.289002
2340.000000	5.461155
2339.000000	5.879688
2338.000000	5.856704
2337.000000	5.772242
2336.000000	5.994309
2335.000000	5.766876
2334.000000	5.973409
2333.000000	5.923837
2332.000000	5.983158
2331.000000	5.897571
2330.000000	5.926560
2329.000000	5.926631
2328.000000	5.743528
2327.000000	5.899313
2326.000000	5.761886
2325.000000	5.690867
2324.000000	5.754115
2323.000000	5.974647
2322.000000	5.674208
2321.000000	5.691972
2320.000000	5.746557
2319.000000	5.708916
2318.000000	5.398045
2317.000000	5.529447
2316.000000	5.904669
2315.000000	5.594436
2314.000000	5.434220
2313.000000	5.399138
2312.000000	5.305478
2311.000000	5.278418
2310.000000	5.413233
2309.000000	5.390648
2308.000000	5.440981
2307.000000	5.400604
2306.000000	5.409014
2305.000000	5.338748
2304.000000	5.261426
2303.000000	5.276997
2302.000000	5.441026
2301.000000	5.527265
2300.000000	5.211696
2299.000000	5.220025
2298.000000	5.243064
2297.000000	5.374240
2296.000000	5.419656
2295.000000	5.251719
2294.000000	5.195982
2293.000000	5.196190
2292.000000	5.076909
2291.000000	5.102417
2290.000000	5.135843
2289.000000	5.041522
2288.000000	5.033768
2287.000000	5.162675
2286.000000	5.119835
2285.000000	4.977919
2284.000000	5.045436
2283.000000	5.175336
2282.000000	5.110193
2281.000000	5.247943
2280.000000	5.291961
2279.000000	5.216037
2278.000000	5.106975
2277.000000	5.173528
2276.000000	5.166250
2275.000000	5.238018
2274.000000	5.242271
2273.000000	5.294343
2272.000000	5.375839
2271.000000	5.379073
2270.000000	5.301982
2269.000000	5.282406
2268.000000	5.289943
2267.000000	5.317938
2266.000000	5.407033
2265.000000	5.410333
2264.000000	5.408092
2263.000000	5.504234
2262.000000	5.544047
2261.000000	5.642486
2260.000000	5.697544
2259.000000	5.783097
2258.000000	5.761458
2257.000000	5.871387
2256.000000	5.925900
2255.000000	5.902817
2254.000000	5.994216
2253.000000	6.034406
2252.000000	5.908994
2251.000000	6.058649
2250.000000	6.261432
2249.000000	6.294489
2248.000000	6.319886
2247.000000	6.345347
2246.000000	6.427117
2245.000000	6.469408
2244.000000	6.592635
2243.000000	6.661939
2242.000000	6.743617
2241.000000	6.744400
2240.000000	6.579449
2239.000000	6.686111
2238.000000	6.755397
2237.000000	6.764526
2236.000000	6.816729
2235.000000	6.806454
2234.000000	6.894378
2233.000000	6.889925
2232.000000	6.899030
2231.000000	6.897772
2230.000000	6.920421
2229.000000	7.088545
2228.000000	7.154285
2227.000000	7.067942
2226.000000	6.976222
2225.000000	6.905359
2224.000000	6.906212
2223.000000	6.949923
2222.000000	6.960357
2221.000000	6.906789
2220.000000	6.988427
2219.000000	6.988255
2218.000000	6.948094
2217.000000	6.925108
2216.000000	6.912819
2215.000000	6.746199
2214.000000	6.718102
2213.000000	6.828266
2212.000000	6.858245
2211.000000	6.922434
2210.000000	6.853234
2209.000000	6.731648
2208.000000	6.731028
2207.000000	6.745213
2206.000000	6.739012
2205.000000	6.656189
2204.000000	6.668148
2203.000000	6.659312
2202.000000	6.632039
2201.000000	6.524375
2200.000000	6.491924
2199.000000	6.609458
2198.000000	6.673036
2197.000000	6.583670
2196.000000	6.530371
2195.000000	6.449671
2194.000000	6.472854
2193.000000	6.389507
2192.000000	6.252147
2191.000000	6.319578
2190.000000	6.336875
2189.000000	6.327144
2188.000000	6.382974
2187.000000	6.329285
2186.000000	6.266061
2185.000000	6.222852
2184.000000	6.327501
2183.000000	6.212324
2182.000000	6.227491
2181.000000	6.317529
2180.000000	6.204541
2179.000000	6.177104
2178.000000	6.163907
2177.000000	6.220935
2176.000000	6.196742
2175.000000	6.195705
2174.000000	6.172886
2173.000000	6.243965
2172.000000	6.204153
2171.000000	6.304714
2170.000000	6.290568
2169.000000	6.320198
2168.000000	6.422311
2167.000000	6.399181
2166.000000	6.362903
2165.000000	6.371244
2164.000000	6.502889
2163.000000	6.453353
2162.000000	6.513962
2161.000000	6.272354
2160.000000	6.359722
2159.000000	6.448080
2158.000000	6.529464
2157.000000	6.729612
2156.000000	6.621874
2155.000000	6.498282
2154.000000	6.576012
2153.000000	6.849178
2152.000000	6.765625
2151.000000	6.925806
2150.000000	6.946110
2149.000000	6.872681
2148.000000	6.799246
2147.000000	6.856259
2146.000000	6.939669
2145.000000	7.016912
2144.000000	7.159070
2143.000000	7.119488
2142.000000	7.196663
2141.000000	7.132796
2140.000000	7.155284
2139.000000	7.098248
2138.000000	7.193986
2137.000000	7.126280
2136.000000	7.063470
2135.000000	7.113312
2134.000000	7.106300
2133.000000	7.165372
2132.000000	7.357939
2131.000000	7.384703
2130.000000	7.291339
2129.000000	7.340822
2128.000000	7.305419
2127.000000	7.463818
2126.000000	7.221740
2125.000000	7.294398
2124.000000	7.400638
2123.000000	7.411602
2122.000000	7.566492
2121.000000	7.449296
2120.000000	7.399489
2119.000000	7.402830
2118.000000	7.428123
2117.000000	7.317204
2116.000000	7.287376
2115.000000	7.360150
2114.000000	7.504151
2113.000000	7.405075
2112.000000	7.402866
2111.000000	7.444004
2110.000000	7.408186
2109.000000	7.491477
2108.000000	7.513802
2107.000000	7.499919
2106.000000	7.390893
2105.000000	7.462357
2104.000000	7.412519
2103.000000	7.354713
2102.000000	7.569320
2101.000000	7.475526
2100.000000	7.461993
2099.000000	7.390646
2098.000000	7.518254
2097.000000	7.474231
2096.000000	7.355215
2095.000000	7.392426
2094.000000	7.390645
2093.000000	7.317866
2092.000000	7.350133
2091.000000	7.441722
2090.000000	7.467615
2089.000000	7.421890
2088.000000	7.360622
2087.000000	7.386262
2086.000000	7.406515
2085.000000	7.398725
2084.000000	7.387833
2083.000000	7.307985
2082.000000	7.259760
2081.000000	7.293126
2080.000000	7.198754
2079.000000	7.146350
2078.000000	7.151714
2077.000000	7.183381
2076.000000	7.219127
2075.000000	7.173269
2074.000000	7.153775
2073.000000	7.140251
2072.000000	7.026213
2071.000000	7.008272
2070.000000	7.019613
2069.000000	6.917312
2068.000000	6.944957
2067.000000	6.863783
2066.000000	6.820335
2065.000000	6.791416
2064.000000	6.779572
2063.000000	6.675775
2062.000000	6.628115
2061.000000	6.638385
2060.000000	6.629679
2059.000000	6.502747
2058.000000	6.494656
2057.000000	6.493778
2056.000000	6.501156
2055.000000	6.456119
2054.000000	6.386245
2053.000000	6.275121
2052.000000	6.258628
2051.000000	6.203744
2050.000000	6.186314
2049.000000	6.111898
2048.000000	6.125485
2047.000000	6.160058
2046.000000	6.062519
2045.000000	6.090060
2044.000000	6.127835
2043.000000	6.145680
2042.000000	6.155637
2041.000000	6.166390
2040.000000	6.141193
2039.000000	6.091350
2038.000000	6.118339
2037.000000	6.156222
2036.000000	6.166907
2035.000000	6.175576
2034.000000	6.179222
2033.000000	6.245645
2032.000000	6.317997
2031.000000	6.295001
2030.000000	6.300980
2029.000000	6.346511
2028.000000	6.356694
2027.000000	6.384796
2026.000000	6.456060
2025.000000	6.456166
2024.000000	6.451308
2023.000000	6.470275
2022.000000	6.458474
2021.000000	6.454797
2020.000000	6.485807
2019.000000	6.490790
2018.000000	6.483029
2017.000000	6.487923
2016.000000	6.472623
2015.000000	6.464915
2014.000000	6.450935
2013.000000	6.421305
2012.000000	6.410981
2011.000000	6.416825
2010.000000	6.410678
2009.000000	6.349687
2008.000000	6.308596
2007.000000	6.295719
2006.000000	6.300366
2005.000000	6.258323
2004.000000	6.203764
2003.000000	6.196148
2002.000000	6.170548
2001.000000	6.146933
2000.000000	6.135576
1999.000000	6.073565
1998.000000	6.033128
1997.000000	5.993729
1996.000000	5.954903
1995.000000	5.909298
1994.000000	5.881013
1993.000000	5.861853
1992.000000	5.806552
1991.000000	5.765994
1990.000000	5.742917
1989.000000	5.692521
1988.000000	5.679724
1987.000000	5.664441
1986.000000	5.635179
1985.000000	5.557426
1984.000000	5.520094
1983.000000	5.531687
1982.000000	5.506444
1981.000000	5.480683
1980.000000	5.458172
1979.000000	5.407800
1978.000000	5.387030
1977.000000	5.344617
1976.000000	5.284977
1975.000000	5.267052
1974.000000	5.239997
1973.000000	5.282026
1972.000000	5.265489
1971.000000	5.184196
1970.000000	5.143736
1969.000000	5.114210
1968.000000	5.080988
1967.000000	5.051887
1966.000000	5.048042
1965.000000	5.031045
1964.000000	4.986768
1963.000000	4.950197
1962.000000	4.942366
1961.000000	4.885636
1960.000000	4.899455
1959.000000	4.857112
1958.000000	4.820223
1957.000000	4.841785
1956.000000	4.798717
1955.000000	4.823086
1954.000000	4.762108
1953.000000	4.765416
1952.000000	4.728409
1951.000000	4.765400
1950.000000	4.725285
1949.000000	4.763851
1948.000000	4.759725
1947.000000	4.655588
1946.000000	4.725828
1945.000000	4.724184
1944.000000	4.704365
1943.000000	4.730134
1942.000000	4.718837
1941.000000	4.778326
1940.000000	4.761392
1939.000000	4.749806
1938.000000	4.757803
1937.000000	4.806718
1936.000000	4.857682
1935.000000	4.890655
1934.000000	4.979561
1933.000000	4.973256
1932.000000	4.967037
1931.000000	4.976933
1930.000000	5.005928
1929.000000	5.008573
1928.000000	5.136638
1927.000000	5.220328
1926.000000	5.215535
1925.000000	5.352929
1924.000000	5.391888
1923.000000	5.475706
1922.000000	5.516842
1921.000000	5.558698
1920.000000	5.671261
1919.000000	5.773976
1918.000000	5.857897
1917.000000	5.987759
1916.000000	5.936193
1915.000000	6.096356
1914.000000	6.277836
1913.000000	6.417895
1912.000000	6.486435
1911.000000	6.552302
1910.000000	6.613892
1909.000000	6.775552
1908.000000	6.888390
1907.000000	7.061415
1906.000000	7.127650
1905.000000	7.328732
1904.000000	7.411905
1903.000000	7.589061
1902.000000	7.715305
1901.000000	7.837329
1900.000000	7.952293
1899.000000	8.126740
1898.000000	8.288513
1897.000000	8.447913
1896.000000	8.586647
1895.000000	8.749427
1894.000000	8.852675
1893.000000	9.052594
1892.000000	9.165472
1891.000000	9.273623
1890.000000	9.390188
1889.000000	9.500249
1888.000000	9.693640
1887.000000	9.771916
1886.000000	9.919504
1885.000000	10.004558
1884.000000	10.111854
1883.000000	10.217706
1882.000000	10.328448
1881.000000	10.423106
1880.000000	10.527534
1879.000000	10.637557
1878.000000	10.706209
1877.000000	10.758516
1876.000000	10.816146
1875.000000	10.906456
1874.000000	10.958578
1873.000000	11.043841
1872.000000	11.117546
1871.000000	11.143199
1870.000000	11.155955
1869.000000	11.202810
1868.000000	11.273481
1867.000000	11.276731
1866.000000	11.325143
1865.000000	11.321239
1864.000000	11.299603
1863.000000	11.341893
1862.000000	11.302835
1861.000000	11.269710
1860.000000	11.320770
1859.000000	11.363680
1858.000000	11.350865
1857.000000	11.352632
1856.000000	11.395616
1855.000000	11.394313
1854.000000	11.411878
1853.000000	11.379580
1852.000000	11.382496
1851.000000	11.402083
1850.000000	11.416042
1849.000000	11.408104
1848.000000	11.387529
1847.000000	11.402639
1846.000000	11.369538
1845.000000	11.359004
1844.000000	11.376380
1843.000000	11.373945
1842.000000	11.333226
1841.000000	11.341825
1840.000000	11.325368
1839.000000	11.335497
1838.000000	11.323772
1837.000000	11.313600
1836.000000	11.279967
1835.000000	11.243701
1834.000000	11.226128
1833.000000	11.198531
1832.000000	11.176331
1831.000000	11.180787
1830.000000	11.151056
1829.000000	11.130547
1828.000000	11.118346
1827.000000	11.109452
1826.000000	11.080108
1825.000000	11.056380
1824.000000	11.074290
1823.000000	11.039991
1822.000000	11.002251
1821.000000	10.982484
1820.000000	10.961581
1819.000000	10.961048
1818.000000	10.955643
1817.000000	10.933957
1816.000000	10.931194
1815.000000	10.924053
1814.000000	10.914437
1813.000000	10.906225
1812.000000	10.896579
1811.000000	10.882029
1810.000000	10.882055
1809.000000	10.890533
1808.000000	10.876118
1807.000000	10.844166
1806.000000	10.830156
1805.000000	10.819323
1804.000000	10.812459
1803.000000	10.804707
1802.000000	10.793245
1801.000000	10.801322
1800.000000	10.808307
1799.000000	10.779285
1798.000000	10.749751
1797.000000	10.742791
1796.000000	10.748140
1795.000000	10.757264
1794.000000	10.767431
1793.000000	10.769955
1792.000000	10.761790
1791.000000	10.760282
1790.000000	10.765365
1789.000000	10.744737
1788.000000	10.731563
1787.000000	10.738948
1786.000000	10.739058
1785.000000	10.741163
1784.000000	10.751673
1783.000000	10.728293
1782.000000	10.734740
1781.000000	10.722175
1780.000000	10.685774
1779.000000	10.695165
1778.000000	10.686872
1777.000000	10.673690
1776.000000	10.652935
1775.000000	10.651949
1774.000000	10.635162
1773.000000	10.600259
1772.000000	10.569891
1771.000000	10.556594
1770.000000	10.546240
1769.000000	10.535026
1768.000000	10.527356
1767.000000	10.491927
1766.000000	10.483700
1765.000000	10.478478
1764.000000	10.471007
1763.000000	10.450364
1762.000000	10.417764
1761.000000	10.414786
1760.000000	10.410213
1759.000000	10.391542
1758.000000	10.372555
1757.000000	10.341095
1756.000000	10.334698
1755.000000	10.297193
1754.000000	10.284477
1753.000000	10.278127
1752.000000	10.276662
1751.000000	10.252777
1750.000000	10.260595
1749.000000	10.239866
1748.000000	10.236641
1747.000000	10.208372
1746.000000	10.163777
1745.000000	10.128471
1744.000000	10.115913
1743.000000	10.120879
1742.000000	10.105688
1741.000000	10.094961
1740.000000	10.054272
1739.000000	10.023094
1738.000000	10.007708
1737.000000	9.994360
1736.000000	9.995623
1735.000000	9.989219
1734.000000	9.982692
1733.000000	9.984133
1732.000000	9.957917
1731.000000	9.953704
1730.000000	9.948051
1729.000000	9.972559
1728.000000	10.009418
1727.000000	9.987272
1726.000000	9.979928
1725.000000	10.010323
1724.000000	10.020632
1723.000000	10.043874
1722.000000	10.087059
1721.000000	10.116150
1720.000000	10.115850
1719.000000	10.161585
1718.000000	10.207942
1717.000000	10.212016
1716.000000	10.238053
1715.000000	10.266673
1714.000000	10.286964
1713.000000	10.315540
1712.000000	10.351718
1711.000000	10.343571
1710.000000	10.373648
1709.000000	10.369165
1708.000000	10.399476
1707.000000	10.419390
1706.000000	10.402701
1705.000000	10.405645
1704.000000	10.444591
1703.000000	10.437279
1702.000000	10.443238
1701.000000	10.447348
1700.000000	10.449199
1699.000000	10.413143
1698.000000	10.467445
1697.000000	10.485924
1696.000000	10.518696
1695.000000	10.497688
1694.000000	10.492662
1693.000000	10.506375
1692.000000	10.519914
1691.000000	10.533350
1690.000000	10.584150
1689.000000	10.582635
1688.000000	10.609165
1687.000000	10.634789
1686.000000	10.670273
1685.000000	10.706652
1684.000000	10.736248
1683.000000	10.773275
1682.000000	10.798370
1681.000000	10.858967
1680.000000	10.879662
1679.000000	10.915528
1678.000000	10.940732
1677.000000	10.976320
1676.000000	11.020679
1675.000000	11.061762
1674.000000	11.092486
1673.000000	11.135785
1672.000000	11.162570
1671.000000	11.220659
1670.000000	11.254735
1669.000000	11.266905
1668.000000	11.264755
1667.000000	11.318198
1666.000000	11.313105
1665.000000	11.314113
1664.000000	11.331946
1663.000000	11.345286
1662.000000	11.370612
1661.000000	11.375813
1660.000000	11.415039
1659.000000	11.437164
1658.000000	11.446071
1657.000000	11.473334
1656.000000	11.467515
1655.000000	11.480765
1654.000000	11.472516
1653.000000	11.466134
1652.000000	11.494472
1651.000000	11.481330
1650.000000	11.476174
1649.000000	11.443082
1648.000000	11.440218
1647.000000	11.442306
1646.000000	11.444643
1645.000000	11.428734
1644.000000	11.408935
1643.000000	11.410618
1642.000000	11.402649
1641.000000	11.390670
1640.000000	11.383065
1639.000000	11.366503
1638.000000	11.354181
1637.000000	11.357095
1636.000000	11.323198
1635.000000	11.305418
1634.000000	11.308098
1633.000000	11.296471
1632.000000	11.282126
1631.000000	11.270942
1630.000000	11.246313
1629.000000	11.239343
1628.000000	11.229511
1627.000000	11.212634
1626.000000	11.189840
1625.000000	11.186103
1624.000000	11.176573
1623.000000	11.147419
1622.000000	11.140145
1621.000000	11.132598
1620.000000	11.118877
1619.000000	11.092843
1618.000000	11.083707
1617.000000	11.066783
1616.000000	11.038134
1615.000000	11.017997
1614.000000	11.003773
1613.000000	10.996708
1612.000000	10.979291
1611.000000	10.951765
1610.000000	10.940939
1609.000000	10.932285
1608.000000	10.924709
1607.000000	10.900750
1606.000000	10.875280
1605.000000	10.856908
1604.000000	10.831889
1603.000000	10.817369
1602.000000	10.804849
1601.000000	10.796622
1600.000000	10.784953
1599.000000	10.764289
1598.000000	10.752979
1597.000000	10.741639
1596.000000	10.720553
1595.000000	10.702271
1594.000000	10.695275
1593.000000	10.678051
1592.000000	10.661051
1591.000000	10.648873
1590.000000	10.632588
1589.000000	10.617680
1588.000000	10.602646
1587.000000	10.599921
1586.000000	10.580395
1585.000000	10.556550
1584.000000	10.543383
1583.000000	10.540091
1582.000000	10.538324
1581.000000	10.519506
1580.000000	10.503770
1579.000000	10.491438
1578.000000	10.472415
1577.000000	10.470039
1576.000000	10.458320
1575.000000	10.437841
1574.000000	10.427179
1573.000000	10.419635
1572.000000	10.400564
1571.000000	10.388942
1570.000000	10.377232
1569.000000	10.349057
1568.000000	10.341191
1567.000000	10.333931
1566.000000	10.314926
1565.000000	10.310983
1564.000000	10.307474
1563.000000	10.297783
1562.000000	10.287189
1561.000000	10.285165
1560.000000	10.267542
1559.000000	10.246175
1558.000000	10.242174
1557.000000	10.233927
1556.000000	10.224267
1555.000000	10.227783
1554.000000	10.206288
1553.000000	10.179722
1552.000000	10.172504
1551.000000	10.175124
1550.000000	10.148352
1549.000000	10.123556
1548.000000	10.120201
1547.000000	10.109261
1546.000000	10.083184
1545.000000	10.069103
1544.000000	10.037406
1543.000000	10.010463
1542.000000	9.991956
1541.000000	9.975726
1540.000000	9.957723
1539.000000	9.912421
1538.000000	9.888280
1537.000000	9.880489
1536.000000	9.846381
1535.000000	9.801904
1534.000000	9.779383
1533.000000	9.788108
1532.000000	9.748512
1531.000000	9.735530
1530.000000	9.763825
1529.000000	9.799275
1528.000000	9.810087
1527.000000	9.802903
1526.000000	9.753180
1525.000000	9.704007
1524.000000	9.656987
1523.000000	9.647996
1522.000000	9.627077
1521.000000	9.608960
1520.000000	9.599308
1519.000000	9.595468
1518.000000	9.563106
1517.000000	9.527994
1516.000000	9.528106
1515.000000	9.517916
1514.000000	9.509725
1513.000000	9.495697
1512.000000	9.467371
1511.000000	9.473725
1510.000000	9.481452
1509.000000	9.463868
1508.000000	9.426262
1507.000000	9.405052
1506.000000	9.386451
1505.000000	9.380440
1504.000000	9.386426
1503.000000	9.362870
1502.000000	9.351234
1501.000000	9.368016
1500.000000	9.393977
1499.000000	9.384315
1498.000000	9.372775
1497.000000	9.354534
1496.000000	9.344680
1495.000000	9.332579
1494.000000	9.336370
1493.000000	9.333789
1492.000000	9.340131
1491.000000	9.348566
1490.000000	9.339458
1489.000000	9.345068
1488.000000	9.341158
1487.000000	9.358560
1486.000000	9.313929
1485.000000	9.324527
1484.000000	9.328215
1483.000000	9.336373
1482.000000	9.340108
1481.000000	9.355191
1480.000000	9.359298
1479.000000	9.378562
1478.000000	9.387366
1477.000000	9.395302
1476.000000	9.395968
1475.000000	9.416934
1474.000000	9.417896
1473.000000	9.404825
1472.000000	9.412760
1471.000000	9.408147
1470.000000	9.405943
1469.000000	9.462613
1468.000000	9.463786
1467.000000	9.461419
1466.000000	9.447242
1465.000000	9.441427
1464.000000	9.433512
1463.000000	9.465670
1462.000000	9.500150
1461.000000	9.491296
1460.000000	9.463575
1459.000000	9.505813
1458.000000	9.522827
1457.000000	9.513005
1456.000000	9.521336
1455.000000	9.521413
1454.000000	9.549232
1453.000000	9.560639
1452.000000	9.551174
1451.000000	9.554788
1450.000000	9.573711
1449.000000	9.566148
1448.000000	9.595443
1447.000000	9.630374
1446.000000	9.627602
1445.000000	9.628269
1444.000000	9.629590
1443.000000	9.664540
