PE UV       SUBTECH     SPECTRUM    ASCII       PEDS        4.00        
   -1
TTms499182.Sample.asc
18/03/23
09:25:48.00
18/03/23
09:25:48.00
Administrator

200.000000
1
Lambda 750
750N8071901
PerkinElmer UV WinLab 6.0.4.0738 / 1.61.00 Lambda 900

0
0
3350/servo 860.8/2
0
0
UV/VIS
1
1
1
CommonBeamDepol,150mm sphere / downward view
0
0
0
0
Program
Program
3350/servo 860.8/2
3350/0.2 860.8/0.2
3350/0.2 860.8/0.2
0
1
 
 
 
0
 
860.8
319.2
860.8
Front
100
on
 
 
0
0
0
 
0
 
 
 
0
 
 
0
0
0
0
0
 
 
 
 
0
0


0
0
#HDR
-1
-1
#GR
nm
%T
1.0
0.0
2350.000000
-1.000000
2151
8
8.612533
-0.058139
#DATA
2350.000000	1.538283
2349.000000	1.590712
2348.000000	1.938098
2347.000000	2.470519
2346.000000	2.181805
2345.000000	1.883420
2344.000000	1.790978
2343.000000	1.641608
2342.000000	1.626373
2341.000000	1.892241
2340.000000	1.961630
2339.000000	2.273066
2338.000000	2.176314
2337.000000	2.435975
2336.000000	2.824490
2335.000000	2.505478
2334.000000	2.680332
2333.000000	2.730772
2332.000000	2.641847
2331.000000	2.381719
2330.000000	2.444044
2329.000000	2.405604
2328.000000	2.389334
2327.000000	2.377433
2326.000000	2.716009
2325.000000	2.834009
2324.000000	2.591134
2323.000000	2.389289
2322.000000	2.462679
2321.000000	2.265746
2320.000000	2.314318
2319.000000	2.246887
2318.000000	2.200093
2317.000000	2.381390
2316.000000	2.170772
2315.000000	1.959113
2314.000000	2.028641
2313.000000	2.139783
2312.000000	2.011939
2311.000000	2.276663
2310.000000	2.129416
2309.000000	2.110444
2308.000000	2.218278
2307.000000	2.191270
2306.000000	2.293876
2305.000000	2.153851
2304.000000	1.976478
2303.000000	2.185400
2302.000000	2.104703
2301.000000	2.053919
2300.000000	2.014709
2299.000000	2.000410
2298.000000	1.774532
2297.000000	1.979631
2296.000000	1.983868
2295.000000	2.092469
2294.000000	1.843536
2293.000000	1.887049
2292.000000	2.072793
2291.000000	2.094987
2290.000000	2.093536
2289.000000	2.075664
2288.000000	1.960583
2287.000000	1.892335
2286.000000	1.837957
2285.000000	1.867787
2284.000000	2.049128
2283.000000	1.930540
2282.000000	1.906301
2281.000000	1.970805
2280.000000	1.977789
2279.000000	1.952019
2278.000000	1.844107
2277.000000	1.828129
2276.000000	1.925190
2275.000000	1.996352
2274.000000	2.104391
2273.000000	1.979458
2272.000000	2.053699
2271.000000	1.998707
2270.000000	1.875671
2269.000000	1.937360
2268.000000	2.052768
2267.000000	2.004829
2266.000000	1.992428
2265.000000	2.099126
2264.000000	2.294730
2263.000000	2.184768
2262.000000	2.036077
2261.000000	2.037195
2260.000000	2.223444
2259.000000	2.356764
2258.000000	2.346889
2257.000000	2.417110
2256.000000	2.394438
2255.000000	2.307222
2254.000000	2.359086
2253.000000	2.352758
2252.000000	2.399034
2251.000000	2.469279
2250.000000	2.476786
2249.000000	2.541120
2248.000000	2.622841
2247.000000	2.649351
2246.000000	2.653964
2245.000000	2.665430
2244.000000	2.692461
2243.000000	2.769686
2242.000000	2.775291
2241.000000	2.827056
2240.000000	2.818459
2239.000000	2.751701
2238.000000	2.782428
2237.000000	2.926232
2236.000000	3.005647
2235.000000	3.122790
2234.000000	3.132747
2233.000000	2.942997
2232.000000	2.909973
2231.000000	3.072289
2230.000000	3.068578
2229.000000	3.038716
2228.000000	2.984285
2227.000000	2.959575
2226.000000	2.998134
2225.000000	2.911386
2224.000000	2.904349
2223.000000	3.026591
2222.000000	3.124058
2221.000000	3.103990
2220.000000	3.003105
2219.000000	3.058713
2218.000000	3.006118
2217.000000	2.960931
2216.000000	3.068837
2215.000000	3.058889
2214.000000	2.942527
2213.000000	2.962173
2212.000000	3.042470
2211.000000	2.978748
2210.000000	2.846333
2209.000000	2.938369
2208.000000	2.969082
2207.000000	2.829398
2206.000000	2.744727
2205.000000	2.780992
2204.000000	2.816877
2203.000000	2.684065
2202.000000	2.722625
2201.000000	2.771175
2200.000000	2.703971
2199.000000	2.625374
2198.000000	2.715605
2197.000000	2.647461
2196.000000	2.651946
2195.000000	2.656331
2194.000000	2.696533
2193.000000	2.716501
2192.000000	2.840208
2191.000000	2.809219
2190.000000	2.678323
2189.000000	2.646548
2188.000000	2.711392
2187.000000	2.571121
2186.000000	2.719272
2185.000000	2.679738
2184.000000	2.546834
2183.000000	2.663829
2182.000000	2.733074
2181.000000	2.618229
2180.000000	2.619317
2179.000000	2.513384
2178.000000	2.822909
2177.000000	2.618260
2176.000000	2.723779
2175.000000	2.706762
2174.000000	2.514718
2173.000000	2.595625
2172.000000	2.565317
2171.000000	2.671221
2170.000000	2.681123
2169.000000	2.818009
2168.000000	2.788644
2167.000000	2.691544
2166.000000	2.847326
2165.000000	2.605066
2164.000000	2.789686
2163.000000	2.684805
2162.000000	2.761098
2161.000000	2.820799
2160.000000	2.742918
2159.000000	2.799174
2158.000000	2.847059
2157.000000	2.860234
2156.000000	2.990045
2155.000000	2.831930
2154.000000	2.823784
2153.000000	2.963020
2152.000000	3.089477
2151.000000	3.219915
2150.000000	3.046543
2149.000000	2.913667
2148.000000	2.937339
2147.000000	3.011328
2146.000000	2.985654
2145.000000	3.187869
2144.000000	3.003553
2143.000000	3.115773
2142.000000	3.168151
2141.000000	3.169649
2140.000000	3.295841
2139.000000	3.210606
2138.000000	3.240201
2137.000000	3.366655
2136.000000	3.167689
2135.000000	3.182503
2134.000000	3.295281
2133.000000	2.923850
2132.000000	3.464593
2131.000000	3.429601
2130.000000	3.419993
2129.000000	3.393079
2128.000000	3.392962
2127.000000	3.403077
2126.000000	3.259737
2125.000000	3.028942
2124.000000	3.360776
2123.000000	3.241211
2122.000000	3.375913
2121.000000	3.284678
2120.000000	3.385832
2119.000000	3.173521
2118.000000	3.326262
2117.000000	3.376107
2116.000000	3.326465
2115.000000	3.307731
2114.000000	3.433019
2113.000000	3.462299
2112.000000	3.283210
2111.000000	3.343349
2110.000000	3.313540
2109.000000	3.405465
2108.000000	3.418670
2107.000000	3.346954
2106.000000	3.530988
2105.000000	3.334430
2104.000000	3.393399
2103.000000	3.415277
2102.000000	3.379690
2101.000000	3.425895
2100.000000	3.521072
2099.000000	3.348014
2098.000000	3.283865
2097.000000	3.348697
2096.000000	3.374250
2095.000000	3.350381
2094.000000	3.352062
2093.000000	3.402379
2092.000000	3.356855
2091.000000	3.390462
2090.000000	3.356012
2089.000000	3.365969
2088.000000	3.367192
2087.000000	3.433061
2086.000000	3.390958
2085.000000	3.404887
2084.000000	3.426421
2083.000000	3.352855
2082.000000	3.391428
2081.000000	3.287288
2080.000000	3.212056
2079.000000	3.282794
2078.000000	3.190446
2077.000000	3.242687
2076.000000	3.250814
2075.000000	3.125212
2074.000000	3.141997
2073.000000	3.123695
2072.000000	3.117009
2071.000000	3.111060
2070.000000	3.043444
2069.000000	3.024125
2068.000000	2.952015
2067.000000	2.865137
2066.000000	2.959032
2065.000000	2.903000
2064.000000	2.851839
2063.000000	2.804377
2062.000000	2.855464
2061.000000	2.833180
2060.000000	2.785027
2059.000000	2.742293
2058.000000	2.678904
2057.000000	2.719529
2056.000000	2.780370
2055.000000	2.688756
2054.000000	2.638787
2053.000000	2.607272
2052.000000	2.521505
2051.000000	2.497460
2050.000000	2.477730
2049.000000	2.493393
2048.000000	2.504460
2047.000000	2.493584
2046.000000	2.479291
2045.000000	2.494506
2044.000000	2.482952
2043.000000	2.478434
2042.000000	2.453596
2041.000000	2.444554
2040.000000	2.440767
2039.000000	2.470335
2038.000000	2.482153
2037.000000	2.507218
2036.000000	2.516285
2035.000000	2.467125
2034.000000	2.511762
2033.000000	2.552433
2032.000000	2.533193
2031.000000	2.513714
2030.000000	2.529264
2029.000000	2.607453
2028.000000	2.645187
2027.000000	2.646990
2026.000000	2.706321
2025.000000	2.692608
2024.000000	2.652352
2023.000000	2.650311
2022.000000	2.649537
2021.000000	2.681391
2020.000000	2.655792
2019.000000	2.657258
2018.000000	2.699806
2017.000000	2.692126
2016.000000	2.713500
2015.000000	2.727351
2014.000000	2.717883
2013.000000	2.695266
2012.000000	2.671284
2011.000000	2.673770
2010.000000	2.680582
2009.000000	2.646736
2008.000000	2.595852
2007.000000	2.597656
2006.000000	2.558235
2005.000000	2.550538
2004.000000	2.541050
2003.000000	2.530920
2002.000000	2.531979
2001.000000	2.500046
2000.000000	2.505719
1999.000000	2.509568
1998.000000	2.457233
1997.000000	2.439868
1996.000000	2.460177
1995.000000	2.449288
1994.000000	2.397053
1993.000000	2.384848
1992.000000	2.350678
1991.000000	2.292945
1990.000000	2.309646
1989.000000	2.314104
1988.000000	2.281537
1987.000000	2.269134
1986.000000	2.247804
1985.000000	2.225005
1984.000000	2.224257
1983.000000	2.233103
1982.000000	2.222482
1981.000000	2.225348
1980.000000	2.186729
1979.000000	2.183874
1978.000000	2.172178
1977.000000	2.168563
1976.000000	2.104487
1975.000000	2.114942
1974.000000	2.082379
1973.000000	2.067420
1972.000000	2.098437
1971.000000	2.068143
1970.000000	2.053180
1969.000000	2.026395
1968.000000	2.031500
1967.000000	2.033233
1966.000000	2.044011
1965.000000	2.024647
1964.000000	2.022636
1963.000000	1.978797
1962.000000	1.955974
1961.000000	1.961578
1960.000000	1.970810
1959.000000	1.962115
1958.000000	1.972816
1957.000000	1.931789
1956.000000	1.870995
1955.000000	1.922076
1954.000000	1.926113
1953.000000	1.914322
1952.000000	1.969603
1951.000000	1.956847
1950.000000	1.943558
1949.000000	1.984252
1948.000000	1.979151
1947.000000	1.947215
1946.000000	1.913639
1945.000000	1.955606
1944.000000	1.992212
1943.000000	2.025733
1942.000000	1.972426
1941.000000	1.959328
1940.000000	2.015549
1939.000000	1.984798
1938.000000	2.001158
1937.000000	1.995283
1936.000000	2.041514
1935.000000	2.082014
1934.000000	2.008931
1933.000000	2.066413
1932.000000	2.071926
1931.000000	2.088788
1930.000000	2.148010
1929.000000	2.171158
1928.000000	2.130363
1927.000000	2.174070
1926.000000	2.236390
1925.000000	2.210783
1924.000000	2.214467
1923.000000	2.291263
1922.000000	2.377799
1921.000000	2.418804
1920.000000	2.426215
1919.000000	2.492076
1918.000000	2.502594
1917.000000	2.492936
1916.000000	2.515537
1915.000000	2.620730
1914.000000	2.713338
1913.000000	2.850163
1912.000000	2.823875
1911.000000	2.908986
1910.000000	2.968748
1909.000000	3.032571
1908.000000	3.119524
1907.000000	3.201553
1906.000000	3.239453
1905.000000	3.337371
1904.000000	3.389388
1903.000000	3.500768
1902.000000	3.642266
1901.000000	3.834351
1900.000000	3.875116
1899.000000	3.906813
1898.000000	4.119319
1897.000000	4.149269
1896.000000	4.250959
1895.000000	4.441868
1894.000000	4.556249
1893.000000	4.583857
1892.000000	4.712423
1891.000000	4.833904
1890.000000	5.015024
1889.000000	5.093030
1888.000000	5.197309
1887.000000	5.319112
1886.000000	5.435745
1885.000000	5.531695
1884.000000	5.654649
1883.000000	5.812609
1882.000000	5.926272
1881.000000	5.933382
1880.000000	6.086497
1879.000000	6.191832
1878.000000	6.207671
1877.000000	6.273992
1876.000000	6.332493
1875.000000	6.459583
1874.000000	6.484174
1873.000000	6.543289
1872.000000	6.584194
1871.000000	6.665213
1870.000000	6.682991
1869.000000	6.703889
1868.000000	6.758775
1867.000000	6.793337
1866.000000	6.813629
1865.000000	6.799720
1864.000000	6.789762
1863.000000	6.756225
1862.000000	6.802574
1861.000000	6.837806
1860.000000	6.891181
1859.000000	6.893752
1858.000000	6.889049
1857.000000	6.884921
1856.000000	6.880516
1855.000000	6.927674
1854.000000	6.943947
1853.000000	6.936955
1852.000000	6.962744
1851.000000	6.945696
1850.000000	6.946359
1849.000000	6.921866
1848.000000	6.931253
1847.000000	6.962418
1846.000000	6.959778
1845.000000	6.938840
1844.000000	6.945823
1843.000000	6.936770
1842.000000	6.916731
1841.000000	6.914485
1840.000000	6.903924
1839.000000	6.864123
1838.000000	6.827040
1837.000000	6.804741
1836.000000	6.792522
1835.000000	6.772675
1834.000000	6.756108
1833.000000	6.745362
1832.000000	6.721357
1831.000000	6.689786
1830.000000	6.685779
1829.000000	6.655676
1828.000000	6.649655
1827.000000	6.642220
1826.000000	6.639591
1825.000000	6.622080
1824.000000	6.598546
1823.000000	6.581756
1822.000000	6.560901
1821.000000	6.557284
1820.000000	6.526338
1819.000000	6.513279
1818.000000	6.514590
1817.000000	6.493213
1816.000000	6.486074
1815.000000	6.479405
1814.000000	6.453963
1813.000000	6.452936
1812.000000	6.459983
1811.000000	6.450211
1810.000000	6.444306
1809.000000	6.441226
1808.000000	6.433860
1807.000000	6.410594
1806.000000	6.406619
1805.000000	6.408468
1804.000000	6.385530
1803.000000	6.368642
1802.000000	6.369679
1801.000000	6.385556
1800.000000	6.373751
1799.000000	6.368814
1798.000000	6.365521
1797.000000	6.385760
1796.000000	6.380070
1795.000000	6.364061
1794.000000	6.387435
1793.000000	6.379830
1792.000000	6.357652
1791.000000	6.354136
1790.000000	6.370592
1789.000000	6.364981
1788.000000	6.360746
1787.000000	6.388646
1786.000000	6.398640
1785.000000	6.369513
1784.000000	6.361915
1783.000000	6.379046
1782.000000	6.390965
1781.000000	6.367109
1780.000000	6.347734
1779.000000	6.350576
1778.000000	6.330355
1777.000000	6.299252
1776.000000	6.274273
1775.000000	6.285905
1774.000000	6.256194
1773.000000	6.257265
1772.000000	6.237751
1771.000000	6.210588
1770.000000	6.187034
1769.000000	6.159817
1768.000000	6.131333
1767.000000	6.102124
1766.000000	6.102924
1765.000000	6.089026
1764.000000	6.093639
1763.000000	6.031881
1762.000000	6.013132
1761.000000	6.003300
1760.000000	5.983726
1759.000000	5.966122
1758.000000	5.963491
1757.000000	5.948426
1756.000000	5.932262
1755.000000	5.923794
1754.000000	5.911319
1753.000000	5.905077
1752.000000	5.892827
1751.000000	5.876544
1750.000000	5.859881
1749.000000	5.829706
1748.000000	5.789013
1747.000000	5.801663
1746.000000	5.784073
1745.000000	5.762794
1744.000000	5.748416
1743.000000	5.720594
1742.000000	5.698307
1741.000000	5.677601
1740.000000	5.643994
1739.000000	5.646181
1738.000000	5.632970
1737.000000	5.642449
1736.000000	5.592101
1735.000000	5.560968
1734.000000	5.583327
1733.000000	5.556382
1732.000000	5.558378
1731.000000	5.525333
1730.000000	5.549250
1729.000000	5.553276
1728.000000	5.575698
1727.000000	5.598888
1726.000000	5.612952
1725.000000	5.634491
1724.000000	5.621554
1723.000000	5.646745
1722.000000	5.674461
1721.000000	5.680466
1720.000000	5.717154
1719.000000	5.756005
1718.000000	5.795430
1717.000000	5.813661
1716.000000	5.849167
1715.000000	5.816893
1714.000000	5.855040
1713.000000	5.900935
1712.000000	5.907036
1711.000000	5.932296
1710.000000	5.955314
1709.000000	5.955962
1708.000000	5.982170
1707.000000	5.998990
1706.000000	6.015517
1705.000000	6.012442
1704.000000	6.045202
1703.000000	6.026621
1702.000000	6.061140
1701.000000	6.036895
1700.000000	6.055870
1699.000000	6.027992
1698.000000	6.075996
1697.000000	6.099091
1696.000000	6.119854
1695.000000	6.120411
1694.000000	6.114273
1693.000000	6.123934
1692.000000	6.159662
1691.000000	6.148008
1690.000000	6.205924
1689.000000	6.239519
1688.000000	6.241075
1687.000000	6.279885
1686.000000	6.333308
1685.000000	6.359600
1684.000000	6.416491
1683.000000	6.444466
1682.000000	6.472549
1681.000000	6.546878
1680.000000	6.598124
1679.000000	6.624580
1678.000000	6.678577
1677.000000	6.734363
1676.000000	6.753303
1675.000000	6.810174
1674.000000	6.844348
1673.000000	6.891589
1672.000000	6.923181
1671.000000	6.959522
1670.000000	7.032797
1669.000000	7.066581
1668.000000	7.062743
1667.000000	7.138075
1666.000000	7.138003
1665.000000	7.125468
1664.000000	7.150508
1663.000000	7.184978
1662.000000	7.205009
1661.000000	7.228656
1660.000000	7.268730
1659.000000	7.303686
1658.000000	7.313073
1657.000000	7.309850
1656.000000	7.318401
1655.000000	7.332051
1654.000000	7.336742
1653.000000	7.343945
1652.000000	7.359591
1651.000000	7.357972
1650.000000	7.344397
1649.000000	7.352910
1648.000000	7.344047
1647.000000	7.328582
1646.000000	7.332076
1645.000000	7.311887
1644.000000	7.288146
1643.000000	7.275861
1642.000000	7.285032
1641.000000	7.263952
1640.000000	7.257393
1639.000000	7.249109
1638.000000	7.247166
1637.000000	7.252288
1636.000000	7.218001
1635.000000	7.189695
1634.000000	7.187683
1633.000000	7.184021
1632.000000	7.163867
1631.000000	7.155282
1630.000000	7.136223
1629.000000	7.110810
1628.000000	7.105977
1627.000000	7.092532
1626.000000	7.072251
1625.000000	7.070733
1624.000000	7.061636
1623.000000	7.038339
1622.000000	7.031909
1621.000000	7.010287
1620.000000	6.977468
1619.000000	6.952803
1618.000000	6.946700
1617.000000	6.925311
1616.000000	6.899698
1615.000000	6.906784
1614.000000	6.887327
1613.000000	6.857746
1612.000000	6.851566
1611.000000	6.851617
1610.000000	6.831145
1609.000000	6.792470
1608.000000	6.782808
1607.000000	6.777195
1606.000000	6.766542
1605.000000	6.755950
1604.000000	6.736028
1603.000000	6.716028
1602.000000	6.689952
1601.000000	6.671177
1600.000000	6.655238
1599.000000	6.633663
1598.000000	6.624418
1597.000000	6.615702
1596.000000	6.602060
1595.000000	6.592829
1594.000000	6.569478
1593.000000	6.554692
1592.000000	6.551201
1591.000000	6.529525
1590.000000	6.515717
1589.000000	6.505307
1588.000000	6.488455
1587.000000	6.472801
1586.000000	6.453582
1585.000000	6.450327
1584.000000	6.443653
1583.000000	6.429339
1582.000000	6.418099
1581.000000	6.407114
1580.000000	6.393227
1579.000000	6.384271
1578.000000	6.385078
1577.000000	6.371568
1576.000000	6.349327
1575.000000	6.336004
1574.000000	6.314364
1573.000000	6.296921
1572.000000	6.289359
1571.000000	6.264773
1570.000000	6.241596
1569.000000	6.241635
1568.000000	6.227599
1567.000000	6.202006
1566.000000	6.190908
1565.000000	6.180813
1564.000000	6.166155
1563.000000	6.169169
1562.000000	6.164868
1561.000000	6.154034
1560.000000	6.146369
1559.000000	6.125494
1558.000000	6.109219
1557.000000	6.111348
1556.000000	6.087675
1555.000000	6.079073
1554.000000	6.072902
1553.000000	6.055598
1552.000000	6.054181
1551.000000	6.033695
1550.000000	6.013285
1549.000000	5.994448
1548.000000	5.979324
1547.000000	5.963546
1546.000000	5.936578
1545.000000	5.909885
1544.000000	5.886892
1543.000000	5.872406
1542.000000	5.844192
1541.000000	5.819496
1540.000000	5.789175
1539.000000	5.778009
1538.000000	5.739214
1537.000000	5.709769
1536.000000	5.681171
1535.000000	5.650561
1534.000000	5.636368
1533.000000	5.627648
1532.000000	5.591223
1531.000000	5.592855
1530.000000	5.604870
1529.000000	5.636795
1528.000000	5.669413
1527.000000	5.661935
1526.000000	5.612808
1525.000000	5.555330
1524.000000	5.504158
1523.000000	5.498934
1522.000000	5.475227
1521.000000	5.461111
1520.000000	5.457403
1519.000000	5.470106
1518.000000	5.450724
1517.000000	5.417863
1516.000000	5.420148
1515.000000	5.408182
1514.000000	5.393909
1513.000000	5.380020
1512.000000	5.351729
1511.000000	5.380960
1510.000000	5.362465
1509.000000	5.355110
1508.000000	5.344627
1507.000000	5.326002
1506.000000	5.318534
1505.000000	5.314247
1504.000000	5.300683
1503.000000	5.290168
1502.000000	5.269932
1501.000000	5.274150
1500.000000	5.316319
1499.000000	5.329084
1498.000000	5.335878
1497.000000	5.305610
1496.000000	5.312279
1495.000000	5.298634
1494.000000	5.287026
1493.000000	5.311009
1492.000000	5.313415
1491.000000	5.302250
1490.000000	5.305161
1489.000000	5.312981
1488.000000	5.330946
1487.000000	5.332041
1486.000000	5.281891
1485.000000	5.275248
1484.000000	5.293763
1483.000000	5.315198
1482.000000	5.311417
1481.000000	5.328363
1480.000000	5.340253
1479.000000	5.370639
1478.000000	5.377212
1477.000000	5.375774
1476.000000	5.376779
1475.000000	5.369342
1474.000000	5.383587
1473.000000	5.376830
1472.000000	5.386010
1471.000000	5.387325
1470.000000	5.426177
1469.000000	5.442400
1468.000000	5.449072
1467.000000	5.424654
1466.000000	5.415954
1465.000000	5.417239
1464.000000	5.435577
1463.000000	5.468566
1462.000000	5.473777
1461.000000	5.472012
1460.000000	5.455638
1459.000000	5.495132
1458.000000	5.514954
1457.000000	5.512403
1456.000000	5.525215
1455.000000	5.508486
1454.000000	5.548801
1453.000000	5.564969
1452.000000	5.566715
1451.000000	5.551320
1450.000000	5.553364
1449.000000	5.584658
1448.000000	5.624596
1447.000000	5.653362
1446.000000	5.652588
1445.000000	5.658187
1444.000000	5.667676
1443.000000	5.558706
1442.000000	5.233424
1441.000000	5.734911
1440.000000	5.760526
1439.000000	5.793297
1438.000000	5.809600
1437.000000	5.817246
1436.000000	5.832337
1435.000000	5.863707
1434.000000	5.893604
1433.000000	5.909208
1432.000000	5.942850
1431.000000	5.976515
1430.000000	6.006303
1429.000000	6.040750
1428.000000	6.087154
