PE UV       SUBTECH     SPECTRUM    ASCII       PEDS        4.00        
   -1
SFRAG5_1.Sample.asc
23/09/07
11:31:04.00
23/09/07
11:31:04.00
Administrator

250.000000
1
Lambda 750
750N8071901
PerkinElmer UV WinLab 6.0.4.0738 / 1.61.00 Lambda 900

0
0
3350/servo 860.8/2
0
0
UV/VIS
1
1
1
CommonBeamDepol,150mm sphere / downward view
0
0
0
0
Program
Program
3350/servo 860.8/2
3350/0.2 860.8/0.2
3350/0.2 860.8/0.2
0
1
 
 
 
0
 
860.8
319.2
860.8
Front
100
on
 
 
0
0
0
 
0
 
 
 
0
 
 
0
0
0
0
0
 
 
 
 
0
0


0
0
#HDR
-1
-1
#GR
nm
%R
1.0
0.0
2500.000000
-10.000000
226
8
83.900555
26.273319
#DATA
2500.000000	48.888782
2490.000000	47.390343
2480.000000	50.400458
2470.000000	51.132559
2460.000000	51.633142
2450.000000	53.826535
2440.000000	54.504630
2430.000000	53.480772
2420.000000	54.071027
2410.000000	54.389304
2400.000000	54.475535
2390.000000	55.730805
2380.000000	55.754808
2370.000000	55.108772
2360.000000	54.301051
2350.000000	55.520177
2340.000000	56.435253
2330.000000	55.309719
2320.000000	55.189315
2310.000000	54.249594
2300.000000	53.163212
2290.000000	54.337049
2280.000000	54.395687
2270.000000	55.521088
2260.000000	57.689141
2250.000000	58.881762
2240.000000	59.550313
2230.000000	58.685144
2220.000000	58.114107
2210.000000	57.490120
2200.000000	57.561901
2190.000000	57.985094
2180.000000	58.486249
2170.000000	59.355654
2160.000000	61.034523
2150.000000	61.803079
2140.000000	62.167223
2130.000000	62.406917
2120.000000	62.182542
2110.000000	62.189807
2100.000000	61.945300
2090.000000	61.004067
2080.000000	59.715526
2070.000000	58.727090
2060.000000	57.847094
2050.000000	58.239165
2040.000000	58.564220
2030.000000	58.314782
2020.000000	57.458286
2010.000000	56.395933
2000.000000	55.224780
1990.000000	53.996082
1980.000000	52.653856
1970.000000	52.103577
1960.000000	51.740538
1950.000000	52.337660
1940.000000	54.143998
1930.000000	56.681591
1920.000000	60.621730
1910.000000	65.095447
1900.000000	68.220901
1890.000000	70.681158
1880.000000	72.250562
1870.000000	72.766349
1860.000000	72.873178
1850.000000	72.838978
1840.000000	72.590745
1830.000000	72.568978
1820.000000	72.282365
1810.000000	72.148453
1800.000000	71.983253
1790.000000	71.979099
1780.000000	71.683260
1770.000000	71.654695
1760.000000	71.490923
1750.000000	71.403366
1740.000000	71.618124
1730.000000	72.284509
1720.000000	72.513581
1710.000000	72.787147
1700.000000	73.119428
1690.000000	73.953679
1680.000000	74.578210
1670.000000	74.857879
1660.000000	74.953913
1650.000000	74.807164
1640.000000	74.663771
1630.000000	74.340705
1620.000000	74.001813
1610.000000	73.593140
1600.000000	73.358034
1590.000000	73.076923
1580.000000	72.869187
1570.000000	72.667650
1560.000000	72.472863
1550.000000	71.982682
1540.000000	71.554213
1530.000000	71.294087
1520.000000	71.131317
1510.000000	70.992725
1500.000000	71.001290
1490.000000	71.080269
1480.000000	71.201000
1470.000000	71.478296
1460.000000	71.934165
1450.000000	72.637493
1440.000000	73.420421
1430.000000	74.457488
1420.000000	75.810308
1410.000000	77.251738
1400.000000	78.273882
1390.000000	78.882449
1380.000000	79.178359
1370.000000	79.396922
1360.000000	79.770826
1350.000000	80.046580
1340.000000	80.085486
1330.000000	80.393699
1320.000000	80.703987
1310.000000	80.804145
1300.000000	80.844234
1290.000000	80.810349
1280.000000	80.806566
1270.000000	80.861414
1260.000000	80.912695
1250.000000	80.914269
1240.000000	80.940595
1230.000000	80.817378
1220.000000	80.810162
1210.000000	80.734362
1200.000000	80.765539
1190.000000	80.948263
1180.000000	81.122212
1170.000000	81.388570
1160.000000	81.662055
1150.000000	81.831786
1140.000000	82.006434
1130.000000	82.058819
1120.000000	82.062798
1110.000000	82.160991
1100.000000	82.250955
1090.000000	82.331802
1080.000000	82.382088
1070.000000	82.277404
1060.000000	82.361115
1050.000000	82.289780
1040.000000	82.273312
1030.000000	82.231715
1020.000000	82.388456
1010.000000	82.482679
1000.000000	82.519077
990.000000	82.644309
980.000000	82.704310
970.000000	82.779959
960.000000	82.943396
950.000000	82.977943
940.000000	82.927874
930.000000	83.050552
920.000000	83.083662
910.000000	83.235288
900.000000	83.240519
890.000000	83.042062
880.000000	83.508638
870.000000	83.423847
860.000000	83.885052
850.000000	82.483242
840.000000	83.900555
830.000000	83.523537
820.000000	83.606494
810.000000	83.704059
800.000000	83.827896
790.000000	83.569848
780.000000	83.612214
770.000000	83.626519
760.000000	83.680799
750.000000	83.419745
740.000000	83.493930
730.000000	83.630980
720.000000	83.671859
710.000000	83.538505
700.000000	83.458927
690.000000	83.494000
680.000000	83.486457
670.000000	83.385659
660.000000	83.332208
650.000000	83.353443
640.000000	83.281346
630.000000	83.055813
620.000000	82.977154
610.000000	82.857156
600.000000	82.749793
590.000000	82.620544
580.000000	82.572034
570.000000	82.305937
560.000000	82.103869
550.000000	81.888044
540.000000	81.556481
530.000000	81.311576
520.000000	81.049428
510.000000	80.559222
500.000000	80.210364
490.000000	79.684531
480.000000	79.204871
470.000000	78.778408
460.000000	78.091888
450.000000	77.254221
440.000000	76.335235
430.000000	75.130442
420.000000	73.672060
410.000000	71.975860
400.000000	70.268073
390.000000	68.588193
380.000000	66.501432
370.000000	64.111083
360.000000	61.100674
350.000000	59.136565
340.000000	55.632223
330.000000	51.916914
320.000000	47.811568
310.000000	45.822869
300.000000	41.810044
290.000000	36.501512
280.000000	30.735220
270.000000	29.094382
260.000000	27.972829
250.000000	26.273319
