PE UV       SUBTECH     SPECTRUM    ASCII       PEDS        4.00        
   -1
RDmshap12.Sample.asc
18/03/19
15:07:22.00
18/03/19
15:07:22.00
Administrator

200.000000
1
Lambda 750
750N8071901
PerkinElmer UV WinLab 6.0.4.0738 / 1.61.00 Lambda 900

0
0
3350/servo 860.8/2
0
0
UV/VIS
1
1
1
CommonBeamDepol,150mm sphere / downward view
0
0
0
0
Program
Program
3350/servo 860.8/2
3350/0.2 860.8/0.2
3350/0.2 860.8/0.2
0
1
 
 
 
0
 
860.8
319.2
860.8
Front
100
on
 
 
0
0
0
 
0
 
 
 
0
 
 
0
0
0
0
0
 
 
 
 
0
0


0
0
#HDR
-1
-1
#GR
nm
%R
1.0
0.0
2350.000000
-1.000000
2151
8
77.689169
23.215435
#DATA
2350.000000	46.234082
2349.000000	46.656771
2348.000000	46.601929
2347.000000	47.406330
2346.000000	46.877850
2345.000000	46.948016
2344.000000	46.776458
2343.000000	46.833686
2342.000000	46.884741
2341.000000	46.875386
2340.000000	46.720677
2339.000000	46.990389
2338.000000	46.855507
2337.000000	47.226491
2336.000000	47.306741
2335.000000	47.522639
2334.000000	47.550027
2333.000000	47.429088
2332.000000	47.498707
2331.000000	47.416340
2330.000000	47.590693
2329.000000	47.389932
2328.000000	47.333184
2327.000000	47.352721
2326.000000	47.265473
2325.000000	47.413579
2324.000000	47.215203
2323.000000	47.105241
2322.000000	46.979799
2321.000000	46.892781
2320.000000	47.085509
2319.000000	47.230402
2318.000000	46.961519
2317.000000	47.122421
2316.000000	46.965890
2315.000000	46.727172
2314.000000	46.654434
2313.000000	46.807900
2312.000000	46.939832
2311.000000	46.826613
2310.000000	46.670492
2309.000000	46.590678
2308.000000	46.537662
2307.000000	46.527018
2306.000000	46.528588
2305.000000	46.387228
2304.000000	46.274059
2303.000000	46.320513
2302.000000	46.329772
2301.000000	46.008636
2300.000000	45.982852
2299.000000	46.201855
2298.000000	45.958657
2297.000000	45.771327
2296.000000	45.773016
2295.000000	45.672316
2294.000000	45.728455
2293.000000	45.587368
2292.000000	45.527372
2291.000000	45.391714
2290.000000	45.104660
2289.000000	45.280810
2288.000000	45.598279
2287.000000	45.704546
2286.000000	45.625835
2285.000000	45.424589
2284.000000	45.315182
2283.000000	45.186816
2282.000000	45.280498
2281.000000	45.408138
2280.000000	45.313191
2279.000000	45.284360
2278.000000	45.354692
2277.000000	45.489118
2276.000000	45.413679
2275.000000	45.426027
2274.000000	45.564237
2273.000000	45.684470
2272.000000	45.609581
2271.000000	45.548510
2270.000000	45.726517
2269.000000	45.876460
2268.000000	45.906206
2267.000000	45.963447
2266.000000	46.026527
2265.000000	46.064064
2264.000000	46.004199
2263.000000	46.075705
2262.000000	46.276390
2261.000000	46.450370
2260.000000	46.558722
2259.000000	46.739811
2258.000000	47.078087
2257.000000	47.177427
2256.000000	47.307558
2255.000000	47.461242
2254.000000	47.465831
2253.000000	47.574475
2252.000000	47.745309
2251.000000	48.031778
2250.000000	48.299921
2249.000000	48.537284
2248.000000	48.471772
2247.000000	48.615120
2246.000000	49.007293
2245.000000	49.054138
2244.000000	49.139201
2243.000000	49.482051
2242.000000	49.522345
2241.000000	49.470800
2240.000000	49.675660
2239.000000	49.873502
2238.000000	50.018650
2237.000000	50.201393
2236.000000	50.243477
2235.000000	50.294011
2234.000000	50.357454
2233.000000	50.252802
2232.000000	50.286468
2231.000000	50.456341
2230.000000	50.700324
2229.000000	50.738471
2228.000000	50.702950
2227.000000	50.700384
2226.000000	50.615794
2225.000000	50.640559
2224.000000	50.704763
2223.000000	50.620974
2222.000000	50.727817
2221.000000	50.711345
2220.000000	50.692765
2219.000000	50.714141
2218.000000	50.672138
2217.000000	50.652075
2216.000000	50.605036
2215.000000	50.568709
2214.000000	50.558874
2213.000000	50.550927
2212.000000	50.489549
2211.000000	50.452907
2210.000000	50.407858
2209.000000	50.284243
2208.000000	50.140427
2207.000000	50.289708
2206.000000	50.256429
2205.000000	50.183422
2204.000000	50.279335
2203.000000	50.289618
2202.000000	50.207218
2201.000000	49.982683
2200.000000	49.827185
2199.000000	49.876957
2198.000000	49.889392
2197.000000	49.887055
2196.000000	49.829698
2195.000000	49.617867
2194.000000	49.667312
2193.000000	49.496900
2192.000000	49.456722
2191.000000	49.473421
2190.000000	49.491298
2189.000000	49.419616
2188.000000	49.265706
2187.000000	49.308960
2186.000000	49.421364
2185.000000	49.459437
2184.000000	49.428181
2183.000000	49.246460
2182.000000	49.351932
2181.000000	49.389558
2180.000000	49.257876
2179.000000	49.159194
2178.000000	49.252222
2177.000000	49.238294
2176.000000	49.209714
2175.000000	49.210555
2174.000000	49.302451
2173.000000	49.323554
2172.000000	49.370596
2171.000000	49.320900
2170.000000	49.470361
2169.000000	49.573902
2168.000000	49.818214
2167.000000	49.598098
2166.000000	49.775206
2165.000000	49.551596
2164.000000	49.763918
2163.000000	49.968257
2162.000000	50.236028
2161.000000	50.302719
2160.000000	50.234610
2159.000000	50.556920
2158.000000	50.513786
2157.000000	50.672297
2156.000000	50.993915
2155.000000	50.921121
2154.000000	51.107357
2153.000000	51.395555
2152.000000	51.468877
2151.000000	51.474226
2150.000000	51.637731
2149.000000	51.708090
2148.000000	51.684197
2147.000000	52.032373
2146.000000	52.044064
2145.000000	52.332831
2144.000000	52.310551
2143.000000	52.294122
2142.000000	52.446374
2141.000000	52.566811
2140.000000	52.853095
2139.000000	53.024183
2138.000000	53.309799
2137.000000	53.183432
2136.000000	53.155744
2135.000000	53.331747
2134.000000	53.467654
2133.000000	53.314506
2132.000000	53.705531
2131.000000	53.705850
2130.000000	53.824002
2129.000000	53.689096
2128.000000	53.768471
2127.000000	53.741333
2126.000000	53.849310
2125.000000	53.878400
2124.000000	53.920791
2123.000000	54.088419
2122.000000	54.077634
2121.000000	54.312136
2120.000000	54.039155
2119.000000	54.227027
2118.000000	54.267531
2117.000000	54.024844
2116.000000	54.165801
2115.000000	54.348182
2114.000000	54.138393
2113.000000	54.260496
2112.000000	54.201743
2111.000000	54.216829
2110.000000	54.199514
2109.000000	54.186469
2108.000000	54.196845
2107.000000	54.291753
2106.000000	54.351188
2105.000000	54.424607
2104.000000	54.219442
2103.000000	54.437304
2102.000000	54.485739
2101.000000	54.337619
2100.000000	54.470114
2099.000000	54.404602
2098.000000	54.456600
2097.000000	54.487528
2096.000000	54.394358
2095.000000	54.278730
2094.000000	54.378571
2093.000000	54.411674
2092.000000	54.284568
2091.000000	54.400987
2090.000000	54.363897
2089.000000	54.437172
2088.000000	54.337185
2087.000000	54.241994
2086.000000	54.231861
2085.000000	54.323526
2084.000000	54.202642
2083.000000	54.178773
2082.000000	54.224012
2081.000000	54.112227
2080.000000	53.982129
2079.000000	54.010661
2078.000000	53.986443
2077.000000	53.900767
2076.000000	53.865466
2075.000000	53.666224
2074.000000	53.626056
2073.000000	53.631465
2072.000000	53.517688
2071.000000	53.446638
2070.000000	53.389089
2069.000000	53.168747
2068.000000	53.072839
2067.000000	52.956896
2066.000000	52.892880
2065.000000	52.740204
2064.000000	52.697540
2063.000000	52.587129
2062.000000	52.468828
2061.000000	52.294552
2060.000000	52.181186
2059.000000	52.079262
2058.000000	51.958543
2057.000000	51.862130
2056.000000	51.793783
2055.000000	51.643329
2054.000000	51.543437
2053.000000	51.438454
2052.000000	51.366240
2051.000000	51.238664
2050.000000	51.108698
2049.000000	51.060840
2048.000000	50.983822
2047.000000	50.937887
2046.000000	50.853521
2045.000000	50.744152
2044.000000	50.765307
2043.000000	50.770591
2042.000000	50.711505
2041.000000	50.765791
2040.000000	50.810407
2039.000000	50.801360
2038.000000	50.823308
2037.000000	50.840704
2036.000000	50.892339
2035.000000	51.000027
2034.000000	51.005833
2033.000000	51.025750
2032.000000	51.151973
2031.000000	51.215452
2030.000000	51.319143
2029.000000	51.420252
2028.000000	51.500093
2027.000000	51.560309
2026.000000	51.631056
2025.000000	51.689881
2024.000000	51.751157
2023.000000	51.833542
2022.000000	51.894818
2021.000000	51.921757
2020.000000	51.968090
2019.000000	52.028881
2018.000000	52.010259
2017.000000	51.986607
2016.000000	51.948034
2015.000000	51.953584
2014.000000	51.999830
2013.000000	51.949591
2012.000000	51.870014
2011.000000	51.891274
2010.000000	51.862016
2009.000000	51.772978
2008.000000	51.721256
2007.000000	51.671915
2006.000000	51.576429
2005.000000	51.551110
2004.000000	51.483412
2003.000000	51.403960
2002.000000	51.354662
2001.000000	51.231745
2000.000000	51.142080
1999.000000	51.117602
1998.000000	51.051352
1997.000000	50.987666
1996.000000	50.917060
1995.000000	50.776828
1994.000000	50.666698
1993.000000	50.606302
1992.000000	50.500962
1991.000000	50.357219
1990.000000	50.302679
1989.000000	50.212511
1988.000000	50.148341
1987.000000	50.076595
1986.000000	49.991824
1985.000000	49.908052
1984.000000	49.829503
1983.000000	49.722658
1982.000000	49.667170
1981.000000	49.591613
1980.000000	49.455562
1979.000000	49.393695
1978.000000	49.289435
1977.000000	49.234974
1976.000000	49.116600
1975.000000	49.028545
1974.000000	48.894715
1973.000000	48.802125
1972.000000	48.750160
1971.000000	48.639767
1970.000000	48.589837
1969.000000	48.498100
1968.000000	48.415696
1967.000000	48.354178
1966.000000	48.294755
1965.000000	48.154053
1964.000000	48.041734
1963.000000	48.018101
1962.000000	47.942108
1961.000000	47.851925
1960.000000	47.801163
1959.000000	47.714976
1958.000000	47.601810
1957.000000	47.574274
1956.000000	47.505192
1955.000000	47.458408
1954.000000	47.419109
1953.000000	47.328627
1952.000000	47.276463
1951.000000	47.220852
1950.000000	47.141232
1949.000000	47.156679
1948.000000	47.114316
1947.000000	47.066825
1946.000000	47.011284
1945.000000	47.017582
1944.000000	47.072834
1943.000000	47.053881
1942.000000	47.052143
1941.000000	47.108991
1940.000000	47.139003
1939.000000	47.233488
1938.000000	47.287252
1937.000000	47.397359
1936.000000	47.442650
1935.000000	47.496417
1934.000000	47.584789
1933.000000	47.735821
1932.000000	47.834363
1931.000000	47.966753
1930.000000	48.106140
1929.000000	48.169264
1928.000000	48.421879
1927.000000	48.624307
1926.000000	48.686385
1925.000000	48.868451
1924.000000	49.175787
1923.000000	49.269660
1922.000000	49.545065
1921.000000	49.809739
1920.000000	49.985404
1919.000000	50.256767
1918.000000	50.451391
1917.000000	50.744050
1916.000000	51.022711
1915.000000	51.370840
1914.000000	51.662915
1913.000000	52.035490
1912.000000	52.299808
1911.000000	52.564087
1910.000000	52.879272
1909.000000	53.203048
1908.000000	53.580835
1907.000000	53.840606
1906.000000	54.283683
1905.000000	54.639305
1904.000000	55.012097
1903.000000	55.319056
1902.000000	55.749547
1901.000000	56.069093
1900.000000	56.464236
1899.000000	56.969124
1898.000000	57.294593
1897.000000	57.605935
1896.000000	58.031898
1895.000000	58.459182
1894.000000	58.794982
1893.000000	59.131588
1892.000000	59.598030
1891.000000	59.904675
1890.000000	60.311460
1889.000000	60.631929
1888.000000	60.883424
1887.000000	61.297351
1886.000000	61.586769
1885.000000	61.874178
1884.000000	62.169859
1883.000000	62.435200
1882.000000	62.732554
1881.000000	62.984362
1880.000000	63.199901
1879.000000	63.440171
1878.000000	63.703533
1877.000000	64.004819
1876.000000	64.201080
1875.000000	64.379315
1874.000000	64.532460
1873.000000	64.669663
1872.000000	64.878835
1871.000000	65.150704
1870.000000	65.259466
1869.000000	65.355200
1868.000000	65.522305
1867.000000	65.587619
1866.000000	65.714297
1865.000000	65.793941
1864.000000	65.840352
1863.000000	65.908564
1862.000000	66.032176
1861.000000	66.081768
1860.000000	66.072547
1859.000000	66.102529
1858.000000	66.194994
1857.000000	66.243105
1856.000000	66.284901
1855.000000	66.260855
1854.000000	66.314084
1853.000000	66.343919
1852.000000	66.336202
1851.000000	66.354730
1850.000000	66.388681
1849.000000	66.365811
1848.000000	66.382968
1847.000000	66.373888
1846.000000	66.368438
1845.000000	66.414401
1844.000000	66.372669
1843.000000	66.375652
1842.000000	66.373705
1841.000000	66.363960
1840.000000	66.377062
1839.000000	66.378350
1838.000000	66.344415
1837.000000	66.284439
1836.000000	66.259350
1835.000000	66.271642
1834.000000	66.247849
1833.000000	66.213263
1832.000000	66.206807
1831.000000	66.159918
1830.000000	66.166438
1829.000000	66.140918
1828.000000	66.079819
1827.000000	66.074996
1826.000000	66.064656
1825.000000	66.040660
1824.000000	66.039292
1823.000000	66.028869
1822.000000	65.959768
1821.000000	65.943991
1820.000000	65.929787
1819.000000	65.887554
1818.000000	65.888620
1817.000000	65.859293
1816.000000	65.833949
1815.000000	65.824702
1814.000000	65.797515
1813.000000	65.759615
1812.000000	65.752265
1811.000000	65.733336
1810.000000	65.710282
1809.000000	65.702299
1808.000000	65.696191
1807.000000	65.672659
1806.000000	65.662810
1805.000000	65.624174
1804.000000	65.575176
1803.000000	65.579355
1802.000000	65.577627
1801.000000	65.552372
1800.000000	65.507097
1799.000000	65.498903
1798.000000	65.486147
1797.000000	65.465190
1796.000000	65.446633
1795.000000	65.418539
1794.000000	65.415572
1793.000000	65.405388
1792.000000	65.377293
1791.000000	65.363684
1790.000000	65.334110
1789.000000	65.311541
1788.000000	65.312698
1787.000000	65.295098
1786.000000	65.272140
1785.000000	65.265292
1784.000000	65.224523
1783.000000	65.193778
1782.000000	65.192278
1781.000000	65.173800
1780.000000	65.141208
1779.000000	65.132280
1778.000000	65.083490
1777.000000	65.056496
1776.000000	65.039860
1775.000000	64.987982
1774.000000	64.948415
1773.000000	64.943316
1772.000000	64.912586
1771.000000	64.872630
1770.000000	64.829465
1769.000000	64.756138
1768.000000	64.755570
1767.000000	64.752774
1766.000000	64.708542
1765.000000	64.695361
1764.000000	64.629486
1763.000000	64.586094
1762.000000	64.557760
1761.000000	64.550540
1760.000000	64.499868
1759.000000	64.452105
1758.000000	64.430640
1757.000000	64.365294
1756.000000	64.339252
1755.000000	64.334586
1754.000000	64.296487
1753.000000	64.268751
1752.000000	64.235079
1751.000000	64.211936
1750.000000	64.204869
1749.000000	64.188000
1748.000000	64.127032
1747.000000	64.103364
1746.000000	64.056385
1745.000000	64.039591
1744.000000	64.000902
1743.000000	63.974618
1742.000000	63.964463
1741.000000	63.903461
1740.000000	63.883202
1739.000000	63.860754
1738.000000	63.832085
1737.000000	63.810300
1736.000000	63.807826
1735.000000	63.814610
1734.000000	63.841506
1733.000000	63.825272
1732.000000	63.814336
1731.000000	63.835701
1730.000000	63.844391
1729.000000	63.846729
1728.000000	63.888384
1727.000000	63.933205
1726.000000	64.022201
1725.000000	64.053398
1724.000000	64.093123
1723.000000	64.187798
1722.000000	64.242271
1721.000000	64.304319
1720.000000	64.382251
1719.000000	64.480189
1718.000000	64.545092
1717.000000	64.573785
1716.000000	64.675270
1715.000000	64.726460
1714.000000	64.825016
1713.000000	64.900043
1712.000000	64.949333
1711.000000	65.003286
1710.000000	65.061921
1709.000000	65.081561
1708.000000	65.147102
1707.000000	65.174340
1706.000000	65.235388
1705.000000	65.227488
1704.000000	65.292466
1703.000000	65.295926
1702.000000	65.335317
1701.000000	65.349105
1700.000000	65.338620
1699.000000	65.317490
1698.000000	65.359262
1697.000000	65.409015
1696.000000	65.434551
1695.000000	65.404821
1694.000000	65.436344
1693.000000	65.510792
1692.000000	65.531595
1691.000000	65.597529
1690.000000	65.663049
1689.000000	65.702938
1688.000000	65.756862
1687.000000	65.862264
1686.000000	65.914188
1685.000000	65.999740
1684.000000	66.131108
1683.000000	66.220957
1682.000000	66.348136
1681.000000	66.452267
1680.000000	66.545587
1679.000000	66.657185
1678.000000	66.786064
1677.000000	66.924026
1676.000000	67.008836
1675.000000	67.159214
1674.000000	67.260311
1673.000000	67.387521
1672.000000	67.532783
1671.000000	67.622105
1670.000000	67.748183
1669.000000	67.853110
1668.000000	67.950629
1667.000000	68.050953
1666.000000	68.114639
1665.000000	68.184602
1664.000000	68.246864
1663.000000	68.307743
1662.000000	68.366548
1661.000000	68.435157
1660.000000	68.496819
1659.000000	68.523567
1658.000000	68.551622
1657.000000	68.602300
1656.000000	68.642620
1655.000000	68.689496
1654.000000	68.672319
1653.000000	68.696924
1652.000000	68.722573
1651.000000	68.702469
1650.000000	68.720235
1649.000000	68.717240
1648.000000	68.710676
1647.000000	68.730094
1646.000000	68.735303
1645.000000	68.743438
1644.000000	68.733138
1643.000000	68.706265
1642.000000	68.691548
1641.000000	68.694009
1640.000000	68.690299
1639.000000	68.663025
1638.000000	68.654362
1637.000000	68.644002
1636.000000	68.622470
1635.000000	68.597765
1634.000000	68.566260
1633.000000	68.527642
1632.000000	68.512377
1631.000000	68.496637
1630.000000	68.484898
1629.000000	68.455313
1628.000000	68.415340
1627.000000	68.395610
1626.000000	68.382669
1625.000000	68.354641
1624.000000	68.325547
1623.000000	68.299514
1622.000000	68.260274
1621.000000	68.233512
1620.000000	68.207577
1619.000000	68.198267
1618.000000	68.157288
1617.000000	68.117132
1616.000000	68.088198
1615.000000	68.053356
1614.000000	68.012277
1613.000000	67.977623
1612.000000	67.922891
1611.000000	67.887259
1610.000000	67.878907
1609.000000	67.847922
1608.000000	67.804380
1607.000000	67.755800
1606.000000	67.716200
1605.000000	67.677617
1604.000000	67.642270
1603.000000	67.606808
1602.000000	67.548305
1601.000000	67.507612
1600.000000	67.466772
1599.000000	67.418349
1598.000000	67.385862
1597.000000	67.346108
1596.000000	67.309666
1595.000000	67.288467
1594.000000	67.255102
1593.000000	67.222473
1592.000000	67.188279
1591.000000	67.156481
1590.000000	67.131197
1589.000000	67.081513
1588.000000	67.051408
1587.000000	67.029891
1586.000000	67.008545
1585.000000	66.981449
1584.000000	66.946238
1583.000000	66.918765
1582.000000	66.888647
1581.000000	66.864514
1580.000000	66.842186
1579.000000	66.812603
1578.000000	66.771843
1577.000000	66.740715
1576.000000	66.710748
1575.000000	66.683177
1574.000000	66.659257
1573.000000	66.645182
1572.000000	66.614599
1571.000000	66.587803
1570.000000	66.573661
1569.000000	66.536685
1568.000000	66.528275
1567.000000	66.489718
1566.000000	66.466094
1565.000000	66.476860
1564.000000	66.462720
1563.000000	66.454019
1562.000000	66.425470
1561.000000	66.411405
1560.000000	66.381770
1559.000000	66.382533
1558.000000	66.386108
1557.000000	66.384450
1556.000000	66.364637
1555.000000	66.356443
1554.000000	66.326085
1553.000000	66.301172
1552.000000	66.283981
1551.000000	66.291292
1550.000000	66.271877
1549.000000	66.243518
1548.000000	66.231858
1547.000000	66.205937
1546.000000	66.175387
1545.000000	66.135243
1544.000000	66.091674
1543.000000	66.052433
1542.000000	66.006910
1541.000000	65.962609
1540.000000	65.896969
1539.000000	65.861516
1538.000000	65.801080
1537.000000	65.733874
1536.000000	65.662138
1535.000000	65.621053
1534.000000	65.566018
1533.000000	65.522909
1532.000000	65.458692
1531.000000	65.417072
1530.000000	65.384202
1529.000000	65.304110
1528.000000	65.248268
1527.000000	65.216765
1526.000000	65.168497
1525.000000	65.124894
1524.000000	65.075331
1523.000000	65.041482
1522.000000	65.013720
1521.000000	64.983246
1520.000000	64.953908
1519.000000	64.927038
1518.000000	64.909503
1517.000000	64.856481
1516.000000	64.879109
1515.000000	64.870940
1514.000000	64.824943
1513.000000	64.800020
1512.000000	64.783523
1511.000000	64.764729
1510.000000	64.734512
1509.000000	64.750222
1508.000000	64.741444
1507.000000	64.707476
1506.000000	64.707262
1505.000000	64.696329
1504.000000	64.710252
1503.000000	64.698259
1502.000000	64.709160
1501.000000	64.699960
1500.000000	64.700694
1499.000000	64.701560
1498.000000	64.690994
1497.000000	64.705876
1496.000000	64.711638
1495.000000	64.717057
1494.000000	64.732346
1493.000000	64.736693
1492.000000	64.773631
1491.000000	64.792789
1490.000000	64.807844
1489.000000	64.821968
1488.000000	64.884289
1487.000000	64.918888
1486.000000	64.918731
1485.000000	64.970877
1484.000000	64.998503
1483.000000	65.019897
1482.000000	65.049715
1481.000000	65.124160
1480.000000	65.165255
1479.000000	65.174815
1478.000000	65.220289
1477.000000	65.245933
1476.000000	65.303222
1475.000000	65.341436
1474.000000	65.389466
1473.000000	65.415847
1472.000000	65.459406
1471.000000	65.495958
1470.000000	65.538827
