PE UV       SUBTECH     SPECTRUM    ASCII       PEDS        4.00        
   -1
RDms159332.Sample.asc
18/03/19
17:28:30.00
18/03/19
17:28:30.00
Administrator

200.000000
1
Lambda 750
750N8071901
PerkinElmer UV WinLab 6.0.4.0738 / 1.61.00 Lambda 900

0
0
3350/servo 860.8/2
0
0
UV/VIS
1
1
1
CommonBeamDepol,150mm sphere / downward view
0
0
0
0
Program
Program
3350/servo 860.8/2
3350/0.2 860.8/0.2
3350/0.2 860.8/0.2
0
1
 
 
 
0
 
860.8
319.2
860.8
Front
100
on
 
 
0
0
0
 
0
 
 
 
0
 
 
0
0
0
0
0
 
 
 
 
0
0


0
0
#HDR
-1
-1
#GR
nm
%R
1.0
0.0
2350.000000
-1.000000
2151
8
54.716628
6.729080
#DATA
2350.000000	36.861828
2349.000000	37.376663
2348.000000	37.225346
2347.000000	37.910950
2346.000000	37.441868
2345.000000	37.338055
2344.000000	37.278429
2343.000000	37.226145
2342.000000	37.193285
2341.000000	37.466376
2340.000000	37.395341
2339.000000	37.629678
2338.000000	37.600626
2337.000000	37.851368
2336.000000	37.915051
2335.000000	38.026175
2334.000000	38.212214
2333.000000	37.903138
2332.000000	37.950758
2331.000000	37.940073
2330.000000	37.940988
2329.000000	37.856676
2328.000000	37.961811
2327.000000	37.757495
2326.000000	37.608883
2325.000000	37.583189
2324.000000	37.560182
2323.000000	37.788231
2322.000000	37.506887
2321.000000	37.608329
2320.000000	37.597833
2319.000000	37.520893
2318.000000	37.469520
2317.000000	37.421854
2316.000000	37.434497
2315.000000	37.191589
2314.000000	36.983796
2313.000000	37.239006
2312.000000	37.313750
2311.000000	37.123644
2310.000000	37.127859
2309.000000	37.188733
2308.000000	36.946601
2307.000000	36.766387
2306.000000	36.808575
2305.000000	36.538234
2304.000000	36.592485
2303.000000	36.615500
2302.000000	36.608052
2301.000000	36.475064
2300.000000	36.385094
2299.000000	36.404209
2298.000000	36.328275
2297.000000	35.970456
2296.000000	36.216290
2295.000000	36.122851
2294.000000	36.100500
2293.000000	35.768684
2292.000000	35.679071
2291.000000	35.769045
2290.000000	35.691664
2289.000000	35.675474
2288.000000	35.707885
2287.000000	35.478290
2286.000000	35.585293
2285.000000	35.312959
2284.000000	35.174594
2283.000000	35.338514
2282.000000	35.260046
2281.000000	35.334871
2280.000000	35.343762
2279.000000	35.213032
2278.000000	35.332088
2277.000000	35.389234
2276.000000	35.299422
2275.000000	35.389485
2274.000000	35.495016
2273.000000	35.559774
2272.000000	35.568131
2271.000000	35.406658
2270.000000	35.330259
2269.000000	35.708770
2268.000000	35.624907
2267.000000	35.773219
2266.000000	36.010702
2265.000000	36.083598
2264.000000	36.037203
2263.000000	36.049557
2262.000000	36.062273
2261.000000	36.318270
2260.000000	36.600346
2259.000000	36.573285
2258.000000	36.728017
2257.000000	36.818310
2256.000000	36.975557
2255.000000	37.195972
2254.000000	37.426672
2253.000000	37.566275
2252.000000	37.677783
2251.000000	37.712947
2250.000000	37.860048
2249.000000	38.191634
2248.000000	38.427393
2247.000000	38.538584
2246.000000	38.581995
2245.000000	38.796562
2244.000000	39.014843
2243.000000	39.131073
2242.000000	39.168009
2241.000000	39.332818
2240.000000	39.365612
2239.000000	39.435345
2238.000000	39.728250
2237.000000	39.901981
2236.000000	39.904940
2235.000000	39.958422
2234.000000	40.022683
2233.000000	40.049192
2232.000000	40.049329
2231.000000	40.195806
2230.000000	40.292758
2229.000000	40.339801
2228.000000	40.261687
2227.000000	40.184251
2226.000000	40.220904
2225.000000	40.296368
2224.000000	40.274284
2223.000000	40.316817
2222.000000	40.273039
2221.000000	40.316938
2220.000000	40.417859
2219.000000	40.241834
2218.000000	40.083141
2217.000000	40.141019
2216.000000	40.164532
2215.000000	40.069328
2214.000000	40.084760
2213.000000	40.103983
2212.000000	40.044344
2211.000000	39.904556
2210.000000	39.879719
2209.000000	39.826568
2208.000000	39.760863
2207.000000	39.735101
2206.000000	39.614074
2205.000000	39.628113
2204.000000	39.536463
2203.000000	39.521578
2202.000000	39.573957
2201.000000	39.447531
2200.000000	39.366677
2199.000000	39.458753
2198.000000	39.386474
2197.000000	39.253227
2196.000000	39.106590
2195.000000	39.139150
2194.000000	39.194843
2193.000000	38.941763
2192.000000	38.843010
2191.000000	38.878245
2190.000000	38.816407
2189.000000	38.766407
2188.000000	38.548211
2187.000000	38.579245
2186.000000	38.518983
2185.000000	38.714195
2184.000000	38.641377
2183.000000	38.518745
2182.000000	38.600274
2181.000000	38.477193
2180.000000	38.507618
2179.000000	38.488805
2178.000000	38.374274
2177.000000	38.565303
2176.000000	38.533141
2175.000000	38.441944
2174.000000	38.473485
2173.000000	38.478626
2172.000000	38.556965
2171.000000	38.625927
2170.000000	38.767445
2169.000000	38.791887
2168.000000	38.939946
2167.000000	38.928140
2166.000000	38.920224
2165.000000	39.066144
2164.000000	38.938836
2163.000000	39.167038
2162.000000	39.329820
2161.000000	39.532939
2160.000000	39.299417
2159.000000	39.679376
2158.000000	39.524046
2157.000000	39.782693
2156.000000	40.045278
2155.000000	40.171970
2154.000000	40.171588
2153.000000	40.374219
2152.000000	40.473732
2151.000000	40.677196
2150.000000	40.775550
2149.000000	40.757533
2148.000000	40.839289
2147.000000	41.190295
2146.000000	41.092650
2145.000000	41.245266
2144.000000	41.394413
2143.000000	41.318367
2142.000000	41.407481
2141.000000	41.677529
2140.000000	41.964685
2139.000000	41.900777
2138.000000	42.137638
2137.000000	42.164782
2136.000000	42.185802
2135.000000	42.148740
2134.000000	42.322696
2133.000000	42.368677
2132.000000	42.647742
2131.000000	42.649682
2130.000000	42.597590
2129.000000	42.571928
2128.000000	42.715958
2127.000000	42.835081
2126.000000	42.969650
2125.000000	42.851441
2124.000000	42.930565
2123.000000	42.926990
2122.000000	42.974926
2121.000000	43.177555
2120.000000	42.913076
2119.000000	43.110992
2118.000000	43.289409
2117.000000	42.930055
2116.000000	43.097723
2115.000000	43.272492
2114.000000	43.189225
2113.000000	43.239842
2112.000000	43.269359
2111.000000	43.259313
2110.000000	43.170009
2109.000000	43.155297
2108.000000	43.219440
2107.000000	43.327384
2106.000000	43.300974
2105.000000	43.232405
2104.000000	43.333397
2103.000000	43.426001
2102.000000	43.480918
2101.000000	43.425352
2100.000000	43.589855
2099.000000	43.447657
2098.000000	43.409109
2097.000000	43.594836
2096.000000	43.479918
2095.000000	43.349529
2094.000000	43.443078
2093.000000	43.428584
2092.000000	43.424479
2091.000000	43.448977
2090.000000	43.293296
2089.000000	43.319257
2088.000000	43.311729
2087.000000	43.287041
2086.000000	43.259273
2085.000000	43.303040
2084.000000	43.242021
2083.000000	43.179520
2082.000000	43.153326
2081.000000	43.012706
2080.000000	42.939089
2079.000000	42.826628
2078.000000	42.745108
2077.000000	42.792320
2076.000000	42.827076
2075.000000	42.606913
2074.000000	42.498691
2073.000000	42.502502
2072.000000	42.364315
2071.000000	42.337460
2070.000000	42.274852
2069.000000	42.069102
2068.000000	42.021038
2067.000000	41.953165
2066.000000	41.747113
2065.000000	41.665916
2064.000000	41.563434
2063.000000	41.363500
2062.000000	41.268257
2061.000000	41.220671
2060.000000	41.095071
2059.000000	40.930530
2058.000000	40.784206
2057.000000	40.672554
2056.000000	40.575274
2055.000000	40.414992
2054.000000	40.286736
2053.000000	40.209878
2052.000000	40.139091
2051.000000	40.033210
2050.000000	39.824183
2049.000000	39.748758
2048.000000	39.705492
2047.000000	39.678682
2046.000000	39.654884
2045.000000	39.552264
2044.000000	39.526496
2043.000000	39.529484
2042.000000	39.467171
2041.000000	39.431402
2040.000000	39.441207
2039.000000	39.449995
2038.000000	39.446244
2037.000000	39.477220
2036.000000	39.536302
2035.000000	39.610914
2034.000000	39.688106
2033.000000	39.733587
2032.000000	39.813305
2031.000000	39.874614
2030.000000	39.937547
2029.000000	40.031479
2028.000000	40.110752
2027.000000	40.187942
2026.000000	40.284171
2025.000000	40.305524
2024.000000	40.361949
2023.000000	40.443773
2022.000000	40.470863
2021.000000	40.533314
2020.000000	40.600337
2019.000000	40.611675
2018.000000	40.567463
2017.000000	40.553442
2016.000000	40.563859
2015.000000	40.585791
2014.000000	40.564167
2013.000000	40.529414
2012.000000	40.512154
2011.000000	40.464432
2010.000000	40.392657
2009.000000	40.355437
2008.000000	40.291765
2007.000000	40.189482
2006.000000	40.163055
2005.000000	40.088600
2004.000000	40.009214
2003.000000	39.913801
2002.000000	39.829987
2001.000000	39.715339
2000.000000	39.624481
1999.000000	39.551965
1998.000000	39.449215
1997.000000	39.378407
1996.000000	39.305946
1995.000000	39.172230
1994.000000	39.044904
1993.000000	38.966972
1992.000000	38.862496
1991.000000	38.699479
1990.000000	38.636648
1989.000000	38.554441
1988.000000	38.431094
1987.000000	38.350515
1986.000000	38.256405
1985.000000	38.169443
1984.000000	38.034339
1983.000000	37.936781
1982.000000	37.868955
1981.000000	37.800324
1980.000000	37.656343
1979.000000	37.541533
1978.000000	37.482447
1977.000000	37.377504
1976.000000	37.276839
1975.000000	37.225962
1974.000000	37.090006
1973.000000	36.996950
1972.000000	36.946002
1971.000000	36.837744
1970.000000	36.730944
1969.000000	36.628706
1968.000000	36.519983
1967.000000	36.478426
1966.000000	36.389777
1965.000000	36.283916
1964.000000	36.168979
1963.000000	36.079483
1962.000000	36.043477
1961.000000	35.916662
1960.000000	35.853792
1959.000000	35.734059
1958.000000	35.628065
1957.000000	35.590487
1956.000000	35.493899
1955.000000	35.421155
1954.000000	35.361818
1953.000000	35.297706
1952.000000	35.211082
1951.000000	35.143120
1950.000000	35.052435
1949.000000	35.005065
1948.000000	34.976708
1947.000000	34.958121
1946.000000	34.935372
1945.000000	34.912890
1944.000000	34.921395
1943.000000	34.903657
1942.000000	34.917866
1941.000000	34.901797
1940.000000	34.935274
1939.000000	34.977936
1938.000000	35.040993
1937.000000	35.020159
1936.000000	35.182029
1935.000000	35.243786
1934.000000	35.308397
1933.000000	35.353385
1932.000000	35.452329
1931.000000	35.695797
1930.000000	35.775609
1929.000000	35.841200
1928.000000	36.061630
1927.000000	36.254275
1926.000000	36.283590
1925.000000	36.515077
1924.000000	36.736390
1923.000000	36.892655
1922.000000	37.148230
1921.000000	37.375094
1920.000000	37.585293
1919.000000	37.912596
1918.000000	38.096846
1917.000000	38.364479
1916.000000	38.549033
1915.000000	38.961999
1914.000000	39.245797
1913.000000	39.648932
1912.000000	39.758564
1911.000000	40.148487
1910.000000	40.467148
1909.000000	40.718276
1908.000000	41.116143
1907.000000	41.443354
1906.000000	41.750967
1905.000000	42.159929
1904.000000	42.514330
1903.000000	42.827751
1902.000000	43.250333
1901.000000	43.604418
1900.000000	43.976213
1899.000000	44.394949
1898.000000	44.759250
1897.000000	45.054396
1896.000000	45.434206
1895.000000	45.905015
1894.000000	46.178841
1893.000000	46.535742
1892.000000	46.951383
1891.000000	47.259491
1890.000000	47.595904
1889.000000	47.882054
1888.000000	48.147371
1887.000000	48.476804
1886.000000	48.795103
1885.000000	49.057174
1884.000000	49.326340
1883.000000	49.600941
1882.000000	49.842878
1881.000000	50.082443
1880.000000	50.306845
1879.000000	50.476567
1878.000000	50.680342
1877.000000	50.883708
1876.000000	51.053336
1875.000000	51.212994
1874.000000	51.341043
1873.000000	51.523392
1872.000000	51.613086
1871.000000	51.742364
1870.000000	51.861483
1869.000000	51.916345
1868.000000	52.093199
1867.000000	52.188003
1866.000000	52.221109
1865.000000	52.277359
1864.000000	52.319738
1863.000000	52.363800
1862.000000	52.493682
1861.000000	52.498789
1860.000000	52.513501
1859.000000	52.492327
1858.000000	52.550668
1857.000000	52.619022
1856.000000	52.672750
1855.000000	52.705937
1854.000000	52.734723
1853.000000	52.721150
1852.000000	52.717491
1851.000000	52.699211
1850.000000	52.692357
1849.000000	52.687450
1848.000000	52.703747
1847.000000	52.746763
1846.000000	52.716734
1845.000000	52.692454
1844.000000	52.652004
1843.000000	52.638327
1842.000000	52.662589
1841.000000	52.657870
1840.000000	52.638965
1839.000000	52.591509
1838.000000	52.552905
1837.000000	52.480188
1836.000000	52.443290
1835.000000	52.438562
1834.000000	52.377400
1833.000000	52.360527
1832.000000	52.351085
1831.000000	52.296291
1830.000000	52.268164
1829.000000	52.256606
1828.000000	52.221520
1827.000000	52.189053
1826.000000	52.152027
1825.000000	52.150444
1824.000000	52.134777
1823.000000	52.112995
1822.000000	52.083042
1821.000000	52.067836
1820.000000	52.027738
1819.000000	51.973013
1818.000000	51.967837
1817.000000	51.948968
1816.000000	51.927990
1815.000000	51.927758
1814.000000	51.881436
1813.000000	51.835559
1812.000000	51.824557
1811.000000	51.796725
1810.000000	51.801080
1809.000000	51.780820
1808.000000	51.721589
1807.000000	51.691679
1806.000000	51.690947
1805.000000	51.689114
1804.000000	51.668729
1803.000000	51.635133
1802.000000	51.616843
1801.000000	51.613362
1800.000000	51.584949
1799.000000	51.554743
1798.000000	51.532996
1797.000000	51.522184
1796.000000	51.502663
1795.000000	51.471664
1794.000000	51.485383
1793.000000	51.500463
1792.000000	51.455208
1791.000000	51.442375
1790.000000	51.430506
1789.000000	51.405256
1788.000000	51.408972
1787.000000	51.386629
1786.000000	51.383313
1785.000000	51.376268
1784.000000	51.333766
1783.000000	51.311758
1782.000000	51.311341
1781.000000	51.275005
1780.000000	51.259045
1779.000000	51.275742
1778.000000	51.244982
1777.000000	51.188723
1776.000000	51.178430
1775.000000	51.118711
1774.000000	51.067679
1773.000000	51.038747
1772.000000	50.982993
1771.000000	50.960674
1770.000000	50.916975
1769.000000	50.877863
1768.000000	50.837934
1767.000000	50.826222
1766.000000	50.745283
1765.000000	50.731757
1764.000000	50.735763
1763.000000	50.678224
1762.000000	50.630335
1761.000000	50.611692
1760.000000	50.574527
1759.000000	50.549439
1758.000000	50.512804
1757.000000	50.479002
1756.000000	50.428425
1755.000000	50.371574
1754.000000	50.342299
1753.000000	50.320365
1752.000000	50.267066
1751.000000	50.235618
1750.000000	50.222038
1749.000000	50.197112
1748.000000	50.158958
1747.000000	50.128763
1746.000000	50.081142
1745.000000	50.004216
1744.000000	49.949758
1743.000000	49.921302
1742.000000	49.884704
1741.000000	49.827528
1740.000000	49.803131
1739.000000	49.756544
1738.000000	49.752940
1737.000000	49.698165
1736.000000	49.694254
1735.000000	49.666356
1734.000000	49.668450
1733.000000	49.676568
1732.000000	49.651265
1731.000000	49.630163
1730.000000	49.632893
1729.000000	49.646974
1728.000000	49.705923
1727.000000	49.718183
1726.000000	49.723857
1725.000000	49.751619
1724.000000	49.795278
1723.000000	49.870719
1722.000000	49.908114
1721.000000	49.983340
1720.000000	50.026713
1719.000000	50.093776
1718.000000	50.148645
1717.000000	50.172587
1716.000000	50.249691
1715.000000	50.317763
1714.000000	50.375535
1713.000000	50.404450
1712.000000	50.439815
1711.000000	50.512759
1710.000000	50.529993
1709.000000	50.553207
1708.000000	50.607989
1707.000000	50.612552
1706.000000	50.671848
1705.000000	50.651287
1704.000000	50.656238
1703.000000	50.656909
1702.000000	50.700836
1701.000000	50.714956
1700.000000	50.721498
1699.000000	50.690197
1698.000000	50.711394
1697.000000	50.741091
1696.000000	50.802779
1695.000000	50.751471
1694.000000	50.749683
1693.000000	50.791777
1692.000000	50.807193
1691.000000	50.807187
1690.000000	50.865200
1689.000000	50.887408
1688.000000	50.956179
1687.000000	51.008644
1686.000000	51.083772
1685.000000	51.125896
1684.000000	51.182661
1683.000000	51.296701
1682.000000	51.364520
1681.000000	51.475031
1680.000000	51.540666
1679.000000	51.627791
1678.000000	51.718733
1677.000000	51.827504
1676.000000	51.906155
1675.000000	52.003202
1674.000000	52.069933
1673.000000	52.204062
1672.000000	52.281669
1671.000000	52.371110
1670.000000	52.475155
1669.000000	52.601389
1668.000000	52.634470
1667.000000	52.703091
1666.000000	52.750711
1665.000000	52.798869
1664.000000	52.855554
1663.000000	52.916449
1662.000000	52.939892
1661.000000	53.033888
1660.000000	53.057113
1659.000000	53.090756
1658.000000	53.124296
1657.000000	53.146338
1656.000000	53.146774
1655.000000	53.196197
1654.000000	53.219418
1653.000000	53.224084
1652.000000	53.236062
1651.000000	53.198371
1650.000000	53.198473
1649.000000	53.187891
1648.000000	53.172554
1647.000000	53.171186
1646.000000	53.170829
1645.000000	53.160800
1644.000000	53.150629
1643.000000	53.129556
1642.000000	53.087971
1641.000000	53.067458
1640.000000	53.071848
1639.000000	53.063066
1638.000000	53.045754
1637.000000	53.014941
1636.000000	52.974113
1635.000000	52.955120
1634.000000	52.918472
1633.000000	52.876790
1632.000000	52.860236
1631.000000	52.849276
1630.000000	52.829382
1629.000000	52.803444
1628.000000	52.770380
1627.000000	52.740711
1626.000000	52.703031
1625.000000	52.658286
1624.000000	52.632247
1623.000000	52.626455
1622.000000	52.595238
1621.000000	52.530269
1620.000000	52.489132
1619.000000	52.489557
1618.000000	52.452966
1617.000000	52.405315
1616.000000	52.370944
1615.000000	52.352945
1614.000000	52.311169
1613.000000	52.260966
1612.000000	52.237297
1611.000000	52.187899
1610.000000	52.160670
1609.000000	52.121092
1608.000000	52.083547
1607.000000	52.049193
1606.000000	51.998887
1605.000000	51.947746
1604.000000	51.908502
1603.000000	51.874022
1602.000000	51.848069
1601.000000	51.799205
1600.000000	51.757575
1599.000000	51.710977
1598.000000	51.673566
1597.000000	51.641704
1596.000000	51.591765
1595.000000	51.549340
1594.000000	51.526488
1593.000000	51.492434
1592.000000	51.459414
1591.000000	51.438784
1590.000000	51.399886
1589.000000	51.355950
1588.000000	51.325717
1587.000000	51.296818
1586.000000	51.260293
1585.000000	51.221520
1584.000000	51.181590
1583.000000	51.155705
1582.000000	51.138679
1581.000000	51.121303
1580.000000	51.092405
1579.000000	51.041182
1578.000000	50.997074
1577.000000	50.960028
1576.000000	50.927743
1575.000000	50.904889
1574.000000	50.863288
1573.000000	50.827955
1572.000000	50.798885
1571.000000	50.768644
1570.000000	50.736723
1569.000000	50.693520
1568.000000	50.685952
1567.000000	50.663405
1566.000000	50.612983
1565.000000	50.611028
1564.000000	50.587840
1563.000000	50.552440
1562.000000	50.520923
1561.000000	50.512097
1560.000000	50.470069
1559.000000	50.432087
1558.000000	50.432206
1557.000000	50.407087
1556.000000	50.373629
1555.000000	50.333209
1554.000000	50.317513
1553.000000	50.302126
1552.000000	50.288080
1551.000000	50.268820
1550.000000	50.238883
1549.000000	50.196388
1548.000000	50.184730
1547.000000	50.128772
1546.000000	50.097119
1545.000000	50.047439
1544.000000	50.000964
1543.000000	49.961240
1542.000000	49.923745
1541.000000	49.863924
1540.000000	49.795206
1539.000000	49.733341
1538.000000	49.682088
1537.000000	49.613275
1536.000000	49.548119
1535.000000	49.502336
1534.000000	49.460295
1533.000000	49.406577
1532.000000	49.318244
1531.000000	49.272730
1530.000000	49.219296
1529.000000	49.151497
1528.000000	49.111459
1527.000000	49.061802
1526.000000	49.023604
1525.000000	48.974751
1524.000000	48.915321
1523.000000	48.885527
1522.000000	48.851086
1521.000000	48.809357
1520.000000	48.776946
1519.000000	48.752131
1518.000000	48.738853
1517.000000	48.695000
1516.000000	48.657530
1515.000000	48.648687
1514.000000	48.605361
1513.000000	48.589259
1512.000000	48.559457
1511.000000	48.563245
1510.000000	48.526275
1509.000000	48.518588
1508.000000	48.483495
1507.000000	48.470120
1506.000000	48.490757
1505.000000	48.448151
1504.000000	48.444544
1503.000000	48.424844
1502.000000	48.413093
1501.000000	48.422974
1500.000000	48.414484
1499.000000	48.400236
1498.000000	48.391775
1497.000000	48.391782
1496.000000	48.397907
1495.000000	48.391405
1494.000000	48.415021
1493.000000	48.418532
1492.000000	48.402958
1491.000000	48.437911
1490.000000	48.448168
1489.000000	48.459115
1488.000000	48.482373
1487.000000	48.507066
1486.000000	48.508584
1485.000000	48.542204
1484.000000	48.553206
1483.000000	48.602427
1482.000000	48.588401
1481.000000	48.628932
1480.000000	48.650373
1479.000000	48.672795
1478.000000	48.703222
1477.000000	48.725143
1476.000000	48.727724
1475.000000	48.759245
1474.000000	48.766649
1473.000000	48.784011
1472.000000	48.788783
1471.000000	48.827770
1470.000000	48.836008
