PE UV       SUBTECH     SPECTRUM    ASCII       PEDS        4.00        
   -1
RDmshap22.Sample.asc
18/03/19
16:25:53.00
18/03/19
16:25:53.00
Administrator

200.000000
1
Lambda 750
750N8071901
PerkinElmer UV WinLab 6.0.4.0738 / 1.61.00 Lambda 900

0
0
3350/servo 860.8/2
0
0
UV/VIS
1
1
1
CommonBeamDepol,150mm sphere / downward view
0
0
0
0
Program
Program
3350/servo 860.8/2
3350/0.2 860.8/0.2
3350/0.2 860.8/0.2
0
1
 
 
 
0
 
860.8
319.2
860.8
Front
100
on
 
 
0
0
0
 
0
 
 
 
0
 
 
0
0
0
0
0
 
 
 
 
0
0


0
0
#HDR
-1
-1
#GR
nm
%R
1.0
0.0
2350.000000
-1.000000
2151
8
74.505049
21.321423
#DATA
2350.000000	40.827287
2349.000000	41.036775
2348.000000	41.163600
2347.000000	41.286890
2346.000000	41.136984
2345.000000	40.794522
2344.000000	41.040325
2343.000000	40.802747
2342.000000	41.247683
2341.000000	41.126033
2340.000000	40.965610
2339.000000	41.298300
2338.000000	41.419972
2337.000000	41.271718
2336.000000	41.347954
2335.000000	41.306654
2334.000000	41.371460
2333.000000	41.429890
2332.000000	41.461862
2331.000000	41.534303
2330.000000	41.500840
2329.000000	41.571935
2328.000000	41.499654
2327.000000	41.211554
2326.000000	41.301561
2325.000000	41.003695
2324.000000	41.364820
2323.000000	41.183549
2322.000000	41.186770
2321.000000	41.500694
2320.000000	41.290489
2319.000000	41.085587
2318.000000	41.130413
2317.000000	41.244857
2316.000000	41.087497
2315.000000	40.930618
2314.000000	41.081023
2313.000000	40.796990
2312.000000	40.737052
2311.000000	40.661835
2310.000000	40.719073
2309.000000	40.687365
2308.000000	40.477937
2307.000000	40.532855
2306.000000	40.537314
2305.000000	40.463750
2304.000000	40.396995
2303.000000	40.280706
2302.000000	40.206392
2301.000000	40.000567
2300.000000	39.905242
2299.000000	40.236627
2298.000000	40.194528
2297.000000	39.915657
2296.000000	39.659707
2295.000000	39.543769
2294.000000	39.795527
2293.000000	39.608337
2292.000000	39.428264
2291.000000	39.363399
2290.000000	39.364155
2289.000000	39.325740
2288.000000	39.506797
2287.000000	39.422124
2286.000000	39.141382
2285.000000	38.986011
2284.000000	39.012244
2283.000000	39.114347
2282.000000	39.204112
2281.000000	39.250501
2280.000000	39.224332
2279.000000	39.117848
2278.000000	39.145352
2277.000000	39.212166
2276.000000	39.387237
2275.000000	39.552656
2274.000000	39.445342
2273.000000	39.537301
2272.000000	39.446882
2271.000000	39.443976
2270.000000	39.577829
2269.000000	39.776861
2268.000000	39.693140
2267.000000	39.657418
2266.000000	39.842292
2265.000000	39.955316
2264.000000	39.926214
2263.000000	40.169634
2262.000000	40.292986
2261.000000	40.378923
2260.000000	40.462563
2259.000000	40.525670
2258.000000	40.859982
2257.000000	41.171025
2256.000000	41.190255
2255.000000	41.334087
2254.000000	41.500481
2253.000000	41.621673
2252.000000	41.766544
2251.000000	41.976956
2250.000000	42.277951
2249.000000	42.407596
2248.000000	42.532018
2247.000000	42.763885
2246.000000	43.051254
2245.000000	43.228811
2244.000000	43.243027
2243.000000	43.433675
2242.000000	43.637831
2241.000000	43.851812
2240.000000	44.047151
2239.000000	44.008106
2238.000000	44.108274
2237.000000	44.293270
2236.000000	44.416440
2235.000000	44.337749
2234.000000	44.337141
2233.000000	44.492515
2232.000000	44.740021
2231.000000	44.846130
2230.000000	44.804021
2229.000000	45.034125
2228.000000	45.107591
2227.000000	45.001331
2226.000000	44.778509
2225.000000	44.785754
2224.000000	44.939364
2223.000000	44.816777
2222.000000	44.887738
2221.000000	44.947449
2220.000000	44.873804
2219.000000	44.883851
2218.000000	44.752559
2217.000000	44.821014
2216.000000	44.865885
2215.000000	44.716698
2214.000000	44.655753
2213.000000	44.693423
2212.000000	44.781958
2211.000000	44.754036
2210.000000	44.489312
2209.000000	44.482312
2208.000000	44.448938
2207.000000	44.377530
2206.000000	44.205585
2205.000000	44.081889
2204.000000	44.207664
2203.000000	44.198115
2202.000000	44.128305
2201.000000	44.175762
2200.000000	44.185115
2199.000000	44.180701
2198.000000	44.186737
2197.000000	44.060927
2196.000000	43.888722
2195.000000	43.766559
2194.000000	43.626559
2193.000000	43.534813
2192.000000	43.440667
2191.000000	43.462217
2190.000000	43.495795
2189.000000	43.431233
2188.000000	43.267729
2187.000000	43.377328
2186.000000	43.345230
2185.000000	43.352363
2184.000000	43.278383
2183.000000	43.173350
2182.000000	43.276179
2181.000000	43.254775
2180.000000	43.099554
2179.000000	43.126302
2178.000000	43.120635
2177.000000	43.258500
2176.000000	43.184697
2175.000000	43.159520
2174.000000	43.220580
2173.000000	43.292718
2172.000000	43.256943
2171.000000	43.191529
2170.000000	43.395607
2169.000000	43.505443
2168.000000	43.522768
2167.000000	43.519764
2166.000000	43.554554
2165.000000	43.682599
2164.000000	43.717641
2163.000000	43.899788
2162.000000	44.112926
2161.000000	44.090168
2160.000000	44.368550
2159.000000	44.498641
2158.000000	44.544764
2157.000000	44.591863
2156.000000	44.744967
2155.000000	44.946294
2154.000000	45.083528
2153.000000	45.257172
2152.000000	45.287291
2151.000000	45.577624
2150.000000	45.582157
2149.000000	45.737012
2148.000000	45.888859
2147.000000	45.939741
2146.000000	46.202382
2145.000000	46.307827
2144.000000	46.439592
2143.000000	46.497740
2142.000000	46.638402
2141.000000	46.831785
2140.000000	46.922433
2139.000000	46.967747
2138.000000	47.242574
2137.000000	47.457002
2136.000000	47.409953
2135.000000	47.399218
2134.000000	47.548420
2133.000000	47.528480
2132.000000	47.650529
2131.000000	47.846080
2130.000000	47.830689
2129.000000	47.918346
2128.000000	47.989668
2127.000000	47.997494
2126.000000	48.029268
2125.000000	47.956050
2124.000000	48.168144
2123.000000	48.289050
2122.000000	48.327556
2121.000000	48.369381
2120.000000	48.249343
2119.000000	48.409514
2118.000000	48.592596
2117.000000	48.273657
2116.000000	48.494969
2115.000000	48.684397
2114.000000	48.543873
2113.000000	48.494289
2112.000000	48.591411
2111.000000	48.462790
2110.000000	48.541017
2109.000000	48.473077
2108.000000	48.501008
2107.000000	48.629113
2106.000000	48.567752
2105.000000	48.644057
2104.000000	48.797811
2103.000000	48.698931
2102.000000	48.704650
2101.000000	48.770841
2100.000000	48.804231
2099.000000	48.641844
2098.000000	48.711860
2097.000000	48.787105
2096.000000	48.720572
2095.000000	48.680694
2094.000000	48.692737
2093.000000	48.697671
2092.000000	48.743110
2091.000000	48.690442
2090.000000	48.688768
2089.000000	48.700715
2088.000000	48.631910
2087.000000	48.655246
2086.000000	48.671658
2085.000000	48.665424
2084.000000	48.625964
2083.000000	48.571825
2082.000000	48.525726
2081.000000	48.314489
2080.000000	48.253447
2079.000000	48.274857
2078.000000	48.158742
2077.000000	48.139033
2076.000000	48.072784
2075.000000	47.965524
2074.000000	47.952433
2073.000000	47.838431
2072.000000	47.679696
2071.000000	47.672686
2070.000000	47.617799
2069.000000	47.502324
2068.000000	47.375481
2067.000000	47.236874
2066.000000	47.069777
2065.000000	46.985275
2064.000000	46.960338
2063.000000	46.733004
2062.000000	46.645843
2061.000000	46.449863
2060.000000	46.320162
2059.000000	46.167468
2058.000000	46.089285
2057.000000	46.019723
2056.000000	45.878074
2055.000000	45.689575
2054.000000	45.574833
2053.000000	45.492055
2052.000000	45.345625
2051.000000	45.173247
2050.000000	45.103756
2049.000000	45.085427
2048.000000	45.049885
2047.000000	45.035606
2046.000000	44.883987
2045.000000	44.737388
2044.000000	44.704275
2043.000000	44.723833
2042.000000	44.739358
2041.000000	44.783277
2040.000000	44.757182
2039.000000	44.738397
2038.000000	44.797469
2037.000000	44.843723
2036.000000	44.869469
2035.000000	44.926286
2034.000000	44.965564
2033.000000	45.052022
2032.000000	45.166010
2031.000000	45.263032
2030.000000	45.395540
2029.000000	45.487290
2028.000000	45.531734
2027.000000	45.678403
2026.000000	45.828818
2025.000000	45.861141
2024.000000	45.893155
2023.000000	45.958036
2022.000000	46.032597
2021.000000	46.096837
2020.000000	46.132705
2019.000000	46.158174
2018.000000	46.170146
2017.000000	46.214372
2016.000000	46.189878
2015.000000	46.153963
2014.000000	46.178872
2013.000000	46.177966
2012.000000	46.154993
2011.000000	46.176585
2010.000000	46.110805
2009.000000	46.036673
2008.000000	46.014677
2007.000000	45.954490
2006.000000	45.862996
2005.000000	45.790785
2004.000000	45.725613
2003.000000	45.691203
2002.000000	45.620792
2001.000000	45.482318
2000.000000	45.444464
1999.000000	45.382128
1998.000000	45.285718
1997.000000	45.188062
1996.000000	45.092163
1995.000000	44.999452
1994.000000	44.921161
1993.000000	44.855267
1992.000000	44.748575
1991.000000	44.623654
1990.000000	44.529580
1989.000000	44.451723
1988.000000	44.384551
1987.000000	44.342465
1986.000000	44.182718
1985.000000	44.082462
1984.000000	44.045196
1983.000000	43.954630
1982.000000	43.829824
1981.000000	43.719935
1980.000000	43.629471
1979.000000	43.566074
1978.000000	43.461438
1977.000000	43.346728
1976.000000	43.246912
1975.000000	43.156624
1974.000000	43.048582
1973.000000	42.973170
1972.000000	42.898918
1971.000000	42.816595
1970.000000	42.690392
1969.000000	42.639656
1968.000000	42.548920
1967.000000	42.454184
1966.000000	42.404174
1965.000000	42.301193
1964.000000	42.141452
1963.000000	42.106220
1962.000000	42.026048
1961.000000	41.938156
1960.000000	41.851295
1959.000000	41.783316
1958.000000	41.694168
1957.000000	41.582939
1956.000000	41.506198
1955.000000	41.504304
1954.000000	41.451334
1953.000000	41.339705
1952.000000	41.314322
1951.000000	41.323563
1950.000000	41.239353
1949.000000	41.207041
1948.000000	41.187327
1947.000000	41.169311
1946.000000	41.072612
1945.000000	41.106217
1944.000000	41.123311
1943.000000	41.128964
1942.000000	41.146076
1941.000000	41.144372
1940.000000	41.195393
1939.000000	41.244788
1938.000000	41.318425
1937.000000	41.349609
1936.000000	41.556826
1935.000000	41.636855
1934.000000	41.628784
1933.000000	41.742491
1932.000000	41.889795
1931.000000	41.986802
1930.000000	42.179395
1929.000000	42.230627
1928.000000	42.533351
1927.000000	42.656263
1926.000000	42.826883
1925.000000	43.089372
1924.000000	43.266245
1923.000000	43.441131
1922.000000	43.718351
1921.000000	43.972988
1920.000000	44.272069
1919.000000	44.449457
1918.000000	44.759841
1917.000000	45.138756
1916.000000	45.326654
1915.000000	45.717229
1914.000000	46.032363
1913.000000	46.312205
1912.000000	46.663873
1911.000000	46.932507
1910.000000	47.361758
1909.000000	47.640962
1908.000000	48.003266
1907.000000	48.390627
1906.000000	48.723630
1905.000000	49.228829
1904.000000	49.638905
1903.000000	49.917359
1902.000000	50.375691
1901.000000	50.784750
1900.000000	51.211084
1899.000000	51.765594
1898.000000	52.083800
1897.000000	52.477998
1896.000000	52.867528
1895.000000	53.287755
1894.000000	53.712715
1893.000000	54.091303
1892.000000	54.490297
1891.000000	54.897136
1890.000000	55.246204
1889.000000	55.673943
1888.000000	55.976953
1887.000000	56.308585
1886.000000	56.641843
1885.000000	56.912302
1884.000000	57.237762
1883.000000	57.632703
1882.000000	57.849461
1881.000000	58.075556
1880.000000	58.344396
1879.000000	58.559363
1878.000000	58.828151
1877.000000	59.131987
1876.000000	59.330746
1875.000000	59.563695
1874.000000	59.759504
1873.000000	59.893314
1872.000000	60.035276
1871.000000	60.188948
1870.000000	60.347608
1869.000000	60.532028
1868.000000	60.634918
1867.000000	60.763806
1866.000000	60.862228
1865.000000	60.919978
1864.000000	60.957306
1863.000000	61.046042
1862.000000	61.100033
1861.000000	61.127865
1860.000000	61.220832
1859.000000	61.257458
1858.000000	61.312085
1857.000000	61.361456
1856.000000	61.387976
1855.000000	61.427703
1854.000000	61.500449
1853.000000	61.482849
1852.000000	61.452287
1851.000000	61.437682
1850.000000	61.517304
1849.000000	61.512117
1848.000000	61.539225
1847.000000	61.553324
1846.000000	61.521971
1845.000000	61.533046
1844.000000	61.488035
1843.000000	61.470961
1842.000000	61.511721
1841.000000	61.520207
1840.000000	61.524269
1839.000000	61.500733
1838.000000	61.488552
1837.000000	61.409877
1836.000000	61.394860
1835.000000	61.387423
1834.000000	61.309400
1833.000000	61.295938
1832.000000	61.304150
1831.000000	61.278760
1830.000000	61.266903
1829.000000	61.204747
1828.000000	61.161249
1827.000000	61.164710
1826.000000	61.153690
1825.000000	61.166009
1824.000000	61.162657
1823.000000	61.140586
1822.000000	61.100285
1821.000000	61.081008
1820.000000	61.059888
1819.000000	61.020088
1818.000000	61.002906
1817.000000	60.978596
1816.000000	60.972494
1815.000000	60.965773
1814.000000	60.913854
1813.000000	60.867972
1812.000000	60.878455
1811.000000	60.849643
1810.000000	60.827448
1809.000000	60.820139
1808.000000	60.791817
1807.000000	60.751717
1806.000000	60.736830
1805.000000	60.735143
1804.000000	60.705019
1803.000000	60.685893
1802.000000	60.676999
1801.000000	60.681951
1800.000000	60.656884
1799.000000	60.605657
1798.000000	60.592164
1797.000000	60.605805
1796.000000	60.585295
1795.000000	60.545469
1794.000000	60.550791
1793.000000	60.557823
1792.000000	60.527073
1791.000000	60.503825
1790.000000	60.490021
1789.000000	60.470475
1788.000000	60.449977
1787.000000	60.441871
1786.000000	60.437355
1785.000000	60.417556
1784.000000	60.396725
1783.000000	60.384254
1782.000000	60.354203
1781.000000	60.322346
1780.000000	60.287425
1779.000000	60.267832
1778.000000	60.231109
1777.000000	60.210434
1776.000000	60.216058
1775.000000	60.165152
1774.000000	60.118658
1773.000000	60.081636
1772.000000	60.014493
1771.000000	59.993902
1770.000000	59.949942
1769.000000	59.904091
1768.000000	59.889224
1767.000000	59.882140
1766.000000	59.835499
1765.000000	59.811728
1764.000000	59.778163
1763.000000	59.756412
1762.000000	59.700159
1761.000000	59.680487
1760.000000	59.640324
1759.000000	59.618543
1758.000000	59.594555
1757.000000	59.549252
1756.000000	59.511277
1755.000000	59.468710
1754.000000	59.425124
1753.000000	59.397684
1752.000000	59.386230
1751.000000	59.344030
1750.000000	59.306712
1749.000000	59.287735
1748.000000	59.219100
1747.000000	59.212198
1746.000000	59.203848
1745.000000	59.133950
1744.000000	59.122687
1743.000000	59.085297
1742.000000	59.018564
1741.000000	59.007497
1740.000000	59.001562
1739.000000	58.951492
1738.000000	58.930309
1737.000000	58.910957
1736.000000	58.888364
1735.000000	58.916735
1734.000000	58.921663
1733.000000	58.919467
1732.000000	58.886018
1731.000000	58.902976
1730.000000	58.897643
1729.000000	58.937388
1728.000000	58.987569
1727.000000	59.038621
1726.000000	59.097057
1725.000000	59.136365
1724.000000	59.196652
1723.000000	59.237138
1722.000000	59.326127
1721.000000	59.412853
1720.000000	59.469836
1719.000000	59.575093
1718.000000	59.646807
1717.000000	59.707222
1716.000000	59.776655
1715.000000	59.850034
1714.000000	59.951040
1713.000000	60.012803
1712.000000	60.060369
1711.000000	60.097361
1710.000000	60.147597
1709.000000	60.179347
1708.000000	60.231292
1707.000000	60.237363
1706.000000	60.338337
1705.000000	60.350299
1704.000000	60.390360
1703.000000	60.365122
1702.000000	60.431853
1701.000000	60.459844
1700.000000	60.450294
1699.000000	60.447414
1698.000000	60.473558
1697.000000	60.486049
1696.000000	60.581101
1695.000000	60.516681
1694.000000	60.584000
1693.000000	60.625924
1692.000000	60.672998
1691.000000	60.702599
1690.000000	60.768902
1689.000000	60.828288
1688.000000	60.918013
1687.000000	60.992978
1686.000000	61.062199
1685.000000	61.144925
1684.000000	61.260598
1683.000000	61.365589
1682.000000	61.511271
1681.000000	61.616998
1680.000000	61.704844
1679.000000	61.822626
1678.000000	61.973632
1677.000000	62.045638
1676.000000	62.170526
1675.000000	62.328106
1674.000000	62.448494
1673.000000	62.584532
1672.000000	62.693347
1671.000000	62.780550
1670.000000	62.942195
1669.000000	63.045227
1668.000000	63.152246
1667.000000	63.259348
1666.000000	63.342332
1665.000000	63.384335
1664.000000	63.451340
1663.000000	63.515904
1662.000000	63.597072
1661.000000	63.650719
1660.000000	63.705883
1659.000000	63.757804
1658.000000	63.788107
1657.000000	63.818225
1656.000000	63.843601
1655.000000	63.893069
1654.000000	63.907591
1653.000000	63.909432
1652.000000	63.955243
1651.000000	63.954734
1650.000000	63.968033
1649.000000	63.991013
1648.000000	63.939460
1647.000000	63.957553
1646.000000	63.957739
1645.000000	63.968018
1644.000000	63.959851
1643.000000	63.952584
1642.000000	63.937333
1641.000000	63.925859
1640.000000	63.906319
1639.000000	63.896619
1638.000000	63.877437
1637.000000	63.880507
1636.000000	63.831036
1635.000000	63.817089
1634.000000	63.804384
1633.000000	63.763567
1632.000000	63.761813
1631.000000	63.749096
1630.000000	63.723336
1629.000000	63.696363
1628.000000	63.684175
1627.000000	63.643156
1626.000000	63.611797
1625.000000	63.600006
1624.000000	63.565812
1623.000000	63.546537
1622.000000	63.531230
1621.000000	63.482011
1620.000000	63.447688
1619.000000	63.416132
1618.000000	63.378074
1617.000000	63.361126
1616.000000	63.334938
1615.000000	63.307058
1614.000000	63.270948
1613.000000	63.239133
1612.000000	63.194007
1611.000000	63.150794
1610.000000	63.135403
1609.000000	63.100632
1608.000000	63.055808
1607.000000	63.017882
1606.000000	62.956045
1605.000000	62.913189
1604.000000	62.881370
1603.000000	62.857134
1602.000000	62.816172
1601.000000	62.776064
1600.000000	62.738318
1599.000000	62.680172
1598.000000	62.644024
1597.000000	62.625447
1596.000000	62.594306
1595.000000	62.550824
1594.000000	62.503096
1593.000000	62.469094
1592.000000	62.450423
1591.000000	62.411935
1590.000000	62.368031
1589.000000	62.332873
1588.000000	62.315145
1587.000000	62.294265
1586.000000	62.260862
1585.000000	62.232001
1584.000000	62.206785
1583.000000	62.168068
1582.000000	62.141794
1581.000000	62.132323
1580.000000	62.111577
1579.000000	62.085410
1578.000000	62.047754
1577.000000	62.011411
1576.000000	61.975715
1575.000000	61.950411
1574.000000	61.925714
1573.000000	61.899435
1572.000000	61.884723
1571.000000	61.873022
1570.000000	61.836952
1569.000000	61.798868
1568.000000	61.784420
1567.000000	61.763565
1566.000000	61.742677
1565.000000	61.720662
1564.000000	61.722653
1563.000000	61.715930
1562.000000	61.673835
1561.000000	61.666174
1560.000000	61.667181
1559.000000	61.651239
1558.000000	61.630882
1557.000000	61.625160
1556.000000	61.619145
1555.000000	61.590349
1554.000000	61.582876
1553.000000	61.573086
1552.000000	61.556586
1551.000000	61.534519
1550.000000	61.524551
1549.000000	61.495799
1548.000000	61.482652
1547.000000	61.447782
1546.000000	61.407814
1545.000000	61.363293
1544.000000	61.335398
1543.000000	61.295867
1542.000000	61.237627
1541.000000	61.182898
1540.000000	61.130653
1539.000000	61.084493
1538.000000	61.024338
1537.000000	60.969612
1536.000000	60.900069
1535.000000	60.831385
1534.000000	60.781976
1533.000000	60.733720
1532.000000	60.669712
1531.000000	60.607773
1530.000000	60.553720
1529.000000	60.476509
1528.000000	60.431760
1527.000000	60.396489
1526.000000	60.352177
1525.000000	60.325412
1524.000000	60.272705
1523.000000	60.237973
1522.000000	60.201512
1521.000000	60.175111
1520.000000	60.130387
1519.000000	60.117105
1518.000000	60.092323
1517.000000	60.062873
1516.000000	60.035236
1515.000000	60.042821
1514.000000	59.975399
1513.000000	59.961440
1512.000000	59.953301
1511.000000	59.939241
1510.000000	59.912583
1509.000000	59.924277
1508.000000	59.900057
1507.000000	59.910549
1506.000000	59.913740
1505.000000	59.903554
1504.000000	59.871857
1503.000000	59.878660
1502.000000	59.874956
1501.000000	59.876732
1500.000000	59.868786
1499.000000	59.878974
1498.000000	59.881287
1497.000000	59.875589
1496.000000	59.913123
1495.000000	59.926892
1494.000000	59.923217
1493.000000	59.942874
1492.000000	59.961193
1491.000000	59.996063
1490.000000	60.048675
1489.000000	60.046772
1488.000000	60.091180
1487.000000	60.131147
1486.000000	60.148959
1485.000000	60.194630
1484.000000	60.233090
1483.000000	60.270748
1482.000000	60.313813
1481.000000	60.379857
1480.000000	60.410645
1479.000000	60.443183
1478.000000	60.481111
1477.000000	60.529156
1476.000000	60.570916
1475.000000	60.630016
1474.000000	60.681922
1473.000000	60.709851
1472.000000	60.770581
1471.000000	60.793038
1470.000000	60.842684
