PE UV       SUBTECH     SPECTRUM    ASCII       PEDS        4.00        
   -1
RDms159342.Sample.asc
18/03/19
18:26:21.00
18/03/19
18:26:21.00
Administrator

200.000000
1
Lambda 750
750N8071901
PerkinElmer UV WinLab 6.0.4.0738 / 1.61.00 Lambda 900

0
0
3350/servo 860.8/2
0
0
UV/VIS
1
1
1
CommonBeamDepol,150mm sphere / downward view
0
0
0
0
Program
Program
3350/servo 860.8/2
3350/0.2 860.8/0.2
3350/0.2 860.8/0.2
0
1
 
 
 
0
 
860.8
319.2
860.8
Front
100
on
 
 
0
0
0
 
0
 
 
 
0
 
 
0
0
0
0
0
 
 
 
 
0
0


0
0
#HDR
-1
-1
#GR
nm
%R
1.0
0.0
2350.000000
-1.000000
2151
8
54.637967
7.619799
#DATA
2350.000000	35.176599
2349.000000	35.589513
2348.000000	35.965813
2347.000000	36.103387
2346.000000	36.135565
2345.000000	36.025048
2344.000000	35.997520
2343.000000	35.871078
2342.000000	36.111350
2341.000000	35.949526
2340.000000	36.091524
2339.000000	36.241605
2338.000000	36.373593
2337.000000	36.323298
2336.000000	36.430509
2335.000000	36.312727
2334.000000	36.612046
2333.000000	36.570666
2332.000000	36.824974
2331.000000	37.000772
2330.000000	36.643684
2329.000000	36.548452
2328.000000	36.609354
2327.000000	36.505122
2326.000000	36.366777
2325.000000	36.547750
2324.000000	36.479565
2323.000000	36.358917
2322.000000	36.518805
2321.000000	36.136308
2320.000000	36.072939
2319.000000	36.315213
2318.000000	36.180694
2317.000000	35.968320
2316.000000	35.987754
2315.000000	35.790859
2314.000000	35.827091
2313.000000	36.033699
2312.000000	35.854003
2311.000000	35.741342
2310.000000	35.528380
2309.000000	35.827866
2308.000000	35.663004
2307.000000	35.434047
2306.000000	35.289621
2305.000000	35.313154
2304.000000	35.271093
2303.000000	35.361862
2302.000000	35.540324
2301.000000	35.258270
2300.000000	34.989156
2299.000000	34.887388
2298.000000	34.650717
2297.000000	34.498917
2296.000000	34.839796
2295.000000	34.746335
2294.000000	34.669612
2293.000000	34.579736
2292.000000	34.348504
2291.000000	34.165873
2290.000000	34.402378
2289.000000	34.349236
2288.000000	34.420048
2287.000000	34.277574
2286.000000	34.322655
2285.000000	34.305757
2284.000000	34.043788
2283.000000	34.090776
2282.000000	34.046370
2281.000000	34.166358
2280.000000	34.129740
2279.000000	34.200541
2278.000000	34.078757
2277.000000	33.982959
2276.000000	34.150984
2275.000000	34.281802
2274.000000	34.295904
2273.000000	34.510359
2272.000000	34.609507
2271.000000	34.359380
2270.000000	34.298513
2269.000000	34.468680
2268.000000	34.466627
2267.000000	34.453770
2266.000000	34.570383
2265.000000	34.685607
2264.000000	34.851521
2263.000000	34.901613
2262.000000	34.889257
2261.000000	35.073579
2260.000000	35.203524
2259.000000	35.280493
2258.000000	35.491426
2257.000000	35.732616
2256.000000	35.748002
2255.000000	35.732663
2254.000000	35.812476
2253.000000	36.037405
2252.000000	36.316822
2251.000000	36.546867
2250.000000	36.643177
2249.000000	36.791928
2248.000000	36.872619
2247.000000	37.048905
2246.000000	37.335005
2245.000000	37.421102
2244.000000	37.515968
2243.000000	37.710613
2242.000000	37.718594
2241.000000	37.731556
2240.000000	37.940544
2239.000000	38.123053
2238.000000	38.180058
2237.000000	38.220161
2236.000000	38.296014
2235.000000	38.438093
2234.000000	38.588715
2233.000000	38.651964
2232.000000	38.742137
2231.000000	38.752836
2230.000000	38.776673
2229.000000	38.776141
2228.000000	38.796985
2227.000000	38.844739
2226.000000	38.747940
2225.000000	38.704798
2224.000000	38.743547
2223.000000	38.773143
2222.000000	38.959957
2221.000000	38.927825
2220.000000	38.768265
2219.000000	38.757760
2218.000000	38.819898
2217.000000	38.808990
2216.000000	38.670208
2215.000000	38.558237
2214.000000	38.553335
2213.000000	38.722509
2212.000000	38.550666
2211.000000	38.411918
2210.000000	38.403754
2209.000000	38.265741
2208.000000	38.242261
2207.000000	38.314390
2206.000000	38.289822
2205.000000	38.230826
2204.000000	38.132046
2203.000000	38.166177
2202.000000	38.100235
2201.000000	38.120940
2200.000000	38.069604
2199.000000	38.120890
2198.000000	37.931398
2197.000000	37.805407
2196.000000	37.661225
2195.000000	37.648178
2194.000000	37.593505
2193.000000	37.507732
2192.000000	37.417937
2191.000000	37.502152
2190.000000	37.457979
2189.000000	37.432226
2188.000000	37.260352
2187.000000	37.258591
2186.000000	37.419140
2185.000000	37.282703
2184.000000	37.364144
2183.000000	37.242808
2182.000000	37.233918
2181.000000	37.339597
2180.000000	37.143744
2179.000000	37.059642
2178.000000	37.114342
2177.000000	37.304817
2176.000000	37.041720
2175.000000	37.139404
2174.000000	37.104455
2173.000000	37.187097
2172.000000	37.188892
2171.000000	37.300541
2170.000000	37.326911
2169.000000	37.366541
2168.000000	37.602002
2167.000000	37.491081
2166.000000	37.676214
2165.000000	37.623211
2164.000000	37.547148
2163.000000	37.672049
2162.000000	37.884094
2161.000000	37.891437
2160.000000	38.243874
2159.000000	38.316702
2158.000000	38.325749
2157.000000	38.654661
2156.000000	38.537144
2155.000000	38.542700
2154.000000	38.834460
2153.000000	38.956327
2152.000000	39.153306
2151.000000	39.353305
2150.000000	39.192247
2149.000000	39.329190
2148.000000	39.432552
2147.000000	39.714626
2146.000000	39.638333
2145.000000	39.854958
2144.000000	39.994699
2143.000000	39.881633
2142.000000	40.109569
2141.000000	40.212016
2140.000000	40.354456
2139.000000	40.553613
2138.000000	40.619041
2137.000000	40.663081
2136.000000	40.618768
2135.000000	40.850593
2134.000000	40.927812
2133.000000	40.854061
2132.000000	41.126005
2131.000000	41.193828
2130.000000	41.214851
2129.000000	41.216908
2128.000000	41.262631
2127.000000	41.290230
2126.000000	41.338497
2125.000000	41.389223
2124.000000	41.495886
2123.000000	41.589404
2122.000000	41.647371
2121.000000	41.669328
2120.000000	41.546088
2119.000000	41.709992
2118.000000	41.596205
2117.000000	41.634505
2116.000000	41.687651
2115.000000	41.846716
2114.000000	41.765932
2113.000000	41.828389
2112.000000	41.919617
2111.000000	41.847074
2110.000000	41.723282
2109.000000	41.931316
2108.000000	41.919812
2107.000000	41.908513
2106.000000	41.899786
2105.000000	41.921059
2104.000000	41.962955
2103.000000	41.970206
2102.000000	42.045849
2101.000000	41.974752
2100.000000	41.982190
2099.000000	41.970990
2098.000000	41.999816
2097.000000	42.024464
2096.000000	41.928974
2095.000000	41.895575
2094.000000	41.952223
2093.000000	42.011006
2092.000000	41.998953
2091.000000	42.026573
2090.000000	41.944251
2089.000000	41.905732
2088.000000	41.887356
2087.000000	41.858376
2086.000000	41.922545
2085.000000	42.053800
2084.000000	41.951048
2083.000000	41.788840
2082.000000	41.669592
2081.000000	41.665732
2080.000000	41.561578
2079.000000	41.533656
2078.000000	41.451929
2077.000000	41.408075
2076.000000	41.422639
2075.000000	41.344968
2074.000000	41.250174
2073.000000	41.111875
2072.000000	41.120221
2071.000000	41.034229
2070.000000	40.992658
2069.000000	40.818823
2068.000000	40.654028
2067.000000	40.579672
2066.000000	40.543429
2065.000000	40.399392
2064.000000	40.341555
2063.000000	40.185853
2062.000000	40.046879
2061.000000	39.963669
2060.000000	39.787786
2059.000000	39.717226
2058.000000	39.628237
2057.000000	39.483272
2056.000000	39.367170
2055.000000	39.255108
2054.000000	39.173878
2053.000000	39.067640
2052.000000	38.956971
2051.000000	38.842510
2050.000000	38.739974
2049.000000	38.700733
2048.000000	38.684989
2047.000000	38.637609
2046.000000	38.466852
2045.000000	38.435454
2044.000000	38.454509
2043.000000	38.408128
2042.000000	38.422496
2041.000000	38.479822
2040.000000	38.521976
2039.000000	38.482324
2038.000000	38.457322
2037.000000	38.507239
2036.000000	38.548393
2035.000000	38.624214
2034.000000	38.677813
2033.000000	38.716247
2032.000000	38.825321
2031.000000	38.950182
2030.000000	39.004604
2029.000000	39.064104
2028.000000	39.156617
2027.000000	39.229287
2026.000000	39.312401
2025.000000	39.391770
2024.000000	39.448359
2023.000000	39.508068
2022.000000	39.570418
2021.000000	39.553507
2020.000000	39.578047
2019.000000	39.638040
2018.000000	39.678034
2017.000000	39.732342
2016.000000	39.722259
2015.000000	39.690610
2014.000000	39.632132
2013.000000	39.591976
2012.000000	39.602872
2011.000000	39.618784
2010.000000	39.556451
2009.000000	39.464004
2008.000000	39.398372
2007.000000	39.366358
2006.000000	39.296341
2005.000000	39.236692
2004.000000	39.171769
2003.000000	39.063174
2002.000000	39.017373
2001.000000	38.929011
2000.000000	38.838236
1999.000000	38.753141
1998.000000	38.694739
1997.000000	38.643013
1996.000000	38.551426
1995.000000	38.448700
1994.000000	38.336290
1993.000000	38.271634
1992.000000	38.180436
1991.000000	38.071821
1990.000000	37.996050
1989.000000	37.893398
1988.000000	37.790819
1987.000000	37.766405
1986.000000	37.622934
1985.000000	37.515701
1984.000000	37.456640
1983.000000	37.369605
1982.000000	37.280496
1981.000000	37.192034
1980.000000	37.164150
1979.000000	37.049437
1978.000000	37.007720
1977.000000	36.904030
1976.000000	36.745041
1975.000000	36.715285
1974.000000	36.597369
1973.000000	36.522960
1972.000000	36.464552
1971.000000	36.358522
1970.000000	36.335393
1969.000000	36.238610
1968.000000	36.117979
1967.000000	36.067110
1966.000000	35.980035
1965.000000	35.853734
1964.000000	35.761731
1963.000000	35.696427
1962.000000	35.640449
1961.000000	35.527894
1960.000000	35.447004
1959.000000	35.345521
1958.000000	35.310533
1957.000000	35.243933
1956.000000	35.210757
1955.000000	35.114333
1954.000000	35.063201
1953.000000	35.005927
1952.000000	34.980246
1951.000000	34.920577
1950.000000	34.883523
1949.000000	34.801652
1948.000000	34.745256
1947.000000	34.710834
1946.000000	34.672779
1945.000000	34.684195
1944.000000	34.690315
1943.000000	34.684553
1942.000000	34.686966
1941.000000	34.750543
1940.000000	34.760799
1939.000000	34.821615
1938.000000	34.889482
1937.000000	34.946844
1936.000000	35.001972
1935.000000	35.079372
1934.000000	35.136494
1933.000000	35.265063
1932.000000	35.293098
1931.000000	35.475283
1930.000000	35.654397
1929.000000	35.708275
1928.000000	35.875109
1927.000000	36.039838
1926.000000	36.123259
1925.000000	36.376510
1924.000000	36.492257
1923.000000	36.830302
1922.000000	36.950847
1921.000000	37.247071
1920.000000	37.437513
1919.000000	37.580005
1918.000000	37.946839
1917.000000	38.053170
1916.000000	38.255526
1915.000000	38.611557
1914.000000	38.855896
1913.000000	39.124429
1912.000000	39.476098
1911.000000	39.728238
1910.000000	40.024955
1909.000000	40.246011
1908.000000	40.621916
1907.000000	40.956799
1906.000000	41.237659
1905.000000	41.588755
1904.000000	41.905705
1903.000000	42.276438
1902.000000	42.606740
1901.000000	43.021177
1900.000000	43.302966
1899.000000	43.699569
1898.000000	44.027798
1897.000000	44.411845
1896.000000	44.653684
1895.000000	45.052138
1894.000000	45.343851
1893.000000	45.651248
1892.000000	46.018304
1891.000000	46.311420
1890.000000	46.612304
1889.000000	46.877634
1888.000000	47.147679
1887.000000	47.431519
1886.000000	47.646282
1885.000000	47.938169
1884.000000	48.218101
1883.000000	48.426109
1882.000000	48.621167
1881.000000	48.810372
1880.000000	49.050990
1879.000000	49.202110
1878.000000	49.402169
1877.000000	49.630518
1876.000000	49.816776
1875.000000	49.978632
1874.000000	50.068801
1873.000000	50.196656
1872.000000	50.376392
1871.000000	50.491145
1870.000000	50.557903
1869.000000	50.643403
1868.000000	50.774924
1867.000000	50.846299
1866.000000	50.882963
1865.000000	50.964117
1864.000000	50.985116
1863.000000	51.057539
1862.000000	51.116893
1861.000000	51.157231
1860.000000	51.164193
1859.000000	51.164065
1858.000000	51.203732
1857.000000	51.194858
1856.000000	51.238772
1855.000000	51.291611
1854.000000	51.307060
1853.000000	51.330131
1852.000000	51.326906
1851.000000	51.275445
1850.000000	51.298480
1849.000000	51.306814
1848.000000	51.300142
1847.000000	51.332246
1846.000000	51.312954
1845.000000	51.299301
1844.000000	51.285012
1843.000000	51.258629
1842.000000	51.254467
1841.000000	51.257403
1840.000000	51.253726
1839.000000	51.228090
1838.000000	51.236306
1837.000000	51.159245
1836.000000	51.121733
1835.000000	51.114325
1834.000000	51.057501
1833.000000	51.036507
1832.000000	51.017850
1831.000000	50.961296
1830.000000	50.939855
1829.000000	50.922325
1828.000000	50.898374
1827.000000	50.855056
1826.000000	50.832539
1825.000000	50.854710
1824.000000	50.854053
1823.000000	50.811347
1822.000000	50.748917
1821.000000	50.733401
1820.000000	50.703588
1819.000000	50.661933
1818.000000	50.659262
1817.000000	50.627894
1816.000000	50.599812
1815.000000	50.604535
1814.000000	50.599694
1813.000000	50.546911
1812.000000	50.491838
1811.000000	50.463535
1810.000000	50.460793
1809.000000	50.459283
1808.000000	50.426741
1807.000000	50.405499
1806.000000	50.404919
1805.000000	50.374704
1804.000000	50.338094
1803.000000	50.311137
1802.000000	50.278433
1801.000000	50.260416
1800.000000	50.244843
1799.000000	50.229931
1798.000000	50.207401
1797.000000	50.192038
1796.000000	50.173906
1795.000000	50.171081
1794.000000	50.156158
1793.000000	50.115968
1792.000000	50.093666
1791.000000	50.107035
1790.000000	50.113605
1789.000000	50.080964
1788.000000	50.068251
1787.000000	50.035930
1786.000000	50.020430
1785.000000	50.008741
1784.000000	49.980689
1783.000000	49.959298
1782.000000	49.946193
1781.000000	49.952085
1780.000000	49.919471
1779.000000	49.891562
1778.000000	49.849687
1777.000000	49.818523
1776.000000	49.809872
1775.000000	49.767416
1774.000000	49.718395
1773.000000	49.690917
1772.000000	49.654245
1771.000000	49.626961
1770.000000	49.599665
1769.000000	49.527211
1768.000000	49.502564
1767.000000	49.474426
1766.000000	49.427448
1765.000000	49.409096
1764.000000	49.404701
1763.000000	49.348909
1762.000000	49.301876
1761.000000	49.285233
1760.000000	49.241011
1759.000000	49.194847
1758.000000	49.179788
1757.000000	49.124116
1756.000000	49.099805
1755.000000	49.061386
1754.000000	49.025951
1753.000000	49.006895
1752.000000	48.958711
1751.000000	48.937536
1750.000000	48.904035
1749.000000	48.876360
1748.000000	48.810889
1747.000000	48.744687
1746.000000	48.708798
1745.000000	48.676574
1744.000000	48.616639
1743.000000	48.616007
1742.000000	48.567003
1741.000000	48.508310
1740.000000	48.505879
1739.000000	48.466306
1738.000000	48.444805
1737.000000	48.410885
1736.000000	48.396296
1735.000000	48.384003
1734.000000	48.392657
1733.000000	48.370948
1732.000000	48.361274
1731.000000	48.373051
1730.000000	48.353353
1729.000000	48.383905
1728.000000	48.396214
1727.000000	48.428947
1726.000000	48.470216
1725.000000	48.479440
1724.000000	48.545208
1723.000000	48.623631
1722.000000	48.697084
1721.000000	48.732918
1720.000000	48.749347
1719.000000	48.845836
1718.000000	48.927478
1717.000000	48.973723
1716.000000	49.013683
1715.000000	49.079733
1714.000000	49.136488
1713.000000	49.179668
1712.000000	49.227759
1711.000000	49.261312
1710.000000	49.295036
1709.000000	49.349978
1708.000000	49.346001
1707.000000	49.384300
1706.000000	49.450075
1705.000000	49.452638
1704.000000	49.436299
1703.000000	49.469261
1702.000000	49.489095
1701.000000	49.503514
1700.000000	49.504065
1699.000000	49.483800
1698.000000	49.513888
1697.000000	49.543338
1696.000000	49.541538
1695.000000	49.519686
1694.000000	49.554274
1693.000000	49.619884
1692.000000	49.598714
1691.000000	49.627214
1690.000000	49.682680
1689.000000	49.724717
1688.000000	49.784790
1687.000000	49.846387
1686.000000	49.876285
1685.000000	49.986190
1684.000000	50.058658
1683.000000	50.174099
1682.000000	50.271198
1681.000000	50.375233
1680.000000	50.428298
1679.000000	50.520586
1678.000000	50.621706
1677.000000	50.726014
1676.000000	50.819622
1675.000000	50.909826
1674.000000	51.009093
1673.000000	51.137307
1672.000000	51.229997
1671.000000	51.322396
1670.000000	51.418792
1669.000000	51.522309
1668.000000	51.605012
1667.000000	51.682419
1666.000000	51.685425
1665.000000	51.749655
1664.000000	51.789995
1663.000000	51.853762
1662.000000	51.905222
1661.000000	51.984614
1660.000000	52.003010
1659.000000	52.056459
1658.000000	52.079919
1657.000000	52.077932
1656.000000	52.110523
1655.000000	52.135638
1654.000000	52.187417
1653.000000	52.173317
1652.000000	52.194807
1651.000000	52.177678
1650.000000	52.171688
1649.000000	52.172554
1648.000000	52.151615
1647.000000	52.172858
1646.000000	52.166885
1645.000000	52.144872
1644.000000	52.152289
1643.000000	52.128236
1642.000000	52.110515
1641.000000	52.092226
1640.000000	52.090441
1639.000000	52.072993
1638.000000	52.054309
1637.000000	52.045023
1636.000000	52.009714
1635.000000	51.986052
1634.000000	51.963803
1633.000000	51.927995
1632.000000	51.909514
1631.000000	51.885371
1630.000000	51.842022
1629.000000	51.816096
1628.000000	51.793973
1627.000000	51.755726
1626.000000	51.719944
1625.000000	51.702608
1624.000000	51.672058
1623.000000	51.645874
1622.000000	51.632779
1621.000000	51.592294
1620.000000	51.559286
1619.000000	51.530551
1618.000000	51.488066
1617.000000	51.462481
1616.000000	51.430770
1615.000000	51.388009
1614.000000	51.343410
1613.000000	51.310263
1612.000000	51.267340
1611.000000	51.236749
1610.000000	51.201207
1609.000000	51.155450
1608.000000	51.109915
1607.000000	51.069085
1606.000000	51.027284
1605.000000	50.981563
1604.000000	50.933542
1603.000000	50.883051
1602.000000	50.862737
1601.000000	50.840793
1600.000000	50.783541
1599.000000	50.729825
1598.000000	50.694764
1597.000000	50.668681
1596.000000	50.632088
1595.000000	50.586953
1594.000000	50.546044
1593.000000	50.516729
1592.000000	50.491378
1591.000000	50.456111
1590.000000	50.404637
1589.000000	50.371586
1588.000000	50.342836
1587.000000	50.320233
1586.000000	50.271814
1585.000000	50.245705
1584.000000	50.225335
1583.000000	50.179889
1582.000000	50.171484
1581.000000	50.148208
1580.000000	50.102835
1579.000000	50.083441
1578.000000	50.048055
1577.000000	50.004567
1576.000000	49.976251
1575.000000	49.950216
1574.000000	49.916112
1573.000000	49.896772
1572.000000	49.867140
1571.000000	49.828875
1570.000000	49.796040
1569.000000	49.764327
1568.000000	49.756021
1567.000000	49.730517
1566.000000	49.706499
1565.000000	49.678908
1564.000000	49.653791
1563.000000	49.655099
1562.000000	49.628057
1561.000000	49.600969
1560.000000	49.591734
1559.000000	49.566796
1558.000000	49.546380
1557.000000	49.551504
1556.000000	49.516256
1555.000000	49.492246
1554.000000	49.469188
1553.000000	49.442779
1552.000000	49.434697
1551.000000	49.415577
1550.000000	49.412838
1549.000000	49.388106
1548.000000	49.355397
1547.000000	49.316466
1546.000000	49.279166
1545.000000	49.239193
1544.000000	49.182512
1543.000000	49.127708
1542.000000	49.093114
1541.000000	49.049801
1540.000000	48.992873
1539.000000	48.934786
1538.000000	48.878558
1537.000000	48.822275
1536.000000	48.757265
1535.000000	48.699459
1534.000000	48.638486
1533.000000	48.591704
1532.000000	48.520876
1531.000000	48.492287
1530.000000	48.440519
1529.000000	48.375850
1528.000000	48.308758
1527.000000	48.268723
1526.000000	48.237290
1525.000000	48.203391
1524.000000	48.150084
1523.000000	48.102260
1522.000000	48.055917
1521.000000	48.025946
1520.000000	47.999594
1519.000000	47.965477
1518.000000	47.935059
1517.000000	47.902391
1516.000000	47.874152
1515.000000	47.877045
1514.000000	47.847630
1513.000000	47.798980
1512.000000	47.781447
1511.000000	47.780870
1510.000000	47.751356
1509.000000	47.744715
1508.000000	47.721539
1507.000000	47.699624
1506.000000	47.678811
1505.000000	47.677657
1504.000000	47.661437
1503.000000	47.661141
1502.000000	47.651155
1501.000000	47.641008
1500.000000	47.645553
1499.000000	47.651687
1498.000000	47.657253
1497.000000	47.661230
1496.000000	47.657223
1495.000000	47.662153
1494.000000	47.643742
1493.000000	47.674473
1492.000000	47.694909
1491.000000	47.717727
1490.000000	47.736418
1489.000000	47.769610
1488.000000	47.798165
1487.000000	47.802921
1486.000000	47.843048
1485.000000	47.867189
1484.000000	47.908935
1483.000000	47.925456
1482.000000	47.929628
1481.000000	47.980483
1480.000000	48.022404
1479.000000	48.051374
1478.000000	48.075403
1477.000000	48.124185
1476.000000	48.145202
1475.000000	48.162810
1474.000000	48.190128
1473.000000	48.237902
1472.000000	48.263530
1471.000000	48.277314
1470.000000	48.305805
