PE UV       SUBTECH     SPECTRUM    ASCII       PEDS        4.00        
   -1
RTms159342.Sample.asc
18/03/19
18:16:44.00
18/03/19
18:16:44.00
Administrator

200.000000
1
Lambda 750
750N8071901
PerkinElmer UV WinLab 6.0.4.0738 / 1.61.00 Lambda 900

0
0
3350/servo 860.8/2
0
0
UV/VIS
1
1
1
CommonBeamDepol,150mm sphere / downward view
0
0
0
0
Program
Program
3350/servo 860.8/2
3350/0.2 860.8/0.2
3350/0.2 860.8/0.2
0
1
 
 
 
0
 
860.8
319.2
860.8
Front
100
on
 
 
0
0
0
 
0
 
 
 
0
 
 
0
0
0
0
0
 
 
 
 
0
0


0
0
#HDR
-1
-1
#GR
nm
%R
1.0
0.0
2350.000000
-1.000000
2151
8
54.183125
7.841906
#DATA
2350.000000	35.743840
2349.000000	35.781408
2348.000000	35.822640
2347.000000	35.911353
2346.000000	35.710802
2345.000000	35.632568
2344.000000	35.724444
2343.000000	35.638885
2342.000000	35.784755
2341.000000	35.913242
2340.000000	35.827644
2339.000000	35.859965
2338.000000	36.165767
2337.000000	36.001418
2336.000000	35.926869
2335.000000	36.223907
2334.000000	36.070916
2333.000000	36.248660
2332.000000	36.370478
2331.000000	36.174066
2330.000000	36.060907
2329.000000	35.963249
2328.000000	36.357381
2327.000000	36.010400
2326.000000	36.145693
2325.000000	36.103572
2324.000000	35.903641
2323.000000	36.125842
2322.000000	36.031031
2321.000000	36.166537
2320.000000	35.998342
2319.000000	35.677358
2318.000000	35.762860
2317.000000	35.754511
2316.000000	35.929439
2315.000000	35.733914
2314.000000	35.714893
2313.000000	35.696326
2312.000000	35.568796
2311.000000	35.298105
2310.000000	35.168813
2309.000000	35.381010
2308.000000	35.252667
2307.000000	35.157789
2306.000000	35.273016
2305.000000	35.063990
2304.000000	35.104539
2303.000000	35.102586
2302.000000	35.030776
2301.000000	34.805110
2300.000000	34.664140
2299.000000	34.699423
2298.000000	34.446505
2297.000000	34.308519
2296.000000	34.560175
2295.000000	34.353305
2294.000000	34.377175
2293.000000	34.189085
2292.000000	34.024754
2291.000000	33.957923
2290.000000	33.923169
2289.000000	34.068952
2288.000000	34.124288
2287.000000	34.066338
2286.000000	34.060242
2285.000000	34.031848
2284.000000	34.027482
2283.000000	33.914322
2282.000000	33.865662
2281.000000	33.828571
2280.000000	33.674622
2279.000000	33.918754
2278.000000	33.807654
2277.000000	33.731756
2276.000000	33.913432
2275.000000	34.081942
2274.000000	33.962761
2273.000000	33.922690
2272.000000	33.951352
2271.000000	34.068244
2270.000000	34.167175
2269.000000	34.208425
2268.000000	34.161816
2267.000000	34.211546
2266.000000	34.294526
2265.000000	34.398020
2264.000000	34.524618
2263.000000	34.663129
2262.000000	34.631151
2261.000000	34.694980
2260.000000	34.931673
2259.000000	35.085972
2258.000000	35.326013
2257.000000	35.465045
2256.000000	35.435513
2255.000000	35.564721
2254.000000	35.754594
2253.000000	35.902600
2252.000000	36.028437
2251.000000	36.065197
2250.000000	36.250503
2249.000000	36.532483
2248.000000	36.646571
2247.000000	36.862505
2246.000000	37.033494
2245.000000	37.075643
2244.000000	37.243381
2243.000000	37.418216
2242.000000	37.553690
2241.000000	37.694313
2240.000000	37.789220
2239.000000	37.837737
2238.000000	37.822253
2237.000000	37.966950
2236.000000	38.100117
2235.000000	38.131576
2234.000000	38.176378
2233.000000	38.245980
2232.000000	38.316438
2231.000000	38.419165
2230.000000	38.483368
2229.000000	38.494206
2228.000000	38.503174
2227.000000	38.568636
2226.000000	38.538557
2225.000000	38.542581
2224.000000	38.574805
2223.000000	38.537252
2222.000000	38.561196
2221.000000	38.521357
2220.000000	38.488989
2219.000000	38.474133
2218.000000	38.448409
2217.000000	38.429729
2216.000000	38.364979
2215.000000	38.312227
2214.000000	38.388958
2213.000000	38.392926
2212.000000	38.282129
2211.000000	38.134460
2210.000000	38.070945
2209.000000	37.987423
2208.000000	37.972454
2207.000000	38.001109
2206.000000	37.948017
2205.000000	37.938019
2204.000000	37.913194
2203.000000	37.906038
2202.000000	37.886636
2201.000000	37.746862
2200.000000	37.630016
2199.000000	37.626388
2198.000000	37.717985
2197.000000	37.587520
2196.000000	37.477706
2195.000000	37.435573
2194.000000	37.392211
2193.000000	37.351016
2192.000000	37.296770
2191.000000	37.288179
2190.000000	37.141148
2189.000000	37.049080
2188.000000	37.000880
2187.000000	36.943682
2186.000000	36.958192
2185.000000	36.942854
2184.000000	36.969222
2183.000000	37.071524
2182.000000	36.941604
2181.000000	36.961005
2180.000000	36.989584
2179.000000	36.966933
2178.000000	37.021003
2177.000000	36.808516
2176.000000	36.821368
2175.000000	36.800710
2174.000000	36.984012
2173.000000	36.765233
2172.000000	36.916791
2171.000000	37.142730
2170.000000	37.170250
2169.000000	36.980163
2168.000000	37.285493
2167.000000	37.223752
2166.000000	37.283545
2165.000000	37.391611
2164.000000	37.506415
2163.000000	37.444349
2162.000000	37.710768
2161.000000	37.683134
2160.000000	37.849696
2159.000000	38.047259
2158.000000	37.976745
2157.000000	38.192631
2156.000000	38.204714
2155.000000	38.433243
2154.000000	38.511006
2153.000000	38.776620
2152.000000	38.741435
2151.000000	38.817167
2150.000000	39.001775
2149.000000	39.003196
2148.000000	39.173824
2147.000000	39.422033
2146.000000	39.452999
2145.000000	39.513231
2144.000000	39.695387
2143.000000	39.842057
2142.000000	39.823058
2141.000000	40.058419
2140.000000	40.256640
2139.000000	40.314241
2138.000000	40.487380
2137.000000	40.482345
2136.000000	40.495869
2135.000000	40.590197
2134.000000	40.606157
2133.000000	40.640822
2132.000000	40.807448
2131.000000	40.922920
2130.000000	41.011542
2129.000000	40.831976
2128.000000	40.910701
2127.000000	41.130550
2126.000000	41.142593
2125.000000	40.952785
2124.000000	41.124549
2123.000000	41.177451
2122.000000	41.240835
2121.000000	41.332875
2120.000000	41.302073
2119.000000	41.393611
2118.000000	41.396957
2117.000000	41.317842
2116.000000	41.423741
2115.000000	41.590691
2114.000000	41.521622
2113.000000	41.525229
2112.000000	41.508194
2111.000000	41.520009
2110.000000	41.502672
2109.000000	41.387313
2108.000000	41.517955
2107.000000	41.663591
2106.000000	41.687870
2105.000000	41.634183
2104.000000	41.507486
2103.000000	41.587452
2102.000000	41.657507
2101.000000	41.680270
2100.000000	41.793220
2099.000000	41.710740
2098.000000	41.655295
2097.000000	41.698841
2096.000000	41.680459
2095.000000	41.664966
2094.000000	41.575746
2093.000000	41.630518
2092.000000	41.677754
2091.000000	41.676104
2090.000000	41.641845
2089.000000	41.648048
2088.000000	41.595226
2087.000000	41.579514
2086.000000	41.628828
2085.000000	41.672897
2084.000000	41.595828
2083.000000	41.564885
2082.000000	41.468355
2081.000000	41.331692
2080.000000	41.237011
2079.000000	41.271075
2078.000000	41.207776
2077.000000	41.165820
2076.000000	41.159731
2075.000000	41.026852
2074.000000	40.969031
2073.000000	40.909661
2072.000000	40.772724
2071.000000	40.650027
2070.000000	40.668668
2069.000000	40.501650
2068.000000	40.363106
2067.000000	40.376289
2066.000000	40.252071
2065.000000	40.085292
2064.000000	39.999838
2063.000000	39.843136
2062.000000	39.810156
2061.000000	39.642057
2060.000000	39.458385
2059.000000	39.372158
2058.000000	39.316816
2057.000000	39.242683
2056.000000	39.148123
2055.000000	39.006453
2054.000000	38.846579
2053.000000	38.777043
2052.000000	38.695201
2051.000000	38.544506
2050.000000	38.424446
2049.000000	38.407651
2048.000000	38.379273
2047.000000	38.368324
2046.000000	38.285138
2045.000000	38.166905
2044.000000	38.159619
2043.000000	38.147382
2042.000000	38.130643
2041.000000	38.187037
2040.000000	38.197023
2039.000000	38.139369
2038.000000	38.154768
2037.000000	38.167837
2036.000000	38.220711
2035.000000	38.365681
2034.000000	38.421414
2033.000000	38.419253
2032.000000	38.512947
2031.000000	38.611538
2030.000000	38.696495
2029.000000	38.802523
2028.000000	38.861400
2027.000000	38.925674
2026.000000	39.041834
2025.000000	39.101312
2024.000000	39.141025
2023.000000	39.214247
2022.000000	39.268715
2021.000000	39.294036
2020.000000	39.331092
2019.000000	39.363812
2018.000000	39.374431
2017.000000	39.385351
2016.000000	39.383549
2015.000000	39.376536
2014.000000	39.347941
2013.000000	39.333564
2012.000000	39.290012
2011.000000	39.261318
2010.000000	39.261522
2009.000000	39.198502
2008.000000	39.129045
2007.000000	39.067668
2006.000000	38.978489
2005.000000	38.938788
2004.000000	38.856294
2003.000000	38.780139
2002.000000	38.715649
2001.000000	38.647354
2000.000000	38.570370
1999.000000	38.515250
1998.000000	38.447309
1997.000000	38.349119
1996.000000	38.257516
1995.000000	38.155816
1994.000000	38.080430
1993.000000	37.990412
1992.000000	37.905947
1991.000000	37.792299
1990.000000	37.717591
1989.000000	37.614012
1988.000000	37.529166
1987.000000	37.502184
1986.000000	37.397354
1985.000000	37.248539
1984.000000	37.214755
1983.000000	37.143548
1982.000000	37.051939
1981.000000	36.933282
1980.000000	36.837477
1979.000000	36.769604
1978.000000	36.680736
1977.000000	36.629497
1976.000000	36.528827
1975.000000	36.467213
1974.000000	36.369537
1973.000000	36.265093
1972.000000	36.158720
1971.000000	36.071232
1970.000000	35.998221
1969.000000	35.972691
1968.000000	35.851737
1967.000000	35.761010
1966.000000	35.711173
1965.000000	35.634377
1964.000000	35.523534
1963.000000	35.442850
1962.000000	35.349626
1961.000000	35.258223
1960.000000	35.210651
1959.000000	35.137948
1958.000000	35.027211
1957.000000	35.009783
1956.000000	34.942442
1955.000000	34.862336
1954.000000	34.803472
1953.000000	34.727646
1952.000000	34.697944
1951.000000	34.663211
1950.000000	34.564173
1949.000000	34.514498
1948.000000	34.512282
1947.000000	34.477252
1946.000000	34.440524
1945.000000	34.431150
1944.000000	34.404840
1943.000000	34.447488
1942.000000	34.418919
1941.000000	34.463963
1940.000000	34.494068
1939.000000	34.494061
1938.000000	34.569613
1937.000000	34.668996
1936.000000	34.673590
1935.000000	34.762310
1934.000000	34.805357
1933.000000	34.986001
1932.000000	35.038997
1931.000000	35.148921
1930.000000	35.303235
1929.000000	35.377027
1928.000000	35.584121
1927.000000	35.656284
1926.000000	35.900598
1925.000000	36.051024
1924.000000	36.271839
1923.000000	36.453041
1922.000000	36.578282
1921.000000	36.872125
1920.000000	37.095937
1919.000000	37.263836
1918.000000	37.533128
1917.000000	37.784349
1916.000000	37.980978
1915.000000	38.261724
1914.000000	38.539227
1913.000000	38.864511
1912.000000	39.128291
1911.000000	39.347032
1910.000000	39.689481
1909.000000	39.925590
1908.000000	40.257205
1907.000000	40.539825
1906.000000	40.876315
1905.000000	41.215345
1904.000000	41.548467
1903.000000	41.821860
1902.000000	42.237437
1901.000000	42.535751
1900.000000	42.935621
1899.000000	43.301194
1898.000000	43.578587
1897.000000	43.953199
1896.000000	44.313625
1895.000000	44.633916
1894.000000	44.953290
1893.000000	45.272223
1892.000000	45.654612
1891.000000	45.929066
1890.000000	46.229906
1889.000000	46.511819
1888.000000	46.767964
1887.000000	47.049820
1886.000000	47.331419
1885.000000	47.574156
1884.000000	47.779062
1883.000000	48.074734
1882.000000	48.249466
1881.000000	48.457188
1880.000000	48.643620
1879.000000	48.814052
1878.000000	49.016440
1877.000000	49.233424
1876.000000	49.419115
1875.000000	49.530924
1874.000000	49.680193
1873.000000	49.837765
1872.000000	49.919196
1871.000000	50.086994
1870.000000	50.199161
1869.000000	50.250429
1868.000000	50.389208
1867.000000	50.476974
1866.000000	50.499449
1865.000000	50.572859
1864.000000	50.620318
1863.000000	50.700383
1862.000000	50.754863
1861.000000	50.797801
1860.000000	50.779168
1859.000000	50.760512
1858.000000	50.816621
1857.000000	50.851632
1856.000000	50.862444
1855.000000	50.892555
1854.000000	50.935120
1853.000000	50.958111
1852.000000	50.949397
1851.000000	50.911046
1850.000000	50.901706
1849.000000	50.877960
1848.000000	50.923667
1847.000000	50.936696
1846.000000	50.910340
1845.000000	50.897653
1844.000000	50.894804
1843.000000	50.892135
1842.000000	50.872809
1841.000000	50.851452
1840.000000	50.849968
1839.000000	50.819773
1838.000000	50.786160
1837.000000	50.748210
1836.000000	50.725326
1835.000000	50.693286
1834.000000	50.680271
1833.000000	50.688065
1832.000000	50.662105
1831.000000	50.614822
1830.000000	50.575229
1829.000000	50.525833
1828.000000	50.510872
1827.000000	50.494862
1826.000000	50.457237
1825.000000	50.427837
1824.000000	50.437123
1823.000000	50.422193
1822.000000	50.360706
1821.000000	50.348987
1820.000000	50.318807
1819.000000	50.273205
1818.000000	50.270780
1817.000000	50.249980
1816.000000	50.243195
1815.000000	50.243490
1814.000000	50.193094
1813.000000	50.143352
1812.000000	50.127363
1811.000000	50.109703
1810.000000	50.089620
1809.000000	50.071444
1808.000000	50.051286
1807.000000	50.023160
1806.000000	49.994463
1805.000000	49.967996
1804.000000	49.949001
1803.000000	49.927308
1802.000000	49.916775
1801.000000	49.921697
1800.000000	49.903414
1799.000000	49.875354
1798.000000	49.851436
1797.000000	49.835904
1796.000000	49.822030
1795.000000	49.789907
1794.000000	49.779326
1793.000000	49.771114
1792.000000	49.747563
1791.000000	49.759502
1790.000000	49.745596
1789.000000	49.727833
1788.000000	49.699606
1787.000000	49.680798
1786.000000	49.674144
1785.000000	49.648005
1784.000000	49.626184
1783.000000	49.610411
1782.000000	49.583210
1781.000000	49.574253
1780.000000	49.547768
1779.000000	49.536879
1778.000000	49.507495
1777.000000	49.471221
1776.000000	49.443642
1775.000000	49.391379
1774.000000	49.383742
1773.000000	49.361709
1772.000000	49.283285
1771.000000	49.252346
1770.000000	49.238810
1769.000000	49.192748
1768.000000	49.166639
1767.000000	49.137391
1766.000000	49.077007
1765.000000	49.063568
1764.000000	49.045002
1763.000000	48.988354
1762.000000	48.948596
1761.000000	48.932805
1760.000000	48.874627
1759.000000	48.830891
1758.000000	48.816164
1757.000000	48.785775
1756.000000	48.751414
1755.000000	48.713845
1754.000000	48.682025
1753.000000	48.633839
1752.000000	48.612445
1751.000000	48.577861
1750.000000	48.532819
1749.000000	48.516275
1748.000000	48.457311
1747.000000	48.418257
1746.000000	48.372343
1745.000000	48.285362
1744.000000	48.294357
1743.000000	48.248378
1742.000000	48.212527
1741.000000	48.169259
1740.000000	48.144351
1739.000000	48.133738
1738.000000	48.092501
1737.000000	48.063189
1736.000000	48.062256
1735.000000	48.023132
1734.000000	48.061767
1733.000000	48.048582
1732.000000	48.003954
1731.000000	48.037306
1730.000000	48.028413
1729.000000	48.051705
1728.000000	48.068660
1727.000000	48.087434
1726.000000	48.126955
1725.000000	48.133128
1724.000000	48.197114
1723.000000	48.259309
1722.000000	48.302212
1721.000000	48.378586
1720.000000	48.413247
1719.000000	48.499891
1718.000000	48.567904
1717.000000	48.616563
1716.000000	48.686824
1715.000000	48.719043
1714.000000	48.775434
1713.000000	48.814286
1712.000000	48.859265
1711.000000	48.899359
1710.000000	48.965315
1709.000000	48.972064
1708.000000	49.007575
1707.000000	49.008095
1706.000000	49.066423
1705.000000	49.076149
1704.000000	49.114909
1703.000000	49.113201
1702.000000	49.149475
1701.000000	49.114739
1700.000000	49.120099
1699.000000	49.116609
1698.000000	49.138689
1697.000000	49.159867
1696.000000	49.178324
1695.000000	49.156214
1694.000000	49.195966
1693.000000	49.226713
1692.000000	49.226531
1691.000000	49.276727
1690.000000	49.310857
1689.000000	49.366036
1688.000000	49.416236
1687.000000	49.476476
1686.000000	49.548614
1685.000000	49.594137
1684.000000	49.711483
1683.000000	49.782122
1682.000000	49.852720
1681.000000	49.974402
1680.000000	50.063536
1679.000000	50.132724
1678.000000	50.241775
1677.000000	50.333321
1676.000000	50.432460
1675.000000	50.556236
1674.000000	50.647016
1673.000000	50.745083
1672.000000	50.819710
1671.000000	50.942116
1670.000000	51.026757
1669.000000	51.129851
1668.000000	51.180759
1667.000000	51.283330
1666.000000	51.335340
1665.000000	51.393215
1664.000000	51.449735
1663.000000	51.493001
1662.000000	51.533833
1661.000000	51.588178
1660.000000	51.633094
1659.000000	51.673484
1658.000000	51.690601
1657.000000	51.719156
1656.000000	51.751535
1655.000000	51.771727
1654.000000	51.787471
1653.000000	51.795512
1652.000000	51.811102
1651.000000	51.800223
1650.000000	51.802253
1649.000000	51.806460
1648.000000	51.780069
1647.000000	51.799640
1646.000000	51.801981
1645.000000	51.787546
1644.000000	51.771515
1643.000000	51.747995
1642.000000	51.717400
1641.000000	51.715716
1640.000000	51.697411
1639.000000	51.687907
1638.000000	51.680918
1637.000000	51.643470
1636.000000	51.624117
1635.000000	51.603338
1634.000000	51.577834
1633.000000	51.559583
1632.000000	51.535926
1631.000000	51.516622
1630.000000	51.478349
1629.000000	51.460411
1628.000000	51.419634
1627.000000	51.386420
1626.000000	51.357023
1625.000000	51.325717
1624.000000	51.288084
1623.000000	51.282064
1622.000000	51.260182
1621.000000	51.218282
1620.000000	51.187003
1619.000000	51.161773
1618.000000	51.129744
1617.000000	51.094627
1616.000000	51.048101
1615.000000	51.015701
1614.000000	50.999232
1613.000000	50.956338
1612.000000	50.905547
1611.000000	50.874155
1610.000000	50.841891
1609.000000	50.792789
1608.000000	50.752176
1607.000000	50.701506
1606.000000	50.651373
1605.000000	50.620386
1604.000000	50.577220
1603.000000	50.546196
1602.000000	50.516221
1601.000000	50.469307
1600.000000	50.412403
1599.000000	50.369480
1598.000000	50.343829
1597.000000	50.312261
1596.000000	50.263645
1595.000000	50.221668
1594.000000	50.188172
1593.000000	50.161078
1592.000000	50.127958
1591.000000	50.090552
1590.000000	50.056645
1589.000000	50.024515
1588.000000	49.998731
1587.000000	49.962388
1586.000000	49.923811
1585.000000	49.891841
1584.000000	49.853836
1583.000000	49.815036
1582.000000	49.799081
1581.000000	49.775455
1580.000000	49.746720
1579.000000	49.721052
1578.000000	49.683305
1577.000000	49.645825
1576.000000	49.622854
1575.000000	49.599242
1574.000000	49.568686
1573.000000	49.541818
1572.000000	49.505810
1571.000000	49.480635
1570.000000	49.465461
1569.000000	49.417517
1568.000000	49.388150
1567.000000	49.376687
1566.000000	49.347742
1565.000000	49.322602
1564.000000	49.313011
1563.000000	49.297055
1562.000000	49.273265
1561.000000	49.248779
1560.000000	49.215740
1559.000000	49.204990
1558.000000	49.192171
1557.000000	49.178621
1556.000000	49.167846
1555.000000	49.145693
1554.000000	49.128742
1553.000000	49.101333
1552.000000	49.087763
1551.000000	49.074401
1550.000000	49.049845
1549.000000	49.015014
1548.000000	48.993243
1547.000000	48.956737
1546.000000	48.920017
1545.000000	48.879262
1544.000000	48.839951
1543.000000	48.791656
1542.000000	48.748725
1541.000000	48.690280
1540.000000	48.642942
1539.000000	48.585533
1538.000000	48.534015
1537.000000	48.487087
1536.000000	48.414081
1535.000000	48.353818
1534.000000	48.303270
1533.000000	48.261737
1532.000000	48.202294
1531.000000	48.149200
1530.000000	48.101524
1529.000000	48.042111
1528.000000	47.986805
1527.000000	47.943779
1526.000000	47.900459
1525.000000	47.867342
1524.000000	47.822980
1523.000000	47.767299
1522.000000	47.738297
1521.000000	47.688734
1520.000000	47.659166
1519.000000	47.642677
1518.000000	47.609422
1517.000000	47.554032
1516.000000	47.536099
1515.000000	47.532186
1514.000000	47.500124
1513.000000	47.475380
1512.000000	47.498940
1511.000000	47.525492
1510.000000	47.504754
1509.000000	47.480295
1508.000000	47.442351
1507.000000	47.411601
1506.000000	47.404338
1505.000000	47.385842
1504.000000	47.364575
1503.000000	47.383265
1502.000000	47.378127
1501.000000	47.365163
1500.000000	47.357102
1499.000000	47.340798
1498.000000	47.342052
1497.000000	47.344164
1496.000000	47.352241
1495.000000	47.348167
1494.000000	47.351265
1493.000000	47.364795
1492.000000	47.383355
1491.000000	47.405685
1490.000000	47.421292
1489.000000	47.430641
1488.000000	47.456822
1487.000000	47.475612
1486.000000	47.525300
1485.000000	47.516287
1484.000000	47.560568
1483.000000	47.586869
1482.000000	47.606075
1481.000000	47.661991
1480.000000	47.691477
1479.000000	47.715755
1478.000000	47.740797
1477.000000	47.772881
1476.000000	47.803115
1475.000000	47.829338
1474.000000	47.873965
1473.000000	47.901187
1472.000000	47.914714
1471.000000	47.929956
1470.000000	47.967352
