PE UV       SUBTECH     SPECTRUM    ASCII       PEDS        4.00        
   -1
RTmshap12.Sample.asc
18/03/19
14:57:31.00
18/03/19
14:57:31.00
Administrator

200.000000
1
Lambda 750
750N8071901
PerkinElmer UV WinLab 6.0.4.0738 / 1.61.00 Lambda 900

0
0
3350/servo 860.8/2
0
0
UV/VIS
1
1
1
CommonBeamDepol,150mm sphere / downward view
0
0
0
0
Program
Program
3350/servo 860.8/2
3350/0.2 860.8/0.2
3350/0.2 860.8/0.2
0
1
 
 
 
0
 
860.8
319.2
860.8
Front
100
on
 
 
0
0
0
 
0
 
 
 
0
 
 
0
0
0
0
0
 
 
 
 
0
0


0
0
#HDR
-1
-1
#GR
nm
%R
1.0
0.0
2350.000000
-1.000000
2151
8
77.528946
23.309478
#DATA
2350.000000	46.106955
2349.000000	46.370291
2348.000000	46.826597
2347.000000	46.824979
2346.000000	46.475203
2345.000000	46.459106
2344.000000	46.487884
2343.000000	46.608686
2342.000000	46.478977
2341.000000	46.896366
2340.000000	46.549580
2339.000000	46.650133
2338.000000	46.863597
2337.000000	46.863290
2336.000000	46.870414
2335.000000	46.944653
2334.000000	46.857058
2333.000000	46.805433
2332.000000	47.036735
2331.000000	46.978708
2330.000000	46.940570
2329.000000	46.939916
2328.000000	47.095884
2327.000000	46.760550
2326.000000	46.888048
2325.000000	46.906482
2324.000000	46.863687
2323.000000	46.811747
2322.000000	46.551670
2321.000000	46.650443
2320.000000	46.712928
2319.000000	46.763430
2318.000000	46.600002
2317.000000	46.501700
2316.000000	46.611949
2315.000000	46.477606
2314.000000	46.347107
2313.000000	46.392298
2312.000000	46.341496
2311.000000	46.294303
2310.000000	46.089093
2309.000000	46.256272
2308.000000	46.154579
2307.000000	46.293425
2306.000000	45.979914
2305.000000	46.032754
2304.000000	45.858434
2303.000000	45.820294
2302.000000	45.883348
2301.000000	45.654345
2300.000000	45.601893
2299.000000	45.696553
2298.000000	45.663279
2297.000000	45.661443
2296.000000	45.539965
2295.000000	45.378608
2294.000000	45.434397
2293.000000	45.117716
2292.000000	45.020628
2291.000000	45.096361
2290.000000	45.114367
2289.000000	45.153620
2288.000000	45.253006
2287.000000	45.185581
2286.000000	45.029710
2285.000000	44.965812
2284.000000	45.040507
2283.000000	45.069518
2282.000000	44.935906
2281.000000	45.176017
2280.000000	45.091510
2279.000000	45.052205
2278.000000	45.084906
2277.000000	45.022149
2276.000000	45.030664
2275.000000	45.069921
2274.000000	45.105330
2273.000000	45.235083
2272.000000	45.181107
2271.000000	45.203299
2270.000000	45.342439
2269.000000	45.552283
2268.000000	45.544794
2267.000000	45.605184
2266.000000	45.628100
2265.000000	45.714439
2264.000000	45.830114
2263.000000	45.904998
2262.000000	46.049358
2261.000000	46.178034
2260.000000	46.316942
2259.000000	46.434988
2258.000000	46.674331
2257.000000	46.844763
2256.000000	46.934760
2255.000000	47.023334
2254.000000	47.223256
2253.000000	47.407438
2252.000000	47.554201
2251.000000	47.693474
2250.000000	47.974299
2249.000000	48.150906
2248.000000	48.175509
2247.000000	48.326504
2246.000000	48.458897
2245.000000	48.663521
2244.000000	48.898172
2243.000000	49.014439
2242.000000	49.095963
2241.000000	49.230338
2240.000000	49.433216
2239.000000	49.602877
2238.000000	49.674732
2237.000000	49.711195
2236.000000	49.759360
2235.000000	49.761683
2234.000000	49.875448
2233.000000	50.033900
2232.000000	50.192127
2231.000000	50.323541
2230.000000	50.328980
2229.000000	50.425536
2228.000000	50.371995
2227.000000	50.257322
2226.000000	50.249882
2225.000000	50.275090
2224.000000	50.333734
2223.000000	50.338391
2222.000000	50.437948
2221.000000	50.475193
2220.000000	50.375867
2219.000000	50.300568
2218.000000	50.189598
2217.000000	50.179442
2216.000000	50.113346
2215.000000	50.146644
2214.000000	50.161594
2213.000000	50.162562
2212.000000	50.102754
2211.000000	49.985109
2210.000000	50.046792
2209.000000	50.059097
2208.000000	49.874675
2207.000000	49.835705
2206.000000	49.927697
2205.000000	49.849799
2204.000000	49.703963
2203.000000	49.704506
2202.000000	49.674993
2201.000000	49.535592
2200.000000	49.569230
2199.000000	49.624993
2198.000000	49.615685
2197.000000	49.513476
2196.000000	49.370799
2195.000000	49.286810
2194.000000	49.384366
2193.000000	49.110577
2192.000000	49.068544
2191.000000	49.228663
2190.000000	49.169102
2189.000000	49.073905
2188.000000	48.943564
2187.000000	48.902418
2186.000000	48.954957
2185.000000	48.871955
2184.000000	48.854492
2183.000000	48.856773
2182.000000	48.835096
2181.000000	48.839735
2180.000000	48.944396
2179.000000	48.820911
2178.000000	48.791996
2177.000000	49.003098
2176.000000	48.920324
2175.000000	48.959363
2174.000000	49.070355
2173.000000	48.820043
2172.000000	48.967740
2171.000000	49.109779
2170.000000	49.058217
2169.000000	49.240584
2168.000000	49.367789
2167.000000	49.295145
2166.000000	49.288784
2165.000000	49.484126
2164.000000	49.652809
2163.000000	49.704222
2162.000000	49.891697
2161.000000	49.843345
2160.000000	49.978314
2159.000000	50.277576
2158.000000	50.233979
2157.000000	50.213086
2156.000000	50.301738
2155.000000	50.618730
2154.000000	50.809389
2153.000000	51.017988
2152.000000	51.065074
2151.000000	51.248649
2150.000000	51.165686
2149.000000	51.465612
2148.000000	51.477739
2147.000000	51.573318
2146.000000	51.789925
2145.000000	51.881566
2144.000000	51.994913
2143.000000	51.989293
2142.000000	52.182622
2141.000000	52.325847
2140.000000	52.381663
2139.000000	52.775631
2138.000000	52.753693
2137.000000	52.756980
2136.000000	52.781200
2135.000000	52.696086
2134.000000	52.990462
2133.000000	52.988004
2132.000000	53.043424
2131.000000	53.232214
2130.000000	53.281812
2129.000000	53.355556
2128.000000	53.403020
2127.000000	53.512858
2126.000000	53.488255
2125.000000	53.423215
2124.000000	53.525835
2123.000000	53.583125
2122.000000	53.729260
2121.000000	53.770213
2120.000000	53.576333
2119.000000	53.873597
2118.000000	53.834111
2117.000000	53.672336
2116.000000	53.609555
2115.000000	53.919418
2114.000000	53.829828
2113.000000	53.771746
2112.000000	53.734501
2111.000000	53.911769
2110.000000	53.875912
2109.000000	53.881408
2108.000000	53.876530
2107.000000	53.888167
2106.000000	54.036547
2105.000000	54.011566
2104.000000	53.927131
2103.000000	53.938543
2102.000000	53.996371
2101.000000	53.972672
2100.000000	54.083887
2099.000000	54.011248
2098.000000	53.931991
2097.000000	54.029431
2096.000000	54.043829
2095.000000	53.911555
2094.000000	54.019469
2093.000000	54.090656
2092.000000	53.991576
2091.000000	54.005622
2090.000000	54.020747
2089.000000	53.989812
2088.000000	53.862765
2087.000000	53.841786
2086.000000	53.846403
2085.000000	53.958608
2084.000000	53.879596
2083.000000	53.814658
2082.000000	53.796142
2081.000000	53.630624
2080.000000	53.552743
2079.000000	53.584865
2078.000000	53.539302
2077.000000	53.523779
2076.000000	53.504259
2075.000000	53.337993
2074.000000	53.232091
2073.000000	53.170012
2072.000000	53.092340
2071.000000	53.003056
2070.000000	53.047589
2069.000000	52.857037
2068.000000	52.683695
2067.000000	52.618329
2066.000000	52.483421
2065.000000	52.365672
2064.000000	52.314918
2063.000000	52.169512
2062.000000	52.106960
2061.000000	51.943186
2060.000000	51.815049
2059.000000	51.718004
2058.000000	51.571770
2057.000000	51.467962
2056.000000	51.382309
2055.000000	51.263819
2054.000000	51.171607
2053.000000	51.089029
2052.000000	50.980474
2051.000000	50.795757
2050.000000	50.724155
2049.000000	50.731490
2048.000000	50.648720
2047.000000	50.577321
2046.000000	50.514706
2045.000000	50.416185
2044.000000	50.392394
2043.000000	50.367879
2042.000000	50.355145
2041.000000	50.397859
2040.000000	50.457184
2039.000000	50.458506
2038.000000	50.453678
2037.000000	50.475467
2036.000000	50.502159
2035.000000	50.583700
2034.000000	50.654780
2033.000000	50.719433
2032.000000	50.782049
2031.000000	50.825940
2030.000000	50.946676
2029.000000	51.060869
2028.000000	51.112077
2027.000000	51.214148
2026.000000	51.343154
2025.000000	51.356133
2024.000000	51.367496
2023.000000	51.460233
2022.000000	51.505017
2021.000000	51.502448
2020.000000	51.570083
2019.000000	51.612318
2018.000000	51.586673
2017.000000	51.595723
2016.000000	51.618654
2015.000000	51.610617
2014.000000	51.577090
2013.000000	51.572872
2012.000000	51.553200
2011.000000	51.545875
2010.000000	51.508366
2009.000000	51.428371
2008.000000	51.376254
2007.000000	51.325540
2006.000000	51.257359
2005.000000	51.173860
2004.000000	51.110200
2003.000000	51.085610
2002.000000	51.016605
2001.000000	50.908894
2000.000000	50.821961
1999.000000	50.756198
1998.000000	50.710310
1997.000000	50.629511
1996.000000	50.533200
1995.000000	50.421408
1994.000000	50.328224
1993.000000	50.250257
1992.000000	50.143741
1991.000000	50.035067
1990.000000	49.964406
1989.000000	49.885392
1988.000000	49.792363
1987.000000	49.754166
1986.000000	49.635325
1985.000000	49.540360
1984.000000	49.438954
1983.000000	49.382962
1982.000000	49.308996
1981.000000	49.196478
1980.000000	49.106244
1979.000000	49.035216
1978.000000	48.969563
1977.000000	48.875093
1976.000000	48.788418
1975.000000	48.715940
1974.000000	48.549056
1973.000000	48.502923
1972.000000	48.392424
1971.000000	48.299061
1970.000000	48.205353
1969.000000	48.171463
1968.000000	48.091168
1967.000000	48.042696
1966.000000	47.947987
1965.000000	47.821769
1964.000000	47.700380
1963.000000	47.609555
1962.000000	47.547000
1961.000000	47.460212
1960.000000	47.455825
1959.000000	47.334765
1958.000000	47.283973
1957.000000	47.249043
1956.000000	47.162131
1955.000000	47.136153
1954.000000	47.033678
1953.000000	46.964081
1952.000000	46.948481
1951.000000	46.931099
1950.000000	46.870200
1949.000000	46.798777
1948.000000	46.772620
1947.000000	46.775685
1946.000000	46.717237
1945.000000	46.722937
1944.000000	46.724641
1943.000000	46.737556
1942.000000	46.736698
1941.000000	46.784471
1940.000000	46.808504
1939.000000	46.897919
1938.000000	46.980981
1937.000000	47.044877
1936.000000	47.099568
1935.000000	47.161707
1934.000000	47.221420
1933.000000	47.372696
1932.000000	47.485291
1931.000000	47.590915
1930.000000	47.724649
1929.000000	47.885670
1928.000000	48.061111
1927.000000	48.163293
1926.000000	48.324778
1925.000000	48.596689
1924.000000	48.749645
1923.000000	49.012340
1922.000000	49.214167
1921.000000	49.327449
1920.000000	49.665519
1919.000000	49.833451
1918.000000	50.147725
1917.000000	50.421079
1916.000000	50.708218
1915.000000	51.027800
1914.000000	51.319875
1913.000000	51.570719
1912.000000	51.888081
1911.000000	52.122643
1910.000000	52.500685
1909.000000	52.775921
1908.000000	53.130017
1907.000000	53.520801
1906.000000	53.844734
1905.000000	54.250371
1904.000000	54.669169
1903.000000	54.923088
1902.000000	55.309061
1901.000000	55.698308
1900.000000	56.086346
1899.000000	56.550151
1898.000000	56.853492
1897.000000	57.235896
1896.000000	57.599447
1895.000000	58.042380
1894.000000	58.421768
1893.000000	58.759965
1892.000000	59.198110
1891.000000	59.474933
1890.000000	59.828794
1889.000000	60.141538
1888.000000	60.485657
1887.000000	60.864123
1886.000000	61.158636
1885.000000	61.420859
1884.000000	61.746529
1883.000000	62.060008
1882.000000	62.289309
1881.000000	62.526692
1880.000000	62.775000
1879.000000	62.984466
1878.000000	63.180115
1877.000000	63.479853
1876.000000	63.745452
1875.000000	63.891809
1874.000000	64.056774
1873.000000	64.280096
1872.000000	64.453314
1871.000000	64.612646
1870.000000	64.735524
1869.000000	64.888144
1868.000000	65.041046
1867.000000	65.167153
1866.000000	65.233537
1865.000000	65.333607
1864.000000	65.379139
1863.000000	65.471590
1862.000000	65.539438
1861.000000	65.551387
1860.000000	65.636152
1859.000000	65.630198
1858.000000	65.680028
1857.000000	65.720769
1856.000000	65.803294
1855.000000	65.820861
1854.000000	65.842216
1853.000000	65.845563
1852.000000	65.865886
1851.000000	65.864443
1850.000000	65.874029
1849.000000	65.883692
1848.000000	65.914121
1847.000000	65.943079
1846.000000	65.904935
1845.000000	65.908315
1844.000000	65.916026
1843.000000	65.896748
1842.000000	65.898253
1841.000000	65.884476
1840.000000	65.886372
1839.000000	65.863573
1838.000000	65.854249
1837.000000	65.803700
1836.000000	65.772962
1835.000000	65.787457
1834.000000	65.773524
1833.000000	65.777431
1832.000000	65.760401
1831.000000	65.708599
1830.000000	65.688348
1829.000000	65.647788
1828.000000	65.596075
1827.000000	65.593520
1826.000000	65.567059
1825.000000	65.556776
1824.000000	65.557017
1823.000000	65.543187
1822.000000	65.516650
1821.000000	65.496642
1820.000000	65.468071
1819.000000	65.411259
1818.000000	65.415682
1817.000000	65.416193
1816.000000	65.377617
1815.000000	65.362604
1814.000000	65.347554
1813.000000	65.296867
1812.000000	65.282306
1811.000000	65.261323
1810.000000	65.230041
1809.000000	65.215749
1808.000000	65.186986
1807.000000	65.166293
1806.000000	65.160713
1805.000000	65.142079
1804.000000	65.109078
1803.000000	65.087835
1802.000000	65.057038
1801.000000	65.062332
1800.000000	65.052164
1799.000000	65.020646
1798.000000	64.979992
1797.000000	64.967313
1796.000000	64.960021
1795.000000	64.925513
1794.000000	64.930029
1793.000000	64.934099
1792.000000	64.899356
1791.000000	64.891024
1790.000000	64.890568
1789.000000	64.861843
1788.000000	64.833571
1787.000000	64.800007
1786.000000	64.794841
1785.000000	64.791222
1784.000000	64.760455
1783.000000	64.743975
1782.000000	64.703085
1781.000000	64.668940
1780.000000	64.662912
1779.000000	64.666313
1778.000000	64.628487
1777.000000	64.604201
1776.000000	64.574018
1775.000000	64.517529
1774.000000	64.472807
1773.000000	64.450572
1772.000000	64.407979
1771.000000	64.385306
1770.000000	64.345954
1769.000000	64.296404
1768.000000	64.287957
1767.000000	64.276393
1766.000000	64.211687
1765.000000	64.190585
1764.000000	64.178006
1763.000000	64.125239
1762.000000	64.099390
1761.000000	64.080297
1760.000000	64.030632
1759.000000	63.992410
1758.000000	64.002058
1757.000000	63.950118
1756.000000	63.926326
1755.000000	63.871605
1754.000000	63.867597
1753.000000	63.832994
1752.000000	63.802551
1751.000000	63.772706
1750.000000	63.748496
1749.000000	63.739824
1748.000000	63.708021
1747.000000	63.683741
1746.000000	63.621056
1745.000000	63.580620
1744.000000	63.552025
1743.000000	63.532305
1742.000000	63.499619
1741.000000	63.457930
1740.000000	63.457152
1739.000000	63.437551
1738.000000	63.377788
1737.000000	63.358690
1736.000000	63.374225
1735.000000	63.360270
1734.000000	63.396188
1733.000000	63.365709
1732.000000	63.358364
1731.000000	63.379437
1730.000000	63.389292
1729.000000	63.411822
1728.000000	63.475182
1727.000000	63.499734
1726.000000	63.558017
1725.000000	63.599607
1724.000000	63.632181
1723.000000	63.732141
1722.000000	63.790916
1721.000000	63.837125
1720.000000	63.880995
1719.000000	63.999728
1718.000000	64.070098
1717.000000	64.130687
1716.000000	64.203219
1715.000000	64.274632
1714.000000	64.340088
1713.000000	64.406635
1712.000000	64.472842
1711.000000	64.511912
1710.000000	64.603968
1709.000000	64.634871
1708.000000	64.652463
1707.000000	64.700326
1706.000000	64.745561
1705.000000	64.774503
1704.000000	64.778689
1703.000000	64.792261
1702.000000	64.839097
1701.000000	64.840629
1700.000000	64.890338
1699.000000	64.843952
1698.000000	64.873861
1697.000000	64.901206
1696.000000	64.960697
1695.000000	64.948831
1694.000000	64.986910
1693.000000	65.023748
1692.000000	65.045949
1691.000000	65.098314
1690.000000	65.155196
1689.000000	65.214030
1688.000000	65.300233
1687.000000	65.364343
1686.000000	65.426643
1685.000000	65.526657
1684.000000	65.650669
1683.000000	65.749346
1682.000000	65.855512
1681.000000	65.976470
1680.000000	66.076506
1679.000000	66.190898
1678.000000	66.311150
1677.000000	66.433211
1676.000000	66.516758
1675.000000	66.666565
1674.000000	66.774630
1673.000000	66.920124
1672.000000	67.038082
1671.000000	67.129591
1670.000000	67.239654
1669.000000	67.353120
1668.000000	67.453772
1667.000000	67.553971
1666.000000	67.650906
1665.000000	67.698380
1664.000000	67.763940
1663.000000	67.825848
1662.000000	67.882768
1661.000000	67.940019
1660.000000	67.999976
1659.000000	68.051854
1658.000000	68.072843
1657.000000	68.112562
1656.000000	68.147895
1655.000000	68.182114
1654.000000	68.190333
1653.000000	68.216063
1652.000000	68.238549
1651.000000	68.215269
1650.000000	68.227756
1649.000000	68.231043
1648.000000	68.197922
1647.000000	68.231082
1646.000000	68.225615
1645.000000	68.218872
1644.000000	68.228891
1643.000000	68.197076
1642.000000	68.171862
1641.000000	68.171930
1640.000000	68.168628
1639.000000	68.156008
1638.000000	68.148792
1637.000000	68.143864
1636.000000	68.099305
1635.000000	68.087547
1634.000000	68.066185
1633.000000	68.029794
1632.000000	68.007931
1631.000000	67.997831
1630.000000	67.970760
1629.000000	67.950978
1628.000000	67.918354
1627.000000	67.876369
1626.000000	67.867777
1625.000000	67.832292
1624.000000	67.792977
1623.000000	67.780801
1622.000000	67.766760
1621.000000	67.725489
1620.000000	67.687680
1619.000000	67.665712
1618.000000	67.651738
1617.000000	67.618910
1616.000000	67.577803
1615.000000	67.541241
1614.000000	67.519260
1613.000000	67.481154
1612.000000	67.435222
1611.000000	67.389148
1610.000000	67.363944
1609.000000	67.339465
1608.000000	67.300865
1607.000000	67.253412
1606.000000	67.203649
1605.000000	67.171279
1604.000000	67.129005
1603.000000	67.092794
1602.000000	67.063507
1601.000000	67.013380
1600.000000	66.962041
1599.000000	66.926149
1598.000000	66.888239
1597.000000	66.856297
1596.000000	66.819423
1595.000000	66.784741
1594.000000	66.740217
1593.000000	66.707469
1592.000000	66.693196
1591.000000	66.654586
1590.000000	66.619767
1589.000000	66.586032
1588.000000	66.554435
1587.000000	66.535203
1586.000000	66.505829
1585.000000	66.471158
1584.000000	66.449282
1583.000000	66.413553
1582.000000	66.380436
1581.000000	66.351979
1580.000000	66.332682
1579.000000	66.305868
1578.000000	66.278405
1577.000000	66.243652
1576.000000	66.209883
1575.000000	66.193559
1574.000000	66.175114
1573.000000	66.146196
1572.000000	66.109244
1571.000000	66.090463
1570.000000	66.067490
1569.000000	66.041386
1568.000000	66.049251
1567.000000	66.022411
1566.000000	65.981493
1565.000000	65.965082
1564.000000	65.952159
1563.000000	65.941513
1562.000000	65.917131
1561.000000	65.897430
1560.000000	65.897596
1559.000000	65.878033
1558.000000	65.883619
1557.000000	65.877393
1556.000000	65.875362
1555.000000	65.862136
1554.000000	65.832413
1553.000000	65.805391
1552.000000	65.804828
1551.000000	65.807131
1550.000000	65.787514
1549.000000	65.752927
1548.000000	65.726425
1547.000000	65.696026
1546.000000	65.669088
1545.000000	65.634669
1544.000000	65.597721
1543.000000	65.548356
1542.000000	65.501286
1541.000000	65.471883
1540.000000	65.422854
1539.000000	65.357625
1538.000000	65.304149
1537.000000	65.251787
1536.000000	65.185860
1535.000000	65.140889
1534.000000	65.086122
1533.000000	65.047237
1532.000000	64.978790
1531.000000	64.927354
1530.000000	64.886670
1529.000000	64.833283
1528.000000	64.771072
1527.000000	64.733408
1526.000000	64.701053
1525.000000	64.665022
1524.000000	64.615174
1523.000000	64.584551
1522.000000	64.549060
1521.000000	64.519288
1520.000000	64.468278
1519.000000	64.442584
1518.000000	64.430028
1517.000000	64.408678
1516.000000	64.423229
1515.000000	64.443547
1514.000000	64.429839
1513.000000	64.411883
1512.000000	64.387668
1511.000000	64.376283
1510.000000	64.345328
1509.000000	64.311721
1508.000000	64.286584
1507.000000	64.276356
1506.000000	64.262970
1505.000000	64.249928
1504.000000	64.242276
1503.000000	64.221262
1502.000000	64.225121
1501.000000	64.218094
1500.000000	64.216864
1499.000000	64.231115
1498.000000	64.222049
1497.000000	64.243167
1496.000000	64.249040
1495.000000	64.243947
1494.000000	64.270695
1493.000000	64.270248
1492.000000	64.286309
1491.000000	64.318586
1490.000000	64.336423
1489.000000	64.342074
1488.000000	64.376131
1487.000000	64.409910
1486.000000	64.454034
1485.000000	64.471313
1484.000000	64.519537
1483.000000	64.542608
1482.000000	64.573669
1481.000000	64.630746
1480.000000	64.656590
1479.000000	64.706998
1478.000000	64.751556
1477.000000	64.785982
1476.000000	64.831381
1475.000000	64.871410
1474.000000	64.916540
1473.000000	64.953231
1472.000000	64.990057
1471.000000	65.015806
1470.000000	65.066047
