PE UV       SUBTECH     SPECTRUM    ASCII       PEDS        4.00        
   -1
RTmshap22.Sample.asc
18/03/19
16:16:16.00
18/03/19
16:16:16.00
Administrator

200.000000
1
Lambda 750
750N8071901
PerkinElmer UV WinLab 6.0.4.0738 / 1.61.00 Lambda 900

0
0
3350/servo 860.8/2
0
0
UV/VIS
1
1
1
CommonBeamDepol,150mm sphere / downward view
0
0
0
0
Program
Program
3350/servo 860.8/2
3350/0.2 860.8/0.2
3350/0.2 860.8/0.2
0
1
 
 
 
0
 
860.8
319.2
860.8
Front
100
on
 
 
0
0
0
 
0
 
 
 
0
 
 
0
0
0
0
0
 
 
 
 
0
0


0
0
#HDR
-1
-1
#GR
nm
%R
1.0
0.0
2350.000000
-1.000000
2151
8
74.354716
21.332841
#DATA
2350.000000	40.445204
2349.000000	40.668817
2348.000000	40.464825
2347.000000	40.809228
2346.000000	40.708787
2345.000000	40.800675
2344.000000	40.741825
2343.000000	41.001408
2342.000000	40.834428
2341.000000	40.548928
2340.000000	40.791376
2339.000000	40.707522
2338.000000	41.098980
2337.000000	40.754649
2336.000000	41.073746
2335.000000	41.042720
2334.000000	41.235976
2333.000000	41.081579
2332.000000	41.158495
2331.000000	41.108203
2330.000000	41.288561
2329.000000	41.315333
2328.000000	41.198400
2327.000000	40.985826
2326.000000	41.045014
2325.000000	41.058927
2324.000000	40.962986
2323.000000	40.990653
2322.000000	40.746511
2321.000000	40.790969
2320.000000	40.889605
2319.000000	40.907125
2318.000000	40.714597
2317.000000	40.832995
2316.000000	40.766764
2315.000000	40.486101
2314.000000	40.523479
2313.000000	40.442470
2312.000000	40.363104
2311.000000	40.589178
2310.000000	40.304756
2309.000000	40.445314
2308.000000	40.349162
2307.000000	40.285378
2306.000000	40.211694
2305.000000	40.137399
2304.000000	40.159770
2303.000000	40.135066
2302.000000	40.007396
2301.000000	39.904733
2300.000000	39.739845
2299.000000	39.793370
2298.000000	39.772733
2297.000000	39.459410
2296.000000	39.475254
2295.000000	39.437252
2294.000000	39.342030
2293.000000	39.179652
2292.000000	39.016807
2291.000000	39.090882
2290.000000	39.007604
2289.000000	39.024714
2288.000000	39.214175
2287.000000	39.153316
2286.000000	39.057928
2285.000000	39.126612
2284.000000	38.958666
2283.000000	38.918546
2282.000000	38.878979
2281.000000	38.945773
2280.000000	39.073707
2279.000000	38.964192
2278.000000	38.993142
2277.000000	39.003691
2276.000000	38.763941
2275.000000	38.932532
2274.000000	39.208801
2273.000000	39.303591
2272.000000	39.262267
2271.000000	39.209853
2270.000000	39.353387
2269.000000	39.348481
2268.000000	39.338120
2267.000000	39.472403
2266.000000	39.649972
2265.000000	39.713346
2264.000000	39.860692
2263.000000	40.032561
2262.000000	40.026782
2261.000000	40.128042
2260.000000	40.349064
2259.000000	40.397675
2258.000000	40.703686
2257.000000	40.846980
2256.000000	40.946589
2255.000000	41.147687
2254.000000	41.274733
2253.000000	41.406492
2252.000000	41.555373
2251.000000	41.780802
2250.000000	41.936099
2249.000000	41.991388
2248.000000	42.158750
2247.000000	42.346511
2246.000000	42.570660
2245.000000	42.810149
2244.000000	42.961843
2243.000000	43.334319
2242.000000	43.385261
2241.000000	43.342246
2240.000000	43.580811
2239.000000	43.724613
2238.000000	43.883658
2237.000000	44.007610
2236.000000	44.079676
2235.000000	44.081559
2234.000000	44.151326
2233.000000	44.264390
2232.000000	44.346951
2231.000000	44.398703
2230.000000	44.523790
2229.000000	44.561734
2228.000000	44.504282
2227.000000	44.530528
2226.000000	44.517692
2225.000000	44.534171
2224.000000	44.540363
2223.000000	44.537536
2222.000000	44.622607
2221.000000	44.688170
2220.000000	44.645738
2219.000000	44.614222
2218.000000	44.482994
2217.000000	44.454019
2216.000000	44.533903
2215.000000	44.470789
2214.000000	44.404430
2213.000000	44.443093
2212.000000	44.346521
2211.000000	44.289581
2210.000000	44.257379
2209.000000	44.160646
2208.000000	44.067539
2207.000000	44.151137
2206.000000	44.167281
2205.000000	44.022233
2204.000000	43.847905
2203.000000	43.855517
2202.000000	43.833075
2201.000000	43.712873
2200.000000	43.682990
2199.000000	43.697144
2198.000000	43.718668
2197.000000	43.635789
2196.000000	43.615671
2195.000000	43.405332
2194.000000	43.395481
2193.000000	43.298626
2192.000000	43.211078
2191.000000	43.239130
2190.000000	43.243038
2189.000000	43.219981
2188.000000	43.016141
2187.000000	42.985335
2186.000000	43.021182
2185.000000	42.896231
2184.000000	42.863755
2183.000000	42.872237
2182.000000	42.841200
2181.000000	42.780245
2180.000000	42.893299
2179.000000	42.973337
2178.000000	42.727658
2177.000000	42.979888
2176.000000	42.806863
2175.000000	42.881249
2174.000000	42.901991
2173.000000	42.821300
2172.000000	43.029838
2171.000000	43.078548
2170.000000	43.183429
2169.000000	43.237313
2168.000000	43.323712
2167.000000	43.338820
2166.000000	43.316087
2165.000000	43.470694
2164.000000	43.461042
2163.000000	43.727600
2162.000000	43.805217
2161.000000	43.926653
2160.000000	44.058392
2159.000000	44.192625
2158.000000	44.148219
2157.000000	44.348911
2156.000000	44.474829
2155.000000	44.619634
2154.000000	44.789589
2153.000000	44.908649
2152.000000	45.053218
2151.000000	45.274129
2150.000000	45.309362
2149.000000	45.494332
2148.000000	45.491149
2147.000000	45.706231
2146.000000	45.993844
2145.000000	45.941892
2144.000000	46.130907
2143.000000	46.192408
2142.000000	46.355314
2141.000000	46.422831
2140.000000	46.647742
2139.000000	46.702853
2138.000000	47.014764
2137.000000	47.013524
2136.000000	46.971087
2135.000000	46.990672
2134.000000	47.263859
2133.000000	47.164927
2132.000000	47.324514
2131.000000	47.418368
2130.000000	47.663566
2129.000000	47.628337
2128.000000	47.584060
2127.000000	47.749047
2126.000000	47.782145
2125.000000	47.683705
2124.000000	47.932968
2123.000000	47.876491
2122.000000	47.979586
2121.000000	48.025954
2120.000000	47.946543
2119.000000	48.017420
2118.000000	48.146458
2117.000000	47.872416
2116.000000	48.132975
2115.000000	48.358326
2114.000000	48.232181
2113.000000	48.143596
2112.000000	48.274567
2111.000000	48.202349
2110.000000	48.100906
2109.000000	48.248370
2108.000000	48.140527
2107.000000	48.333729
2106.000000	48.260686
2105.000000	48.303846
2104.000000	48.271812
2103.000000	48.386953
2102.000000	48.369548
2101.000000	48.315742
2100.000000	48.352520
2099.000000	48.351702
2098.000000	48.337846
2097.000000	48.410515
2096.000000	48.405429
2095.000000	48.320286
2094.000000	48.314543
2093.000000	48.429853
2092.000000	48.441222
2091.000000	48.354332
2090.000000	48.411437
2089.000000	48.368454
2088.000000	48.325027
2087.000000	48.251199
2086.000000	48.328332
2085.000000	48.366569
2084.000000	48.279445
2083.000000	48.164295
2082.000000	48.096440
2081.000000	48.072423
2080.000000	48.026928
2079.000000	47.988598
2078.000000	47.871807
2077.000000	47.921762
2076.000000	47.796412
2075.000000	47.665817
2074.000000	47.577373
2073.000000	47.505991
2072.000000	47.465051
2071.000000	47.395005
2070.000000	47.304133
2069.000000	47.167952
2068.000000	46.993822
2067.000000	46.906301
2066.000000	46.754334
2065.000000	46.708020
2064.000000	46.601104
2063.000000	46.433202
2062.000000	46.335309
2061.000000	46.192006
2060.000000	46.055831
2059.000000	45.915093
2058.000000	45.752680
2057.000000	45.691620
2056.000000	45.549604
2055.000000	45.372203
2054.000000	45.226078
2053.000000	45.084612
2052.000000	45.054679
2051.000000	44.911975
2050.000000	44.798145
2049.000000	44.749594
2048.000000	44.651148
2047.000000	44.637555
2046.000000	44.549831
2045.000000	44.415798
2044.000000	44.390866
2043.000000	44.423191
2042.000000	44.407403
2041.000000	44.435904
2040.000000	44.455027
2039.000000	44.438501
2038.000000	44.496131
2037.000000	44.546265
2036.000000	44.563362
2035.000000	44.679611
2034.000000	44.735311
2033.000000	44.780968
2032.000000	44.893861
2031.000000	44.968973
2030.000000	45.056924
2029.000000	45.193480
2028.000000	45.291934
2027.000000	45.375702
2026.000000	45.504726
2025.000000	45.572609
2024.000000	45.596058
2023.000000	45.669284
2022.000000	45.754617
2021.000000	45.789020
2020.000000	45.832932
2019.000000	45.888306
2018.000000	45.885695
2017.000000	45.907321
2016.000000	45.944567
2015.000000	45.940559
2014.000000	45.903904
2013.000000	45.914385
2012.000000	45.884104
2011.000000	45.843153
2010.000000	45.778858
2009.000000	45.712756
2008.000000	45.673022
2007.000000	45.620391
2006.000000	45.574767
2005.000000	45.525046
2004.000000	45.444232
2003.000000	45.390611
2002.000000	45.298060
2001.000000	45.184528
2000.000000	45.136317
1999.000000	45.061827
1998.000000	44.966708
1997.000000	44.899853
1996.000000	44.849522
1995.000000	44.765348
1994.000000	44.620239
1993.000000	44.536380
1992.000000	44.440892
1991.000000	44.342609
1990.000000	44.299866
1989.000000	44.206866
1988.000000	44.092944
1987.000000	44.016176
1986.000000	43.877409
1985.000000	43.796209
1984.000000	43.744110
1983.000000	43.636565
1982.000000	43.552305
1981.000000	43.473673
1980.000000	43.384441
1979.000000	43.271406
1978.000000	43.160161
1977.000000	43.057970
1976.000000	42.971869
1975.000000	42.881112
1974.000000	42.809882
1973.000000	42.709007
1972.000000	42.606290
1971.000000	42.492747
1970.000000	42.400531
1969.000000	42.330381
1968.000000	42.247951
1967.000000	42.220089
1966.000000	42.141610
1965.000000	42.035934
1964.000000	41.928740
1963.000000	41.858330
1962.000000	41.719893
1961.000000	41.636808
1960.000000	41.604480
1959.000000	41.523343
1958.000000	41.446680
1957.000000	41.352952
1956.000000	41.285615
1955.000000	41.235859
1954.000000	41.181655
1953.000000	41.084666
1952.000000	41.081152
1951.000000	41.055232
1950.000000	40.967002
1949.000000	40.912782
1948.000000	40.906235
1947.000000	40.885175
1946.000000	40.828080
1945.000000	40.891118
1944.000000	40.855392
1943.000000	40.902453
1942.000000	40.881480
1941.000000	40.843489
1940.000000	40.900884
1939.000000	40.993924
1938.000000	41.102574
1937.000000	41.157246
1936.000000	41.197827
1935.000000	41.250519
1934.000000	41.343360
1933.000000	41.502672
1932.000000	41.618767
1931.000000	41.681630
1930.000000	41.868299
1929.000000	41.981303
1928.000000	42.269342
1927.000000	42.359599
1926.000000	42.616689
1925.000000	42.819131
1924.000000	42.932121
1923.000000	43.175092
1922.000000	43.472306
1921.000000	43.680857
1920.000000	43.917215
1919.000000	44.142005
1918.000000	44.492080
1917.000000	44.761838
1916.000000	45.023009
1915.000000	45.353808
1914.000000	45.644591
1913.000000	46.054213
1912.000000	46.331488
1911.000000	46.674415
1910.000000	47.015632
1909.000000	47.349854
1908.000000	47.646262
1907.000000	48.105510
1906.000000	48.506843
1905.000000	48.885455
1904.000000	49.289887
1903.000000	49.621473
1902.000000	50.030420
1901.000000	50.435454
1900.000000	50.835932
1899.000000	51.286854
1898.000000	51.733636
1897.000000	52.116576
1896.000000	52.489133
1895.000000	52.941755
1894.000000	53.293141
1893.000000	53.646470
1892.000000	54.175821
1891.000000	54.541165
1890.000000	54.907039
1889.000000	55.246246
1888.000000	55.604034
1887.000000	55.955795
1886.000000	56.247782
1885.000000	56.538456
1884.000000	56.890037
1883.000000	57.191432
1882.000000	57.478570
1881.000000	57.717507
1880.000000	58.010494
1879.000000	58.199255
1878.000000	58.446977
1877.000000	58.718479
1876.000000	58.913627
1875.000000	59.118519
1874.000000	59.269137
1873.000000	59.456266
1872.000000	59.590629
1871.000000	59.775485
1870.000000	59.948173
1869.000000	60.047262
1868.000000	60.163375
1867.000000	60.309719
1866.000000	60.416213
1865.000000	60.510691
1864.000000	60.534578
1863.000000	60.619299
1862.000000	60.673257
1861.000000	60.725975
1860.000000	60.808653
1859.000000	60.808626
1858.000000	60.854562
1857.000000	60.898283
1856.000000	60.945582
1855.000000	60.980615
1854.000000	60.986928
1853.000000	61.011442
1852.000000	61.038100
1851.000000	61.016669
1850.000000	61.035665
1849.000000	61.029593
1848.000000	61.084558
1847.000000	61.128594
1846.000000	61.097575
1845.000000	61.088347
1844.000000	61.055799
1843.000000	61.038945
1842.000000	61.056021
1841.000000	61.052777
1840.000000	61.054147
1839.000000	61.021004
1838.000000	61.010544
1837.000000	60.994183
1836.000000	60.972513
1835.000000	60.936889
1834.000000	60.900041
1833.000000	60.889101
1832.000000	60.884212
1831.000000	60.842651
1830.000000	60.822173
1829.000000	60.788785
1828.000000	60.756101
1827.000000	60.712337
1826.000000	60.684588
1825.000000	60.710529
1824.000000	60.698442
1823.000000	60.667998
1822.000000	60.640522
1821.000000	60.644926
1820.000000	60.616137
1819.000000	60.580626
1818.000000	60.577475
1817.000000	60.542096
1816.000000	60.512506
1815.000000	60.507738
1814.000000	60.478922
1813.000000	60.450910
1812.000000	60.433674
1811.000000	60.405450
1810.000000	60.393820
1809.000000	60.379796
1808.000000	60.355428
1807.000000	60.335146
1806.000000	60.313064
1805.000000	60.292976
1804.000000	60.268281
1803.000000	60.252791
1802.000000	60.239229
1801.000000	60.226463
1800.000000	60.211706
1799.000000	60.200775
1798.000000	60.164864
1797.000000	60.140950
1796.000000	60.140446
1795.000000	60.110146
1794.000000	60.098470
1793.000000	60.111130
1792.000000	60.095283
1791.000000	60.067250
1790.000000	60.052985
1789.000000	60.029112
1788.000000	60.013640
1787.000000	60.013457
1786.000000	59.993800
1785.000000	59.981399
1784.000000	59.945361
1783.000000	59.919308
1782.000000	59.909010
1781.000000	59.901020
1780.000000	59.878836
1779.000000	59.869753
1778.000000	59.815539
1777.000000	59.777349
1776.000000	59.759567
1775.000000	59.719497
1774.000000	59.674453
1773.000000	59.650993
1772.000000	59.616397
1771.000000	59.588798
1770.000000	59.535634
1769.000000	59.500236
1768.000000	59.471502
1767.000000	59.455155
1766.000000	59.375324
1765.000000	59.367724
1764.000000	59.351077
1763.000000	59.300232
1762.000000	59.269739
1761.000000	59.238605
1760.000000	59.199850
1759.000000	59.182020
1758.000000	59.180916
1757.000000	59.132653
1756.000000	59.102518
1755.000000	59.039263
1754.000000	59.013105
1753.000000	58.987333
1752.000000	58.931959
1751.000000	58.919837
1750.000000	58.916595
1749.000000	58.855409
1748.000000	58.820714
1747.000000	58.780278
1746.000000	58.767197
1745.000000	58.702814
1744.000000	58.676147
1743.000000	58.662392
1742.000000	58.628315
1741.000000	58.569485
1740.000000	58.556714
1739.000000	58.537230
1738.000000	58.506285
1737.000000	58.481999
1736.000000	58.475996
1735.000000	58.461785
1734.000000	58.482543
1733.000000	58.499741
1732.000000	58.480032
1731.000000	58.492441
1730.000000	58.505845
1729.000000	58.522494
1728.000000	58.566037
1727.000000	58.611247
1726.000000	58.669150
1725.000000	58.702587
1724.000000	58.756329
1723.000000	58.853512
1722.000000	58.920181
1721.000000	58.998891
1720.000000	59.056135
1719.000000	59.170323
1718.000000	59.209812
1717.000000	59.250817
1716.000000	59.368513
1715.000000	59.433768
1714.000000	59.511129
1713.000000	59.573551
1712.000000	59.643922
1711.000000	59.692436
1710.000000	59.738011
1709.000000	59.773191
1708.000000	59.789164
1707.000000	59.868978
1706.000000	59.904290
1705.000000	59.899854
1704.000000	59.954494
1703.000000	59.968935
1702.000000	59.985123
1701.000000	59.995976
1700.000000	60.019996
1699.000000	59.998456
1698.000000	60.044020
1697.000000	60.084496
1696.000000	60.113445
1695.000000	60.085166
1694.000000	60.153360
1693.000000	60.194147
1692.000000	60.200353
1691.000000	60.278662
1690.000000	60.335921
1689.000000	60.384990
1688.000000	60.466158
1687.000000	60.552966
1686.000000	60.620056
1685.000000	60.707178
1684.000000	60.821296
1683.000000	60.917950
1682.000000	61.049220
1681.000000	61.190670
1680.000000	61.274362
1679.000000	61.413227
1678.000000	61.528991
1677.000000	61.646241
1676.000000	61.769348
1675.000000	61.891020
1674.000000	62.006283
1673.000000	62.138976
1672.000000	62.256040
1671.000000	62.361877
1670.000000	62.478862
1669.000000	62.611645
1668.000000	62.707684
1667.000000	62.816085
1666.000000	62.892411
1665.000000	62.949092
1664.000000	63.026294
1663.000000	63.107217
1662.000000	63.160502
1661.000000	63.214883
1660.000000	63.252703
1659.000000	63.298275
1658.000000	63.356038
1657.000000	63.389197
1656.000000	63.412329
1655.000000	63.437369
1654.000000	63.463274
1653.000000	63.476495
1652.000000	63.498228
1651.000000	63.505401
1650.000000	63.509056
1649.000000	63.511517
1648.000000	63.511371
1647.000000	63.525652
1646.000000	63.521356
1645.000000	63.506205
1644.000000	63.502414
1643.000000	63.500355
1642.000000	63.469717
1641.000000	63.455856
1640.000000	63.456126
1639.000000	63.448385
1638.000000	63.430749
1637.000000	63.419255
1636.000000	63.395285
1635.000000	63.389201
1634.000000	63.365321
1633.000000	63.327442
1632.000000	63.295538
1631.000000	63.275875
1630.000000	63.250825
1629.000000	63.234470
1628.000000	63.213688
1627.000000	63.177717
1626.000000	63.154465
1625.000000	63.120391
1624.000000	63.101247
1623.000000	63.090861
1622.000000	63.080762
1621.000000	63.042618
1620.000000	63.003527
1619.000000	62.968562
1618.000000	62.945630
1617.000000	62.918950
1616.000000	62.886781
1615.000000	62.850581
1614.000000	62.805039
1613.000000	62.756877
1612.000000	62.710297
1611.000000	62.674915
1610.000000	62.648971
1609.000000	62.614004
1608.000000	62.575134
1607.000000	62.540770
1606.000000	62.497805
1605.000000	62.458012
1604.000000	62.423533
1603.000000	62.388806
1602.000000	62.349142
1601.000000	62.316148
1600.000000	62.277340
1599.000000	62.229183
1598.000000	62.191168
1597.000000	62.149950
1596.000000	62.109443
1595.000000	62.089219
1594.000000	62.065042
1593.000000	62.015294
1592.000000	61.980820
1591.000000	61.950546
1590.000000	61.926747
1589.000000	61.889163
1588.000000	61.851771
1587.000000	61.843026
1586.000000	61.818651
1585.000000	61.781703
1584.000000	61.743122
1583.000000	61.709033
1582.000000	61.700268
1581.000000	61.681000
1580.000000	61.658718
1579.000000	61.632881
1578.000000	61.590346
1577.000000	61.556869
1576.000000	61.535034
1575.000000	61.507786
1574.000000	61.468569
1573.000000	61.445923
1572.000000	61.416009
1571.000000	61.393546
1570.000000	61.377369
1569.000000	61.345386
1568.000000	61.335544
1567.000000	61.299405
1566.000000	61.282636
1565.000000	61.264294
1564.000000	61.249945
1563.000000	61.243207
1562.000000	61.217761
1561.000000	61.204978
1560.000000	61.191429
1559.000000	61.176881
1558.000000	61.184620
1557.000000	61.168951
1556.000000	61.158388
1555.000000	61.144244
1554.000000	61.130098
1553.000000	61.126112
1552.000000	61.110209
1551.000000	61.094198
1550.000000	61.083824
1549.000000	61.048230
1548.000000	61.029375
1547.000000	60.983535
1546.000000	60.948400
1545.000000	60.925226
1544.000000	60.878583
1543.000000	60.831159
1542.000000	60.775331
1541.000000	60.735501
1540.000000	60.683729
1539.000000	60.614593
1538.000000	60.553888
1537.000000	60.507815
1536.000000	60.466397
1535.000000	60.402757
1534.000000	60.347737
1533.000000	60.298939
1532.000000	60.214363
1531.000000	60.165850
1530.000000	60.133325
1529.000000	60.052664
1528.000000	60.012095
1527.000000	59.974122
1526.000000	59.930908
1525.000000	59.877719
1524.000000	59.847967
1523.000000	59.806817
1522.000000	59.760902
1521.000000	59.733985
1520.000000	59.681185
1519.000000	59.661471
1518.000000	59.631722
1517.000000	59.612635
1516.000000	59.630709
1515.000000	59.669435
1514.000000	59.667272
1513.000000	59.660367
1512.000000	59.636292
1511.000000	59.628342
1510.000000	59.588753
1509.000000	59.586165
1508.000000	59.563834
1507.000000	59.533115
1506.000000	59.532382
1505.000000	59.523230
1504.000000	59.511867
1503.000000	59.483970
1502.000000	59.516468
1501.000000	59.524264
1500.000000	59.533241
1499.000000	59.520279
1498.000000	59.516056
1497.000000	59.540051
1496.000000	59.546232
1495.000000	59.543898
1494.000000	59.558382
1493.000000	59.569880
1492.000000	59.586212
1491.000000	59.631658
1490.000000	59.640482
1489.000000	59.652813
1488.000000	59.700625
1487.000000	59.739594
1486.000000	59.778033
1485.000000	59.801108
1484.000000	59.854281
1483.000000	59.892793
1482.000000	59.926239
1481.000000	59.992066
1480.000000	60.018646
1479.000000	60.063228
1478.000000	60.112212
1477.000000	60.133014
1476.000000	60.188757
1475.000000	60.249876
1474.000000	60.290371
1473.000000	60.327179
1472.000000	60.381181
1471.000000	60.410986
1470.000000	60.459996
