PE UV       SUBTECH     SPECTRUM    ASCII       PEDS        4.00        
   -1
RTms159332.Sample.asc
18/03/19
17:18:53.00
18/03/19
17:18:53.00
Administrator

200.000000
1
Lambda 750
750N8071901
PerkinElmer UV WinLab 6.0.4.0738 / 1.61.00 Lambda 900

0
0
3350/servo 860.8/2
0
0
UV/VIS
1
1
1
CommonBeamDepol,150mm sphere / downward view
0
0
0
0
Program
Program
3350/servo 860.8/2
3350/0.2 860.8/0.2
3350/0.2 860.8/0.2
0
1
 
 
 
0
 
860.8
319.2
860.8
Front
100
on
 
 
0
0
0
 
0
 
 
 
0
 
 
0
0
0
0
0
 
 
 
 
0
0


0
0
#HDR
-1
-1
#GR
nm
%R
1.0
0.0
2350.000000
-1.000000
2151
8
54.400420
6.854710
#DATA
2350.000000	36.576096
2349.000000	37.143021
2348.000000	37.101890
2347.000000	37.624110
2346.000000	37.502664
2345.000000	37.147313
2344.000000	37.123861
2343.000000	37.097487
2342.000000	37.202397
2341.000000	37.413774
2340.000000	37.322896
2339.000000	37.441129
2338.000000	37.494539
2337.000000	37.564949
2336.000000	37.470740
2335.000000	37.586016
2334.000000	37.678757
2333.000000	37.579821
2332.000000	37.849029
2331.000000	37.771231
2330.000000	37.559637
2329.000000	37.627212
2328.000000	37.711963
2327.000000	37.497397
2326.000000	37.748809
2325.000000	37.472220
2324.000000	37.457121
2323.000000	37.544429
2322.000000	37.483130
2321.000000	37.293705
2320.000000	37.324715
2319.000000	37.331416
2318.000000	37.457611
2317.000000	37.585872
2316.000000	37.490483
2315.000000	37.251067
2314.000000	37.037363
2313.000000	36.960991
2312.000000	37.052199
2311.000000	36.920266
2310.000000	36.593316
2309.000000	36.962007
2308.000000	36.864230
2307.000000	36.848981
2306.000000	36.732132
2305.000000	36.563423
2304.000000	36.359817
2303.000000	36.390457
2302.000000	36.416554
2301.000000	36.330251
2300.000000	36.254966
2299.000000	36.236351
2298.000000	36.039785
2297.000000	36.007118
2296.000000	36.125992
2295.000000	35.971943
2294.000000	35.821029
2293.000000	35.713657
2292.000000	35.571559
2291.000000	35.318487
2290.000000	35.231262
2289.000000	35.299873
2288.000000	35.273712
2287.000000	35.333750
2286.000000	35.301612
2285.000000	35.273250
2284.000000	35.184722
2283.000000	35.239651
2282.000000	35.221229
2281.000000	35.288934
2280.000000	35.226181
2279.000000	35.078925
2278.000000	35.091873
2277.000000	35.233611
2276.000000	35.104932
2275.000000	35.178291
2274.000000	35.275486
2273.000000	35.455228
2272.000000	35.405592
2271.000000	35.274913
2270.000000	35.356121
2269.000000	35.432687
2268.000000	35.447701
2267.000000	35.560107
2266.000000	35.761102
2265.000000	35.717754
2264.000000	35.734402
2263.000000	35.929403
2262.000000	36.050228
2261.000000	36.061215
2260.000000	36.315433
2259.000000	36.497863
2258.000000	36.728017
2257.000000	36.859881
2256.000000	36.863961
2255.000000	36.888788
2254.000000	36.974263
2253.000000	37.249939
2252.000000	37.420000
2251.000000	37.600078
2250.000000	37.815414
2249.000000	38.023812
2248.000000	38.144200
2247.000000	38.308624
2246.000000	38.576218
2245.000000	38.689137
2244.000000	38.810833
2243.000000	39.072938
2242.000000	39.121240
2241.000000	39.078490
2240.000000	39.214490
2239.000000	39.395121
2238.000000	39.499073
2237.000000	39.630213
2236.000000	39.816366
2235.000000	39.811088
2234.000000	39.804160
2233.000000	39.936802
2232.000000	40.052369
2231.000000	40.038999
2230.000000	40.136680
2229.000000	40.100921
2228.000000	40.017772
2227.000000	40.022356
2226.000000	40.030658
2225.000000	40.078727
2224.000000	40.044126
2223.000000	40.049731
2222.000000	40.086282
2221.000000	40.127854
2220.000000	40.182493
2219.000000	40.107223
2218.000000	40.072391
2217.000000	39.970093
2216.000000	39.896595
2215.000000	39.837491
2214.000000	39.845076
2213.000000	39.917807
2212.000000	39.962162
2211.000000	39.724548
2210.000000	39.670270
2209.000000	39.656519
2208.000000	39.586836
2207.000000	39.635236
2206.000000	39.501490
2205.000000	39.385340
2204.000000	39.295949
2203.000000	39.338528
2202.000000	39.308401
2201.000000	39.310922
2200.000000	39.251332
2199.000000	39.164525
2198.000000	39.162422
2197.000000	39.055194
2196.000000	38.895725
2195.000000	38.877646
2194.000000	38.852633
2193.000000	38.667510
2192.000000	38.753602
2191.000000	38.754094
2190.000000	38.773893
2189.000000	38.561226
2188.000000	38.492819
2187.000000	38.487814
2186.000000	38.461352
2185.000000	38.506706
2184.000000	38.405313
2183.000000	38.517026
2182.000000	38.462465
2181.000000	38.347657
2180.000000	38.230352
2179.000000	38.167304
2178.000000	38.261013
2177.000000	38.245298
2176.000000	38.193617
2175.000000	38.384653
2174.000000	38.345565
2173.000000	38.203607
2172.000000	38.321184
2171.000000	38.486493
2170.000000	38.458867
2169.000000	38.531539
2168.000000	38.576172
2167.000000	38.630838
2166.000000	38.657132
2165.000000	38.953727
2164.000000	38.960917
2163.000000	39.030074
2162.000000	39.126834
2161.000000	39.098783
2160.000000	39.237689
2159.000000	39.554100
2158.000000	39.362990
2157.000000	39.580637
2156.000000	39.859105
2155.000000	39.813087
2154.000000	40.044161
2153.000000	40.187553
2152.000000	40.296539
2151.000000	40.235630
2150.000000	40.417203
2149.000000	40.705487
2148.000000	40.590229
2147.000000	40.863624
2146.000000	40.999226
2145.000000	41.101030
2144.000000	41.236594
2143.000000	41.211118
2142.000000	41.365486
2141.000000	41.403651
2140.000000	41.669322
2139.000000	41.760159
2138.000000	41.728025
2137.000000	41.909293
2136.000000	42.043647
2135.000000	42.019853
2134.000000	42.273404
2133.000000	42.101374
2132.000000	42.383403
2131.000000	42.371825
2130.000000	42.569769
2129.000000	42.485167
2128.000000	42.584287
2127.000000	42.638482
2126.000000	42.495670
2125.000000	42.565892
2124.000000	42.851534
2123.000000	42.905574
2122.000000	42.892225
2121.000000	42.964505
2120.000000	42.841787
2119.000000	42.874968
2118.000000	43.095410
2117.000000	42.888572
2116.000000	43.022925
2115.000000	43.096722
2114.000000	42.950161
2113.000000	42.909736
2112.000000	43.031549
2111.000000	43.063679
2110.000000	43.140352
2109.000000	43.099271
2108.000000	43.018814
2107.000000	43.179945
2106.000000	43.161077
2105.000000	43.170787
2104.000000	43.141786
2103.000000	43.156933
2102.000000	43.238962
2101.000000	43.242122
2100.000000	43.339343
2099.000000	43.225379
2098.000000	43.166096
2097.000000	43.187808
2096.000000	43.214013
2095.000000	43.145183
2094.000000	43.186807
2093.000000	43.169969
2092.000000	43.133005
2091.000000	43.146538
2090.000000	43.099882
2089.000000	43.058137
2088.000000	43.096598
2087.000000	43.138214
2086.000000	43.080840
2085.000000	43.097362
2084.000000	43.074680
2083.000000	42.994022
2082.000000	42.941060
2081.000000	42.829868
2080.000000	42.746533
2079.000000	42.760350
2078.000000	42.671579
2077.000000	42.579398
2076.000000	42.572267
2075.000000	42.422820
2074.000000	42.357563
2073.000000	42.333856
2072.000000	42.209018
2071.000000	42.194624
2070.000000	42.119891
2069.000000	41.927057
2068.000000	41.768656
2067.000000	41.669036
2066.000000	41.530341
2065.000000	41.443829
2064.000000	41.313652
2063.000000	41.175036
2062.000000	41.106358
2061.000000	40.983965
2060.000000	40.853712
2059.000000	40.733710
2058.000000	40.615903
2057.000000	40.514422
2056.000000	40.396412
2055.000000	40.257318
2054.000000	40.092826
2053.000000	40.056884
2052.000000	39.955629
2051.000000	39.691189
2050.000000	39.609648
2049.000000	39.585045
2048.000000	39.516510
2047.000000	39.484469
2046.000000	39.392745
2045.000000	39.328153
2044.000000	39.272186
2043.000000	39.247778
2042.000000	39.250054
2041.000000	39.265412
2040.000000	39.311002
2039.000000	39.264586
2038.000000	39.298615
2037.000000	39.325856
2036.000000	39.265546
2035.000000	39.347213
2034.000000	39.455016
2033.000000	39.508941
2032.000000	39.587865
2031.000000	39.653310
2030.000000	39.761803
2029.000000	39.851787
2028.000000	39.889187
2027.000000	39.983305
2026.000000	40.108997
2025.000000	40.160751
2024.000000	40.218621
2023.000000	40.264723
2022.000000	40.266180
2021.000000	40.317933
2020.000000	40.384504
2019.000000	40.393712
2018.000000	40.396103
2017.000000	40.400575
2016.000000	40.389536
2015.000000	40.340656
2014.000000	40.303185
2013.000000	40.289757
2012.000000	40.249680
2011.000000	40.246403
2010.000000	40.202089
2009.000000	40.096932
2008.000000	40.016758
2007.000000	39.963638
2006.000000	39.892379
2005.000000	39.805206
2004.000000	39.735240
2003.000000	39.689220
2002.000000	39.614224
2001.000000	39.495269
2000.000000	39.394564
1999.000000	39.334270
1998.000000	39.278846
1997.000000	39.198518
1996.000000	39.108281
1995.000000	38.968277
1994.000000	38.827306
1993.000000	38.748188
1992.000000	38.652670
1991.000000	38.551395
1990.000000	38.442478
1989.000000	38.321365
1988.000000	38.219192
1987.000000	38.145416
1986.000000	38.025341
1985.000000	37.929595
1984.000000	37.835307
1983.000000	37.723417
1982.000000	37.674224
1981.000000	37.564828
1980.000000	37.440253
1979.000000	37.382514
1978.000000	37.291926
1977.000000	37.194312
1976.000000	37.112443
1975.000000	37.038053
1974.000000	36.898538
1973.000000	36.792506
1972.000000	36.719498
1971.000000	36.653631
1970.000000	36.553474
1969.000000	36.433049
1968.000000	36.362390
1967.000000	36.296432
1966.000000	36.205627
1965.000000	36.126102
1964.000000	35.988555
1963.000000	35.925529
1962.000000	35.811855
1961.000000	35.731263
1960.000000	35.691585
1959.000000	35.566295
1958.000000	35.483308
1957.000000	35.442544
1956.000000	35.308760
1955.000000	35.268556
1954.000000	35.235203
1953.000000	35.118782
1952.000000	35.039630
1951.000000	35.028701
1950.000000	34.906261
1949.000000	34.878693
1948.000000	34.799160
1947.000000	34.802298
1946.000000	34.777796
1945.000000	34.791846
1944.000000	34.734157
1943.000000	34.752852
1942.000000	34.735074
1941.000000	34.737254
1940.000000	34.762117
1939.000000	34.858236
1938.000000	34.927740
1937.000000	34.956883
1936.000000	35.041005
1935.000000	35.029165
1934.000000	35.129500
1933.000000	35.217200
1932.000000	35.306984
1931.000000	35.488970
1930.000000	35.642123
1929.000000	35.722774
1928.000000	35.838698
1927.000000	36.079379
1926.000000	36.232815
1925.000000	36.393641
1924.000000	36.581844
1923.000000	36.795526
1922.000000	37.027793
1921.000000	37.272513
1920.000000	37.511301
1919.000000	37.692829
1918.000000	37.943695
1917.000000	38.195541
1916.000000	38.404865
1915.000000	38.732022
1914.000000	39.062004
1913.000000	39.330600
1912.000000	39.687035
1911.000000	39.947692
1910.000000	40.205728
1909.000000	40.526875
1908.000000	40.825063
1907.000000	41.242829
1906.000000	41.495125
1905.000000	41.966933
1904.000000	42.289026
1903.000000	42.582869
1902.000000	43.011533
1901.000000	43.353342
1900.000000	43.715330
1899.000000	44.152028
1898.000000	44.453895
1897.000000	44.882454
1896.000000	45.260678
1895.000000	45.589548
1894.000000	45.951503
1893.000000	46.337407
1892.000000	46.633254
1891.000000	46.971102
1890.000000	47.320370
1889.000000	47.644163
1888.000000	47.933173
1887.000000	48.223927
1886.000000	48.480848
1885.000000	48.821493
1884.000000	49.062836
1883.000000	49.389629
1882.000000	49.609602
1881.000000	49.835366
1880.000000	50.064855
1879.000000	50.228258
1878.000000	50.393525
1877.000000	50.668088
1876.000000	50.814881
1875.000000	50.938354
1874.000000	51.064420
1873.000000	51.178066
1872.000000	51.342594
1871.000000	51.484063
1870.000000	51.583417
1869.000000	51.688636
1868.000000	51.773271
1867.000000	51.837716
1866.000000	51.945376
1865.000000	52.001159
1864.000000	52.032113
1863.000000	52.069547
1862.000000	52.151410
1861.000000	52.174926
1860.000000	52.218349
1859.000000	52.238587
1858.000000	52.285942
1857.000000	52.314394
1856.000000	52.361271
1855.000000	52.384403
1854.000000	52.392984
1853.000000	52.376992
1852.000000	52.385372
1851.000000	52.413506
1850.000000	52.448601
1849.000000	52.417075
1848.000000	52.431595
1847.000000	52.438955
1846.000000	52.395879
1845.000000	52.411351
1844.000000	52.383224
1843.000000	52.344847
1842.000000	52.343832
1841.000000	52.312792
1840.000000	52.312818
1839.000000	52.281043
1838.000000	52.232037
1837.000000	52.176649
1836.000000	52.157132
1835.000000	52.132361
1834.000000	52.086724
1833.000000	52.082037
1832.000000	52.076467
1831.000000	52.035903
1830.000000	51.995709
1829.000000	51.971558
1828.000000	51.948920
1827.000000	51.891528
1826.000000	51.859675
1825.000000	51.870157
1824.000000	51.850262
1823.000000	51.841987
1822.000000	51.802921
1821.000000	51.780769
1820.000000	51.745064
1819.000000	51.680986
1818.000000	51.699544
1817.000000	51.670153
1816.000000	51.628135
1815.000000	51.638110
1814.000000	51.589586
1813.000000	51.539717
1812.000000	51.545160
1811.000000	51.541682
1810.000000	51.517749
1809.000000	51.489255
1808.000000	51.461705
1807.000000	51.434077
1806.000000	51.427503
1805.000000	51.423529
1804.000000	51.390777
1803.000000	51.364380
1802.000000	51.365339
1801.000000	51.349135
1800.000000	51.318208
1799.000000	51.294882
1798.000000	51.283831
1797.000000	51.267860
1796.000000	51.257376
1795.000000	51.221442
1794.000000	51.234737
1793.000000	51.234683
1792.000000	51.197232
1791.000000	51.171790
1790.000000	51.172900
1789.000000	51.179594
1788.000000	51.156907
1787.000000	51.146148
1786.000000	51.137142
1785.000000	51.111585
1784.000000	51.076932
1783.000000	51.061957
1782.000000	51.043677
1781.000000	51.026844
1780.000000	51.013445
1779.000000	50.992301
1778.000000	50.962752
1777.000000	50.917956
1776.000000	50.891077
1775.000000	50.846440
1774.000000	50.834143
1773.000000	50.814532
1772.000000	50.768852
1771.000000	50.726819
1770.000000	50.667394
1769.000000	50.608525
1768.000000	50.581874
1767.000000	50.563486
1766.000000	50.515856
1765.000000	50.526270
1764.000000	50.502706
1763.000000	50.420715
1762.000000	50.408671
1761.000000	50.392326
1760.000000	50.319735
1759.000000	50.282647
1758.000000	50.281435
1757.000000	50.208147
1756.000000	50.180547
1755.000000	50.136120
1754.000000	50.110577
1753.000000	50.069967
1752.000000	50.023826
1751.000000	49.974396
1750.000000	49.969921
1749.000000	49.943610
1748.000000	49.901191
1747.000000	49.841460
1746.000000	49.798543
1745.000000	49.751670
1744.000000	49.703475
1743.000000	49.682211
1742.000000	49.657770
1741.000000	49.621477
1740.000000	49.564043
1739.000000	49.519590
1738.000000	49.502021
1737.000000	49.489222
1736.000000	49.466685
1735.000000	49.439085
1734.000000	49.447620
1733.000000	49.418330
1732.000000	49.398489
1731.000000	49.428756
1730.000000	49.394523
1729.000000	49.411793
1728.000000	49.437804
1727.000000	49.476959
1726.000000	49.494712
1725.000000	49.522742
1724.000000	49.531084
1723.000000	49.610939
1722.000000	49.674157
1721.000000	49.693515
1720.000000	49.774308
1719.000000	49.834495
1718.000000	49.881124
1717.000000	49.930315
1716.000000	50.009398
1715.000000	50.064467
1714.000000	50.105430
1713.000000	50.150634
1712.000000	50.201264
1711.000000	50.228316
1710.000000	50.299137
1709.000000	50.299639
1708.000000	50.330808
1707.000000	50.348172
1706.000000	50.379131
1705.000000	50.392540
1704.000000	50.415602
1703.000000	50.434739
1702.000000	50.483060
1701.000000	50.475655
1700.000000	50.458950
1699.000000	50.433112
1698.000000	50.450461
1697.000000	50.486527
1696.000000	50.519624
1695.000000	50.468330
1694.000000	50.492153
1693.000000	50.526412
1692.000000	50.543089
1691.000000	50.594355
1690.000000	50.634080
1689.000000	50.656515
1688.000000	50.658227
1687.000000	50.718689
1686.000000	50.803840
1685.000000	50.859551
1684.000000	50.936347
1683.000000	51.022145
1682.000000	51.101855
1681.000000	51.183803
1680.000000	51.270776
1679.000000	51.354621
1678.000000	51.465987
1677.000000	51.544716
1676.000000	51.635791
1675.000000	51.754236
1674.000000	51.825265
1673.000000	51.928459
1672.000000	52.025074
1671.000000	52.099104
1670.000000	52.194230
1669.000000	52.307833
1668.000000	52.380711
1667.000000	52.460287
1666.000000	52.521892
1665.000000	52.557586
1664.000000	52.598456
1663.000000	52.639558
1662.000000	52.686479
1661.000000	52.739912
1660.000000	52.770969
1659.000000	52.797839
1658.000000	52.821391
1657.000000	52.855379
1656.000000	52.892356
1655.000000	52.898692
1654.000000	52.911463
1653.000000	52.917555
1652.000000	52.926275
1651.000000	52.909036
1650.000000	52.905990
1649.000000	52.907280
1648.000000	52.905873
1647.000000	52.881729
1646.000000	52.883393
1645.000000	52.880645
1644.000000	52.853930
1643.000000	52.843639
1642.000000	52.823256
1641.000000	52.792968
1640.000000	52.790808
1639.000000	52.764278
1638.000000	52.747285
1637.000000	52.735327
1636.000000	52.704560
1635.000000	52.679607
1634.000000	52.653004
1633.000000	52.620150
1632.000000	52.587557
1631.000000	52.571800
1630.000000	52.544901
1629.000000	52.509189
1628.000000	52.491479
1627.000000	52.459417
1626.000000	52.428733
1625.000000	52.387468
1624.000000	52.350686
1623.000000	52.334108
1622.000000	52.310257
1621.000000	52.265090
1620.000000	52.247102
1619.000000	52.224244
1618.000000	52.192017
1617.000000	52.161839
1616.000000	52.117016
1615.000000	52.082673
1614.000000	52.035218
1613.000000	51.988060
1612.000000	51.959659
1611.000000	51.927120
1610.000000	51.906235
1609.000000	51.862193
1608.000000	51.822247
1607.000000	51.782518
1606.000000	51.724593
1605.000000	51.685644
1604.000000	51.646793
1603.000000	51.613512
1602.000000	51.589172
1601.000000	51.548637
1600.000000	51.498712
1599.000000	51.449600
1598.000000	51.407802
1597.000000	51.381622
1596.000000	51.351211
1595.000000	51.308693
1594.000000	51.272344
1593.000000	51.242037
1592.000000	51.212837
1591.000000	51.183776
1590.000000	51.141329
1589.000000	51.100139
1588.000000	51.065456
1587.000000	51.040287
1586.000000	51.002539
1585.000000	50.964294
1584.000000	50.938695
1583.000000	50.900055
1582.000000	50.871530
1581.000000	50.849758
1580.000000	50.831613
1579.000000	50.797357
1578.000000	50.761113
1577.000000	50.722355
1576.000000	50.684161
1575.000000	50.648611
1574.000000	50.620607
1573.000000	50.593789
1572.000000	50.565949
1571.000000	50.522816
1570.000000	50.489068
1569.000000	50.466372
1568.000000	50.443141
1567.000000	50.407726
1566.000000	50.369515
1565.000000	50.344027
1564.000000	50.320838
1563.000000	50.302784
1562.000000	50.270762
1561.000000	50.254602
1560.000000	50.223059
1559.000000	50.203738
1558.000000	50.183651
1557.000000	50.161272
1556.000000	50.134218
1555.000000	50.109344
1554.000000	50.075903
1553.000000	50.057686
1552.000000	50.040995
1551.000000	50.014207
1550.000000	49.989142
1549.000000	49.956725
1548.000000	49.932470
1547.000000	49.886957
1546.000000	49.842600
1545.000000	49.807046
1544.000000	49.760177
1543.000000	49.701998
1542.000000	49.659315
1541.000000	49.623026
1540.000000	49.551401
1539.000000	49.489209
1538.000000	49.429565
1537.000000	49.378014
1536.000000	49.310640
1535.000000	49.249319
1534.000000	49.200664
1533.000000	49.153622
1532.000000	49.082554
1531.000000	49.038627
1530.000000	48.992250
1529.000000	48.926332
1528.000000	48.860228
1527.000000	48.820580
1526.000000	48.780139
1525.000000	48.747099
1524.000000	48.703004
1523.000000	48.649197
1522.000000	48.612819
1521.000000	48.571797
1520.000000	48.523274
1519.000000	48.512137
1518.000000	48.485467
1517.000000	48.451667
1516.000000	48.404422
1515.000000	48.399967
1514.000000	48.372541
1513.000000	48.353840
1512.000000	48.380049
1511.000000	48.387951
1510.000000	48.368876
1509.000000	48.358109
1508.000000	48.316145
1507.000000	48.280034
1506.000000	48.277290
1505.000000	48.238958
1504.000000	48.222684
1503.000000	48.235365
1502.000000	48.243187
1501.000000	48.231466
1500.000000	48.218191
1499.000000	48.219671
1498.000000	48.199265
1497.000000	48.210311
1496.000000	48.199390
1495.000000	48.184483
1494.000000	48.198962
1493.000000	48.184346
1492.000000	48.200803
1491.000000	48.211312
1490.000000	48.239098
1489.000000	48.240069
1488.000000	48.255792
1487.000000	48.275362
1486.000000	48.292726
1485.000000	48.286993
1484.000000	48.315753
1483.000000	48.351810
1482.000000	48.353219
1481.000000	48.412917
1480.000000	48.409432
1479.000000	48.447156
1478.000000	48.457187
1477.000000	48.467068
1476.000000	48.496521
1475.000000	48.524181
1474.000000	48.552559
1473.000000	48.565689
1472.000000	48.586778
1471.000000	48.594237
1470.000000	48.613416
