PE UV       SUBTECH     SPECTRUM    ASCII       PEDS        4.00        
   -1
TDmshap12.Sample.asc
18/03/19
14:32:12.00
18/03/19
14:32:12.00
Administrator

200.000000
1
Lambda 750
750N8071901
PerkinElmer UV WinLab 6.0.4.0738 / 1.61.00 Lambda 900

0
0
3350/servo 860.8/2
0
0
UV/VIS
1
1
1
CommonBeamDepol,150mm sphere / downward view
0
0
0
0
Program
Program
3350/servo 860.8/2
3350/0.2 860.8/0.2
3350/0.2 860.8/0.2
0
1
 
 
 
0
 
860.8
319.2
860.8
Front
100
on
 
 
0
0
0
 
0
 
 
 
0
 
 
0
0
0
0
0
 
 
 
 
0
0


0
0
#HDR
-1
-1
#GR
nm
%T
1.0
0.0
2350.000000
-1.000000
2151
8
10.234516
-0.024332
#DATA
2350.000000	2.297327
2349.000000	2.250399
2348.000000	2.345865
2347.000000	2.972588
2346.000000	2.212081
2345.000000	2.338842
2344.000000	2.141465
2343.000000	2.025914
2342.000000	2.298821
2341.000000	2.612578
2340.000000	2.579404
2339.000000	2.559436
2338.000000	2.719133
2337.000000	2.649799
2336.000000	2.752487
2335.000000	3.167206
2334.000000	3.514716
2333.000000	3.151632
2332.000000	3.261379
2331.000000	2.976628
2330.000000	2.976871
2329.000000	3.040844
2328.000000	2.900220
2327.000000	2.883521
2326.000000	2.977953
2325.000000	3.288194
2324.000000	3.001880
2323.000000	2.886359
2322.000000	3.010042
2321.000000	2.922205
2320.000000	2.864305
2319.000000	2.880152
2318.000000	2.797772
2317.000000	2.965748
2316.000000	2.898042
2315.000000	2.767110
2314.000000	2.481505
2313.000000	2.650681
2312.000000	2.445535
2311.000000	2.584026
2310.000000	2.342496
2309.000000	2.612734
2308.000000	2.666182
2307.000000	2.674713
2306.000000	2.717149
2305.000000	2.531292
2304.000000	2.657264
2303.000000	2.770199
2302.000000	2.887062
2301.000000	2.344331
2300.000000	2.315044
2299.000000	2.347584
2298.000000	2.191532
2297.000000	2.151201
2296.000000	2.412593
2295.000000	2.467128
2294.000000	2.467639
2293.000000	2.385887
2292.000000	2.282820
2291.000000	2.553394
2290.000000	2.475529
2289.000000	2.172048
2288.000000	2.440906
2287.000000	2.419778
2286.000000	2.477271
2285.000000	2.390624
2284.000000	2.290173
2283.000000	2.216007
2282.000000	2.095732
2281.000000	2.299201
2280.000000	2.343101
2279.000000	2.385573
2278.000000	2.269892
2277.000000	2.292929
2276.000000	2.428793
2275.000000	2.615087
2274.000000	2.503635
2273.000000	2.341354
2272.000000	2.396965
2271.000000	2.321896
2270.000000	2.288035
2269.000000	2.376790
2268.000000	2.389797
2267.000000	2.419903
2266.000000	2.413677
2265.000000	2.452541
2264.000000	2.558613
2263.000000	2.561624
2262.000000	2.536727
2261.000000	2.541197
2260.000000	2.499922
2259.000000	2.638462
2258.000000	2.683974
2257.000000	2.795248
2256.000000	2.956431
2255.000000	2.929964
2254.000000	2.798995
2253.000000	2.769379
2252.000000	2.834095
2251.000000	2.871582
2250.000000	2.886366
2249.000000	2.969061
2248.000000	3.024844
2247.000000	3.006509
2246.000000	3.111495
2245.000000	3.210384
2244.000000	3.249501
2243.000000	3.445161
2242.000000	3.522813
2241.000000	3.385805
2240.000000	3.459691
2239.000000	3.586818
2238.000000	3.516426
2237.000000	3.341432
2236.000000	3.305717
2235.000000	3.386465
2234.000000	3.398748
2233.000000	3.363098
2232.000000	3.485643
2231.000000	3.640802
2230.000000	3.611686
2229.000000	3.610247
2228.000000	3.671066
2227.000000	3.638755
2226.000000	3.585314
2225.000000	3.451948
2224.000000	3.522804
2223.000000	3.569157
2222.000000	3.540893
2221.000000	3.501794
2220.000000	3.535266
2219.000000	3.471597
2218.000000	3.413172
2217.000000	3.511086
2216.000000	3.546004
2215.000000	3.603698
2214.000000	3.566104
2213.000000	3.646397
2212.000000	3.503353
2211.000000	3.387940
2210.000000	3.360902
2209.000000	3.340420
2208.000000	3.344817
2207.000000	3.382718
2206.000000	3.313975
2205.000000	3.209121
2204.000000	3.244615
2203.000000	3.194511
2202.000000	3.239940
2201.000000	3.282349
2200.000000	3.310440
2199.000000	3.308677
2198.000000	3.379438
2197.000000	3.288770
2196.000000	3.179277
2195.000000	3.263899
2194.000000	3.190317
2193.000000	3.038243
2192.000000	3.018850
2191.000000	2.979324
2190.000000	3.052615
2189.000000	3.127488
2188.000000	2.945365
2187.000000	2.939447
2186.000000	3.074364
2185.000000	2.862681
2184.000000	2.977684
2183.000000	3.000306
2182.000000	2.924452
2181.000000	2.911441
2180.000000	2.877963
2179.000000	2.857414
2178.000000	2.768028
2177.000000	2.837232
2176.000000	2.963637
2175.000000	2.966407
2174.000000	2.903467
2173.000000	2.859187
2172.000000	2.874467
2171.000000	3.079275
2170.000000	3.050650
2169.000000	3.060810
2168.000000	3.108033
2167.000000	3.140538
2166.000000	2.967376
2165.000000	3.082115
2164.000000	3.076777
2163.000000	3.217979
2162.000000	3.228218
2161.000000	3.026384
2160.000000	3.145854
2159.000000	3.075815
2158.000000	3.148890
2157.000000	3.209538
2156.000000	3.170387
2155.000000	3.355812
2154.000000	3.270194
2153.000000	3.368955
2152.000000	3.382098
2151.000000	3.422720
2150.000000	3.379374
2149.000000	3.293831
2148.000000	3.424491
2147.000000	3.254015
2146.000000	3.268001
2145.000000	3.444906
2144.000000	3.604045
2143.000000	3.498433
2142.000000	3.652843
2141.000000	3.840831
2140.000000	3.680697
2139.000000	3.700943
2138.000000	3.837454
2137.000000	3.794751
2136.000000	3.697849
2135.000000	3.596126
2134.000000	3.790519
2133.000000	3.599478
2132.000000	3.792048
2131.000000	3.895536
2130.000000	3.881204
2129.000000	3.954417
2128.000000	4.004722
2127.000000	3.789852
2126.000000	3.691519
2125.000000	3.663155
2124.000000	3.647562
2123.000000	3.812942
2122.000000	3.903498
2121.000000	3.929698
2120.000000	3.925920
2119.000000	3.715104
2118.000000	3.949229
2117.000000	3.781431
2116.000000	3.878001
2115.000000	3.917397
2114.000000	3.974730
2113.000000	3.968941
2112.000000	4.013594
2111.000000	3.997371
2110.000000	3.961402
2109.000000	3.766934
2108.000000	3.873957
2107.000000	3.866173
2106.000000	3.777309
2105.000000	3.808480
2104.000000	3.955030
2103.000000	3.986047
2102.000000	3.984147
2101.000000	4.055605
2100.000000	3.924828
2099.000000	4.064217
2098.000000	3.999107
2097.000000	3.892205
2096.000000	3.918409
2095.000000	4.006909
2094.000000	3.949114
2093.000000	3.920184
2092.000000	3.898664
2091.000000	3.889642
2090.000000	3.853317
2089.000000	3.918216
2088.000000	3.971189
2087.000000	3.867702
2086.000000	3.834581
2085.000000	3.851317
2084.000000	3.862295
2083.000000	3.766335
2082.000000	3.792753
2081.000000	3.865462
2080.000000	3.802511
2079.000000	3.734420
2078.000000	3.712353
2077.000000	3.701400
2076.000000	3.596889
2075.000000	3.626624
2074.000000	3.645870
2073.000000	3.649967
2072.000000	3.617731
2071.000000	3.672880
2070.000000	3.597593
2069.000000	3.474134
2068.000000	3.378580
2067.000000	3.312108
2066.000000	3.366450
2065.000000	3.305088
2064.000000	3.285648
2063.000000	3.308647
2062.000000	3.323326
2061.000000	3.216330
2060.000000	3.187253
2059.000000	3.178876
2058.000000	3.106826
2057.000000	3.065223
2056.000000	3.045615
2055.000000	3.010780
2054.000000	2.997611
2053.000000	2.958315
2052.000000	2.926174
2051.000000	2.885528
2050.000000	2.827504
2049.000000	2.842482
2048.000000	2.768157
2047.000000	2.689404
2046.000000	2.706168
2045.000000	2.738326
2044.000000	2.780204
2043.000000	2.783443
2042.000000	2.724601
2041.000000	2.669810
2040.000000	2.695276
2039.000000	2.709195
2038.000000	2.737268
2037.000000	2.739228
2036.000000	2.723763
2035.000000	2.730756
2034.000000	2.742961
2033.000000	2.785726
2032.000000	2.825244
2031.000000	2.882530
2030.000000	2.941328
2029.000000	2.919658
2028.000000	2.902423
2027.000000	2.951033
2026.000000	2.987895
2025.000000	2.985793
2024.000000	3.002185
2023.000000	3.047809
2022.000000	3.057580
2021.000000	3.033682
2020.000000	3.005333
2019.000000	3.002719
2018.000000	3.055695
2017.000000	3.038072
2016.000000	2.983074
2015.000000	3.002559
2014.000000	2.982084
2013.000000	2.931432
2012.000000	2.978458
2011.000000	3.018128
2010.000000	3.020078
2009.000000	3.010284
2008.000000	2.954782
2007.000000	2.921667
2006.000000	2.901559
2005.000000	2.904768
2004.000000	2.873877
2003.000000	2.842526
2002.000000	2.820758
2001.000000	2.809169
2000.000000	2.809745
1999.000000	2.787509
1998.000000	2.772910
1997.000000	2.760774
1996.000000	2.761331
1995.000000	2.723769
1994.000000	2.681203
1993.000000	2.648763
1992.000000	2.651497
1991.000000	2.648970
1990.000000	2.611036
1989.000000	2.580391
1988.000000	2.549726
1987.000000	2.518072
1986.000000	2.518549
1985.000000	2.506720
1984.000000	2.470125
1983.000000	2.429156
1982.000000	2.407163
1981.000000	2.415898
1980.000000	2.419736
1979.000000	2.414145
1978.000000	2.397409
1977.000000	2.337396
1976.000000	2.341677
1975.000000	2.323504
1974.000000	2.304832
1973.000000	2.299671
1972.000000	2.288411
1971.000000	2.278412
1970.000000	2.244768
1969.000000	2.187258
1968.000000	2.213406
1967.000000	2.198864
1966.000000	2.214579
1965.000000	2.199050
1964.000000	2.174836
1963.000000	2.129455
1962.000000	2.139940
1961.000000	2.133302
1960.000000	2.103209
1959.000000	2.083443
1958.000000	2.091469
1957.000000	2.098109
1956.000000	2.118081
1955.000000	2.154967
1954.000000	2.079659
1953.000000	2.123134
1952.000000	2.075492
1951.000000	2.069183
1950.000000	2.041970
1949.000000	1.976277
1948.000000	2.017385
1947.000000	2.052700
1946.000000	2.033672
1945.000000	2.011276
1944.000000	2.022686
1943.000000	2.040835
1942.000000	2.057294
1941.000000	2.051812
1940.000000	2.086301
1939.000000	2.095274
1938.000000	2.131920
1937.000000	2.093795
1936.000000	2.150751
1935.000000	2.180892
1934.000000	2.156596
1933.000000	2.238575
1932.000000	2.198223
1931.000000	2.219543
1930.000000	2.292899
1929.000000	2.230322
1928.000000	2.289465
1927.000000	2.332650
1926.000000	2.364841
1925.000000	2.383318
1924.000000	2.440512
1923.000000	2.473637
1922.000000	2.498974
1921.000000	2.592084
1920.000000	2.623038
1919.000000	2.690325
1918.000000	2.706214
1917.000000	2.793977
1916.000000	2.816346
1915.000000	3.078736
1914.000000	3.110594
1913.000000	3.111826
1912.000000	3.098506
1911.000000	3.181074
1910.000000	3.230672
1909.000000	3.332221
1908.000000	3.431898
1907.000000	3.630446
1906.000000	3.698654
1905.000000	3.758445
1904.000000	3.896843
1903.000000	3.997708
1902.000000	4.147510
1901.000000	4.226319
1900.000000	4.426397
1899.000000	4.550159
1898.000000	4.732587
1897.000000	4.858062
1896.000000	4.961227
1895.000000	5.130143
1894.000000	5.188174
1893.000000	5.384126
1892.000000	5.490503
1891.000000	5.636374
1890.000000	5.777685
1889.000000	5.879321
1888.000000	5.995919
1887.000000	6.146644
1886.000000	6.306293
1885.000000	6.477128
1884.000000	6.601399
1883.000000	6.793893
1882.000000	6.906476
1881.000000	6.973084
1880.000000	7.045879
1879.000000	7.158525
1878.000000	7.257188
1877.000000	7.382556
1876.000000	7.468914
1875.000000	7.521616
1874.000000	7.643776
1873.000000	7.689699
1872.000000	7.833240
1871.000000	7.881198
1870.000000	7.910152
1869.000000	7.995810
1868.000000	7.986474
1867.000000	8.015891
1866.000000	8.063315
1865.000000	8.074115
1864.000000	8.081459
1863.000000	8.098598
1862.000000	8.140970
1861.000000	8.177026
1860.000000	8.203658
1859.000000	8.182085
1858.000000	8.162767
1857.000000	8.191834
1856.000000	8.214975
1855.000000	8.243770
1854.000000	8.293352
1853.000000	8.339024
1852.000000	8.298421
1851.000000	8.276339
1850.000000	8.288015
1849.000000	8.256069
1848.000000	8.256230
1847.000000	8.270684
1846.000000	8.269600
1845.000000	8.294291
1844.000000	8.289862
1843.000000	8.272107
1842.000000	8.267934
1841.000000	8.224444
1840.000000	8.216191
1839.000000	8.219918
1838.000000	8.211341
1837.000000	8.160102
1836.000000	8.154299
1835.000000	8.138710
1834.000000	8.074060
1833.000000	8.072466
1832.000000	8.083476
1831.000000	8.043228
1830.000000	8.025118
1829.000000	8.020390
1828.000000	7.996377
1827.000000	7.968795
1826.000000	7.977671
1825.000000	7.938440
1824.000000	7.919447
1823.000000	7.925697
1822.000000	7.906911
1821.000000	7.887743
1820.000000	7.846039
1819.000000	7.818285
1818.000000	7.840592
1817.000000	7.821562
1816.000000	7.811066
1815.000000	7.799492
1814.000000	7.788857
1813.000000	7.788131
1812.000000	7.752754
1811.000000	7.747243
1810.000000	7.743662
1809.000000	7.723063
1808.000000	7.700838
1807.000000	7.689245
1806.000000	7.689651
1805.000000	7.665884
1804.000000	7.645513
1803.000000	7.638478
1802.000000	7.623989
1801.000000	7.631903
1800.000000	7.638647
1799.000000	7.611670
1798.000000	7.596186
1797.000000	7.592224
1796.000000	7.588149
1795.000000	7.599601
1794.000000	7.607761
1793.000000	7.586777
1792.000000	7.561818
1791.000000	7.567743
1790.000000	7.557186
1789.000000	7.544439
1788.000000	7.541522
1787.000000	7.542935
1786.000000	7.545509
1785.000000	7.549857
1784.000000	7.551738
1783.000000	7.543611
1782.000000	7.534939
1781.000000	7.514164
1780.000000	7.492183
1779.000000	7.500691
1778.000000	7.458712
1777.000000	7.443151
1776.000000	7.438537
1775.000000	7.404885
1774.000000	7.369482
1773.000000	7.366157
1772.000000	7.336874
1771.000000	7.328357
1770.000000	7.301654
1769.000000	7.276394
1768.000000	7.247291
1767.000000	7.241766
1766.000000	7.209279
1765.000000	7.188509
1764.000000	7.158829
1763.000000	7.146559
1762.000000	7.104323
1761.000000	7.072957
1760.000000	7.070960
1759.000000	7.060083
1758.000000	7.048528
1757.000000	6.990914
1756.000000	6.999928
1755.000000	6.970125
1754.000000	6.970894
1753.000000	6.948432
1752.000000	6.920656
1751.000000	6.883711
1750.000000	6.904124
1749.000000	6.898920
1748.000000	6.861860
1747.000000	6.846291
1746.000000	6.836009
1745.000000	6.799631
1744.000000	6.775733
1743.000000	6.729395
1742.000000	6.731390
1741.000000	6.727263
1740.000000	6.704520
1739.000000	6.674423
1738.000000	6.645719
1737.000000	6.625129
1736.000000	6.644316
1735.000000	6.606223
1734.000000	6.627541
1733.000000	6.626781
1732.000000	6.600316
1731.000000	6.586145
1730.000000	6.590244
1729.000000	6.588422
1728.000000	6.605640
1727.000000	6.620847
1726.000000	6.652420
1725.000000	6.650724
1724.000000	6.683968
1723.000000	6.735698
1722.000000	6.735787
1721.000000	6.780761
1720.000000	6.808860
1719.000000	6.836086
1718.000000	6.838599
1717.000000	6.864568
1716.000000	6.897564
1715.000000	6.929818
1714.000000	6.957583
1713.000000	6.982193
1712.000000	6.997617
1711.000000	6.998611
1710.000000	7.072094
1709.000000	7.047588
1708.000000	7.050067
1707.000000	7.050184
1706.000000	7.086388
1705.000000	7.066636
1704.000000	7.138322
1703.000000	7.104247
1702.000000	7.122685
1701.000000	7.119689
1700.000000	7.137762
1699.000000	7.100646
1698.000000	7.157614
1697.000000	7.138264
1696.000000	7.172023
1695.000000	7.156821
1694.000000	7.190336
1693.000000	7.188829
1692.000000	7.177532
1691.000000	7.205299
1690.000000	7.237344
1689.000000	7.291353
1688.000000	7.327809
1687.000000	7.343045
1686.000000	7.369957
1685.000000	7.417528
1684.000000	7.489561
1683.000000	7.529218
1682.000000	7.581446
1681.000000	7.643729
1680.000000	7.672500
1679.000000	7.743930
1678.000000	7.791745
1677.000000	7.828052
1676.000000	7.883709
1675.000000	7.945563
1674.000000	8.020540
1673.000000	8.062378
1672.000000	8.104259
1671.000000	8.166665
1670.000000	8.218219
1669.000000	8.253285
1668.000000	8.282476
1667.000000	8.326538
1666.000000	8.356032
1665.000000	8.367615
1664.000000	8.384044
1663.000000	8.385134
1662.000000	8.417475
1661.000000	8.471368
1660.000000	8.486847
1659.000000	8.532156
1658.000000	8.558506
1657.000000	8.569387
1656.000000	8.583919
1655.000000	8.585705
1654.000000	8.600920
1653.000000	8.603716
1652.000000	8.616975
1651.000000	8.613049
1650.000000	8.612339
1649.000000	8.599553
1648.000000	8.579457
1647.000000	8.559851
1646.000000	8.542251
1645.000000	8.537348
1644.000000	8.549960
1643.000000	8.534166
1642.000000	8.525492
1641.000000	8.523001
1640.000000	8.484616
1639.000000	8.484767
1638.000000	8.474996
1637.000000	8.472193
1636.000000	8.462526
1635.000000	8.445694
1634.000000	8.421983
1633.000000	8.391850
1632.000000	8.370311
1631.000000	8.346701
1630.000000	8.339104
1629.000000	8.320980
1628.000000	8.309669
1627.000000	8.300959
1626.000000	8.278777
1625.000000	8.253034
1624.000000	8.238439
1623.000000	8.215159
1622.000000	8.190648
1621.000000	8.173045
1620.000000	8.149730
1619.000000	8.150586
1618.000000	8.126766
1617.000000	8.098978
1616.000000	8.082959
1615.000000	8.053620
1614.000000	8.045334
1613.000000	8.032042
1612.000000	7.997503
1611.000000	7.970071
1610.000000	7.951968
1609.000000	7.921185
1608.000000	7.905997
1607.000000	7.888072
1606.000000	7.860534
1605.000000	7.835040
1604.000000	7.808411
1603.000000	7.788169
1602.000000	7.768032
1601.000000	7.744758
1600.000000	7.719584
1599.000000	7.696352
1598.000000	7.681797
1597.000000	7.671200
1596.000000	7.655799
1595.000000	7.625921
1594.000000	7.610620
1593.000000	7.601021
1592.000000	7.579229
1591.000000	7.555316
1590.000000	7.545885
1589.000000	7.520432
1588.000000	7.493669
1587.000000	7.479100
1586.000000	7.456685
1585.000000	7.443827
1584.000000	7.428761
1583.000000	7.404836
1582.000000	7.398949
1581.000000	7.376379
1580.000000	7.357620
1579.000000	7.356999
1578.000000	7.354062
1577.000000	7.324424
1576.000000	7.298938
1575.000000	7.275650
1574.000000	7.261240
1573.000000	7.259657
1572.000000	7.228840
1571.000000	7.205945
1570.000000	7.193671
1569.000000	7.180715
1568.000000	7.162630
1567.000000	7.140030
1566.000000	7.127750
1565.000000	7.107556
1564.000000	7.091123
1563.000000	7.081813
1562.000000	7.072905
1561.000000	7.062175
1560.000000	7.048899
1559.000000	7.036504
1558.000000	7.013027
1557.000000	7.011308
1556.000000	7.007059
1555.000000	7.012449
1554.000000	6.997155
1553.000000	6.968844
1552.000000	6.966991
1551.000000	6.955844
1550.000000	6.933707
1549.000000	6.904491
1548.000000	6.895243
1547.000000	6.876848
1546.000000	6.848382
1545.000000	6.807737
1544.000000	6.793984
1543.000000	6.787281
1542.000000	6.746118
1541.000000	6.709840
1540.000000	6.683982
1539.000000	6.647997
1538.000000	6.612280
1537.000000	6.581524
1536.000000	6.554375
1535.000000	6.526598
1534.000000	6.489853
1533.000000	6.454549
1532.000000	6.432925
1531.000000	6.402555
1530.000000	6.387324
1529.000000	6.339117
1528.000000	6.316689
1527.000000	6.293891
1526.000000	6.262292
1525.000000	6.241011
1524.000000	6.225826
1523.000000	6.196727
1522.000000	6.189850
1521.000000	6.169566
1520.000000	6.157835
1519.000000	6.143043
1518.000000	6.128355
1517.000000	6.107081
1516.000000	6.102108
1515.000000	6.094969
1514.000000	6.073729
1513.000000	6.069763
1512.000000	6.063450
1511.000000	6.058327
1510.000000	6.053315
1509.000000	6.026747
1508.000000	6.030093
1507.000000	6.028991
1506.000000	6.026515
1505.000000	6.020430
1504.000000	6.016101
1503.000000	6.015136
1502.000000	5.995027
1501.000000	6.003231
1500.000000	6.007330
1499.000000	6.033460
1498.000000	6.036312
1497.000000	6.040498
1496.000000	6.048584
1495.000000	6.025407
1494.000000	6.028765
1493.000000	6.029994
1492.000000	6.016639
1491.000000	6.011205
1490.000000	6.017341
1489.000000	6.027282
1488.000000	6.038443
1487.000000	6.038721
1486.000000	6.057408
1485.000000	6.087107
1484.000000	6.092008
1483.000000	6.103295
1482.000000	6.082872
1481.000000	6.114255
1480.000000	6.133302
1479.000000	6.116515
1478.000000	6.146089
1477.000000	6.144003
1476.000000	6.152190
1475.000000	6.165833
1474.000000	6.156456
1473.000000	6.168104
1472.000000	6.190926
1471.000000	6.206885
1470.000000	6.204675
1469.000000	6.221035
1468.000000	6.220424
1467.000000	6.236790
1466.000000	6.275230
1465.000000	6.279564
1464.000000	6.294023
1463.000000	6.295970
1462.000000	6.310236
1461.000000	6.339771
1460.000000	6.342002
1459.000000	6.353750
1458.000000	6.396739
1457.000000	6.389708
1456.000000	6.401743
1455.000000	6.393679
1454.000000	6.407254
1453.000000	6.448340
1452.000000	6.482319
1451.000000	6.479479
1450.000000	6.475230
1449.000000	6.513753
1448.000000	6.550363
1447.000000	6.570668
1446.000000	6.576793
1445.000000	6.577733
1444.000000	6.599566
1443.000000	6.628146
1442.000000	6.672612
1441.000000	6.688466
1440.000000	6.702409
1439.000000	6.728450
1438.000000	6.744560
1437.000000	6.764215
1436.000000	6.787958
1435.000000	6.827632
1434.000000	6.865828
1433.000000	6.899370
1432.000000	6.934059
1431.000000	6.958756
1430.000000	7.005394
1429.000000	7.038582
1428.000000	7.078318
