PE UV       SUBTECH     SPECTRUM    ASCII       PEDS        4.00        
   -1
TDmshap22.Sample.asc
18/03/19
15:45:09.00
18/03/19
15:45:09.00
Administrator

200.000000
1
Lambda 750
750N8071901
PerkinElmer UV WinLab 6.0.4.0738 / 1.61.00 Lambda 900

0
0
3350/servo 860.8/2
0
0
UV/VIS
1
1
1
CommonBeamDepol,150mm sphere / downward view
0
0
0
0
Program
Program
3350/servo 860.8/2
3350/0.2 860.8/0.2
3350/0.2 860.8/0.2
0
1
 
 
 
0
 
860.8
319.2
860.8
Front
100
on
 
 
0
0
0
 
0
 
 
 
0
 
 
0
0
0
0
0
 
 
 
 
0
0


0
0
#HDR
-1
-1
#GR
nm
%T
1.0
0.0
2350.000000
-1.000000
2151
8
13.112002
0.035197
#DATA
2350.000000	5.080128
2349.000000	5.032112
2348.000000	5.262195
2347.000000	6.093190
2346.000000	5.951531
2345.000000	5.355421
2344.000000	5.372503
2343.000000	5.167914
2342.000000	5.454525
2341.000000	5.349111
2340.000000	5.580632
2339.000000	6.060505
2338.000000	6.114129
2337.000000	6.059743
2336.000000	6.208839
2335.000000	6.549540
2334.000000	6.229045
2333.000000	6.045256
2332.000000	6.310108
2331.000000	6.449159
2330.000000	6.059730
2329.000000	6.152876
2328.000000	6.228692
2327.000000	5.998431
2326.000000	6.359472
2325.000000	6.289913
2324.000000	6.234029
2323.000000	6.095966
2322.000000	5.902916
2321.000000	5.884244
2320.000000	5.979895
2319.000000	5.956652
2318.000000	5.893680
2317.000000	5.896552
2316.000000	6.073283
2315.000000	5.861605
2314.000000	5.664850
2313.000000	5.808385
2312.000000	5.722426
2311.000000	5.745760
2310.000000	5.434789
2309.000000	5.510652
2308.000000	5.618688
2307.000000	5.535085
2306.000000	5.430450
2305.000000	5.614730
2304.000000	5.510140
2303.000000	5.555184
2302.000000	5.480189
2301.000000	5.641230
2300.000000	5.395756
2299.000000	5.448045
2298.000000	5.413849
2297.000000	5.447528
2296.000000	5.360991
2295.000000	5.241747
2294.000000	5.260839
2293.000000	5.239504
2292.000000	5.198085
2291.000000	5.122754
2290.000000	5.116693
2289.000000	5.160258
2288.000000	5.281357
2287.000000	5.529517
2286.000000	5.187583
2285.000000	5.064577
2284.000000	5.036314
2283.000000	5.096705
2282.000000	4.988284
2281.000000	4.973507
2280.000000	5.033267
2279.000000	5.118671
2278.000000	5.041177
2277.000000	5.072369
2276.000000	5.208454
2275.000000	5.221572
2274.000000	5.277531
2273.000000	5.403086
2272.000000	5.364487
2271.000000	5.061306
2270.000000	4.995137
2269.000000	5.247404
2268.000000	5.214443
2267.000000	5.093086
2266.000000	5.214324
2265.000000	5.290186
2264.000000	5.310148
2263.000000	5.219088
2262.000000	5.298765
2261.000000	5.550760
2260.000000	5.625861
2259.000000	5.596002
2258.000000	5.594137
2257.000000	5.713990
2256.000000	5.828633
2255.000000	5.861551
2254.000000	5.882836
2253.000000	5.829856
2252.000000	5.843287
2251.000000	6.003048
2250.000000	6.085268
2249.000000	6.092349
2248.000000	6.225176
2247.000000	6.376396
2246.000000	6.430552
2245.000000	6.425527
2244.000000	6.467646
2243.000000	6.604811
2242.000000	6.524290
2241.000000	6.504226
2240.000000	6.597677
2239.000000	6.596722
2238.000000	6.681229
2237.000000	6.817938
2236.000000	6.732134
2235.000000	6.757133
2234.000000	6.935820
2233.000000	6.882367
2232.000000	6.773181
2231.000000	6.878951
2230.000000	7.074591
2229.000000	7.094773
2228.000000	6.927173
2227.000000	6.995838
2226.000000	7.024526
2225.000000	6.902579
2224.000000	6.834605
2223.000000	6.902220
2222.000000	6.918043
2221.000000	6.905394
2220.000000	6.833036
2219.000000	6.858085
2218.000000	6.787298
2217.000000	6.811403
2216.000000	6.970909
2215.000000	7.010589
2214.000000	6.984025
2213.000000	6.984595
2212.000000	6.827039
2211.000000	6.747111
2210.000000	6.683621
2209.000000	6.632731
2208.000000	6.685073
2207.000000	6.718292
2206.000000	6.593090
2205.000000	6.572393
2204.000000	6.510184
2203.000000	6.561132
2202.000000	6.487374
2201.000000	6.472444
2200.000000	6.580540
2199.000000	6.522995
2198.000000	6.532390
2197.000000	6.429851
2196.000000	6.444236
2195.000000	6.405601
2194.000000	6.329069
2193.000000	6.302447
2192.000000	6.344055
2191.000000	6.164520
2190.000000	6.205645
2189.000000	6.285632
2188.000000	6.119677
2187.000000	6.129447
2186.000000	5.929629
2185.000000	6.033057
2184.000000	6.021256
2183.000000	6.019015
2182.000000	6.026680
2181.000000	6.080438
2180.000000	6.113207
2179.000000	6.072726
2178.000000	6.147060
2177.000000	6.103262
2176.000000	5.957294
2175.000000	5.947971
2174.000000	6.012657
2173.000000	6.054957
2172.000000	6.041617
2171.000000	6.130683
2170.000000	6.016813
2169.000000	6.127684
2168.000000	6.167994
2167.000000	6.064407
2166.000000	6.135579
2165.000000	6.167663
2164.000000	6.309228
2163.000000	6.239144
2162.000000	6.174151
2161.000000	6.038041
2160.000000	6.264877
2159.000000	6.358435
2158.000000	6.417237
2157.000000	6.482130
2156.000000	6.452761
2155.000000	6.550308
2154.000000	6.566478
2153.000000	6.675790
2152.000000	6.624821
2151.000000	6.576564
2150.000000	6.774588
2149.000000	6.921222
2148.000000	6.782210
2147.000000	6.885416
2146.000000	6.710944
2145.000000	6.959710
2144.000000	6.990710
2143.000000	7.007843
2142.000000	6.949687
2141.000000	7.030938
2140.000000	7.252990
2139.000000	7.009892
2138.000000	7.287591
2137.000000	7.400706
2136.000000	7.349321
2135.000000	7.435907
2134.000000	7.370365
2133.000000	7.099788
2132.000000	7.319556
2131.000000	7.348354
2130.000000	7.483704
2129.000000	7.336777
2128.000000	7.295090
2127.000000	7.265085
2126.000000	7.307620
2125.000000	7.271276
2124.000000	7.354877
2123.000000	7.378995
2122.000000	7.481645
2121.000000	7.578731
2120.000000	7.312184
2119.000000	7.435558
2118.000000	7.536198
2117.000000	7.426631
2116.000000	7.572232
2115.000000	7.645478
2114.000000	7.564333
2113.000000	7.463866
2112.000000	7.515332
2111.000000	7.486781
2110.000000	7.275398
2109.000000	7.475823
2108.000000	7.440314
2107.000000	7.352523
2106.000000	7.401792
2105.000000	7.312306
2104.000000	7.341481
2103.000000	7.420226
2102.000000	7.637031
2101.000000	7.569090
2100.000000	7.562866
2099.000000	7.413833
2098.000000	7.541075
2097.000000	7.568811
2096.000000	7.523191
2095.000000	7.482399
2094.000000	7.422051
2093.000000	7.421548
2092.000000	7.539217
2091.000000	7.474721
2090.000000	7.428797
2089.000000	7.404432
2088.000000	7.488066
2087.000000	7.405619
2086.000000	7.428390
2085.000000	7.506872
2084.000000	7.412571
2083.000000	7.432482
2082.000000	7.356243
2081.000000	7.299958
2080.000000	7.250030
2079.000000	7.269602
2078.000000	7.284728
2077.000000	7.207882
2076.000000	7.194386
2075.000000	7.216733
2074.000000	7.139492
2073.000000	7.091552
2072.000000	7.060652
2071.000000	7.011936
2070.000000	6.997107
2069.000000	6.838699
2068.000000	6.837376
2067.000000	6.809487
2066.000000	6.748383
2065.000000	6.690954
2064.000000	6.558640
2063.000000	6.532576
2062.000000	6.506219
2061.000000	6.493683
2060.000000	6.396061
2059.000000	6.365139
2058.000000	6.352319
2057.000000	6.269558
2056.000000	6.232134
2055.000000	6.204029
2054.000000	6.174861
2053.000000	6.063954
2052.000000	6.011599
2051.000000	5.965745
2050.000000	5.942808
2049.000000	5.865899
2048.000000	5.815177
2047.000000	5.783241
2046.000000	5.821448
2045.000000	5.852396
2044.000000	5.765029
2043.000000	5.750774
2042.000000	5.811638
2041.000000	5.812473
2040.000000	5.780556
2039.000000	5.773605
2038.000000	5.762600
2037.000000	5.757778
2036.000000	5.846519
2035.000000	5.902264
2034.000000	5.930920
2033.000000	5.964203
2032.000000	5.953844
2031.000000	5.960526
2030.000000	6.018367
2029.000000	6.031676
2028.000000	6.063995
2027.000000	6.130105
2026.000000	6.192426
2025.000000	6.210239
2024.000000	6.192806
2023.000000	6.206435
2022.000000	6.217857
2021.000000	6.236222
2020.000000	6.237955
2019.000000	6.287168
2018.000000	6.257417
2017.000000	6.226780
2016.000000	6.266726
2015.000000	6.235655
2014.000000	6.225555
2013.000000	6.253269
2012.000000	6.280826
2011.000000	6.268887
2010.000000	6.229608
2009.000000	6.189120
2008.000000	6.210945
2007.000000	6.216291
2006.000000	6.132942
2005.000000	6.070202
2004.000000	6.025177
2003.000000	6.025425
2002.000000	6.016920
2001.000000	5.959858
2000.000000	5.912923
1999.000000	5.930435
1998.000000	5.915900
1997.000000	5.829450
1996.000000	5.822359
1995.000000	5.804481
1994.000000	5.741477
1993.000000	5.699359
1992.000000	5.672701
1991.000000	5.642116
1990.000000	5.592030
1989.000000	5.549851
1988.000000	5.564175
1987.000000	5.515926
1986.000000	5.453825
1985.000000	5.409969
1984.000000	5.420363
1983.000000	5.432292
1982.000000	5.389070
1981.000000	5.345441
1980.000000	5.302317
1979.000000	5.275271
1978.000000	5.211219
1977.000000	5.182201
1976.000000	5.166179
1975.000000	5.160022
1974.000000	5.106770
1973.000000	5.108778
1972.000000	5.051974
1971.000000	5.003448
1970.000000	4.967730
1969.000000	4.959863
1968.000000	4.932998
1967.000000	4.896790
1966.000000	4.925035
1965.000000	4.851437
1964.000000	4.820683
1963.000000	4.780484
1962.000000	4.766682
1961.000000	4.745940
1960.000000	4.767796
1959.000000	4.712628
1958.000000	4.658425
1957.000000	4.702495
1956.000000	4.675803
1955.000000	4.653205
1954.000000	4.643340
1953.000000	4.605333
1952.000000	4.618745
1951.000000	4.585686
1950.000000	4.596362
1949.000000	4.518741
1948.000000	4.530158
1947.000000	4.518761
1946.000000	4.525055
1945.000000	4.475174
1944.000000	4.461661
1943.000000	4.546262
1942.000000	4.527467
1941.000000	4.578281
1940.000000	4.604886
1939.000000	4.587082
1938.000000	4.683566
1937.000000	4.664190
1936.000000	4.734106
1935.000000	4.659270
1934.000000	4.708793
1933.000000	4.714231
1932.000000	4.787075
1931.000000	4.762914
1930.000000	4.797894
1929.000000	4.791994
1928.000000	5.003697
1927.000000	5.011949
1926.000000	5.075681
1925.000000	5.142298
1924.000000	5.253456
1923.000000	5.284385
1922.000000	5.291336
1921.000000	5.370476
1920.000000	5.523695
1919.000000	5.567877
1918.000000	5.615176
1917.000000	5.762470
1916.000000	5.766823
1915.000000	5.960348
1914.000000	6.117829
1913.000000	6.219190
1912.000000	6.296849
1911.000000	6.317933
1910.000000	6.452621
1909.000000	6.642837
1908.000000	6.732455
1907.000000	6.805780
1906.000000	6.935636
1905.000000	7.102588
1904.000000	7.247781
1903.000000	7.435585
1902.000000	7.561383
1901.000000	7.760837
1900.000000	7.920893
1899.000000	8.138881
1898.000000	8.310160
1897.000000	8.449473
1896.000000	8.560901
1895.000000	8.730423
1894.000000	8.882985
1893.000000	9.000379
1892.000000	9.201713
1891.000000	9.355396
1890.000000	9.473796
1889.000000	9.618937
1888.000000	9.810406
1887.000000	9.983517
1886.000000	10.134646
1885.000000	10.260699
1884.000000	10.420695
1883.000000	10.564967
1882.000000	10.658757
1881.000000	10.808351
1880.000000	10.889850
1879.000000	11.094199
1878.000000	11.147187
1877.000000	11.226937
1876.000000	11.350771
1875.000000	11.438580
1874.000000	11.526923
1873.000000	11.609668
1872.000000	11.650993
1871.000000	11.702566
1870.000000	11.817248
1869.000000	11.834977
1868.000000	11.872984
1867.000000	11.878871
1866.000000	11.921855
1865.000000	11.960868
1864.000000	12.009062
1863.000000	12.010190
1862.000000	12.042143
1861.000000	12.043719
1860.000000	12.038198
1859.000000	12.021920
1858.000000	12.083217
1857.000000	12.099726
1856.000000	12.130550
1855.000000	12.145152
1854.000000	12.165583
1853.000000	12.160730
1852.000000	12.135826
1851.000000	12.148401
1850.000000	12.163911
1849.000000	12.108361
1848.000000	12.149213
1847.000000	12.150702
1846.000000	12.132832
1845.000000	12.146659
1844.000000	12.113755
1843.000000	12.123492
1842.000000	12.099199
1841.000000	12.101228
1840.000000	12.081424
1839.000000	12.060991
1838.000000	12.058808
1837.000000	12.043501
1836.000000	12.003555
1835.000000	11.963945
1834.000000	11.944772
1833.000000	11.934022
1832.000000	11.921330
1831.000000	11.894393
1830.000000	11.857950
1829.000000	11.844255
1828.000000	11.830327
1827.000000	11.781969
1826.000000	11.763441
1825.000000	11.770357
1824.000000	11.777246
1823.000000	11.768623
1822.000000	11.726497
1821.000000	11.684681
1820.000000	11.676390
1819.000000	11.652696
1818.000000	11.642272
1817.000000	11.638068
1816.000000	11.636685
1815.000000	11.624541
1814.000000	11.592349
1813.000000	11.577830
1812.000000	11.573039
1811.000000	11.533701
1810.000000	11.527599
1809.000000	11.529552
1808.000000	11.529931
1807.000000	11.509996
1806.000000	11.503438
1805.000000	11.503448
1804.000000	11.475178
1803.000000	11.439175
1802.000000	11.437813
1801.000000	11.458525
1800.000000	11.431042
1799.000000	11.414355
1798.000000	11.420038
1797.000000	11.419174
1796.000000	11.382783
1795.000000	11.371108
1794.000000	11.374965
1793.000000	11.376914
1792.000000	11.387045
1791.000000	11.370673
1790.000000	11.344725
1789.000000	11.339428
1788.000000	11.336931
1787.000000	11.335036
1786.000000	11.346418
1785.000000	11.323921
1784.000000	11.320594
1783.000000	11.337063
1782.000000	11.316483
1781.000000	11.297769
1780.000000	11.271808
1779.000000	11.263384
1778.000000	11.256060
1777.000000	11.248731
1776.000000	11.223723
1775.000000	11.188735
1774.000000	11.180747
1773.000000	11.163986
1772.000000	11.132962
1771.000000	11.111800
1770.000000	11.065788
1769.000000	11.024470
1768.000000	11.016647
1767.000000	11.011347
1766.000000	10.981823
1765.000000	10.945416
1764.000000	10.940911
1763.000000	10.910126
1762.000000	10.882062
1761.000000	10.860313
1760.000000	10.849544
1759.000000	10.812146
1758.000000	10.789268
1757.000000	10.798642
1756.000000	10.771449
1755.000000	10.730171
1754.000000	10.694010
1753.000000	10.668218
1752.000000	10.641396
1751.000000	10.647090
1750.000000	10.626341
1749.000000	10.639070
1748.000000	10.595058
1747.000000	10.545459
1746.000000	10.584168
1745.000000	10.521172
1744.000000	10.507166
1743.000000	10.479655
1742.000000	10.456032
1741.000000	10.414146
1740.000000	10.405657
1739.000000	10.413347
1738.000000	10.378330
1737.000000	10.362131
1736.000000	10.345469
1735.000000	10.364082
1734.000000	10.348419
1733.000000	10.350953
1732.000000	10.324392
1731.000000	10.281166
1730.000000	10.320347
1729.000000	10.321655
1728.000000	10.361844
1727.000000	10.334411
1726.000000	10.366805
1725.000000	10.379998
1724.000000	10.423817
1723.000000	10.408384
1722.000000	10.470057
1721.000000	10.509068
1720.000000	10.513283
1719.000000	10.550443
1718.000000	10.577695
1717.000000	10.606726
1716.000000	10.628347
1715.000000	10.628159
1714.000000	10.657041
1713.000000	10.680011
1712.000000	10.714554
1711.000000	10.702055
1710.000000	10.742925
1709.000000	10.747894
1708.000000	10.762698
1707.000000	10.795779
1706.000000	10.802814
1705.000000	10.796682
1704.000000	10.829122
1703.000000	10.811239
1702.000000	10.837172
1701.000000	10.817322
1700.000000	10.873276
1699.000000	10.815722
1698.000000	10.820317
1697.000000	10.840519
1696.000000	10.864916
1695.000000	10.845269
1694.000000	10.846864
1693.000000	10.848771
1692.000000	10.842481
1691.000000	10.876878
1690.000000	10.899903
1689.000000	10.963492
1688.000000	10.984907
1687.000000	10.991047
1686.000000	11.040970
1685.000000	11.084304
1684.000000	11.118244
1683.000000	11.169957
1682.000000	11.237433
1681.000000	11.293875
1680.000000	11.323373
1679.000000	11.396821
1678.000000	11.456153
1677.000000	11.469042
1676.000000	11.530063
1675.000000	11.589945
1674.000000	11.619576
1673.000000	11.679350
1672.000000	11.752349
1671.000000	11.787547
1670.000000	11.844242
1669.000000	11.856278
1668.000000	11.885681
1667.000000	11.959770
1666.000000	11.967687
1665.000000	11.977005
1664.000000	11.998558
1663.000000	12.006657
1662.000000	12.044457
1661.000000	12.054721
1660.000000	12.086193
1659.000000	12.096503
1658.000000	12.138733
1657.000000	12.160488
1656.000000	12.166888
1655.000000	12.181655
1654.000000	12.193022
1653.000000	12.209057
1652.000000	12.209429
1651.000000	12.188521
1650.000000	12.180602
1649.000000	12.189224
1648.000000	12.169949
1647.000000	12.146643
1646.000000	12.128547
1645.000000	12.137723
1644.000000	12.146806
1643.000000	12.122551
1642.000000	12.107977
1641.000000	12.107819
1640.000000	12.094380
1639.000000	12.082516
1638.000000	12.073273
1637.000000	12.051033
1636.000000	12.038487
1635.000000	12.010619
1634.000000	11.984330
1633.000000	11.978003
1632.000000	11.961330
1631.000000	11.944948
1630.000000	11.940809
1629.000000	11.911033
1628.000000	11.887359
1627.000000	11.876466
1626.000000	11.856931
1625.000000	11.832840
1624.000000	11.812656
1623.000000	11.809507
1622.000000	11.787686
1621.000000	11.754386
1620.000000	11.742514
1619.000000	11.728201
1618.000000	11.700744
1617.000000	11.680451
1616.000000	11.673896
1615.000000	11.640249
1614.000000	11.612092
1613.000000	11.610683
1612.000000	11.595734
1611.000000	11.558151
1610.000000	11.541273
1609.000000	11.521502
1608.000000	11.500749
1607.000000	11.483359
1606.000000	11.447476
1605.000000	11.419198
1604.000000	11.404414
1603.000000	11.375907
1602.000000	11.350255
1601.000000	11.338497
1600.000000	11.303763
1599.000000	11.270971
1598.000000	11.260179
1597.000000	11.238344
1596.000000	11.224215
1595.000000	11.207014
1594.000000	11.181831
1593.000000	11.171131
1592.000000	11.150690
1591.000000	11.120552
1590.000000	11.100926
1589.000000	11.074680
1588.000000	11.051347
1587.000000	11.038358
1586.000000	11.020670
1585.000000	10.997589
1584.000000	10.994237
1583.000000	10.983337
1582.000000	10.954700
1581.000000	10.946458
1580.000000	10.949228
1579.000000	10.933176
1578.000000	10.903420
1577.000000	10.880486
1576.000000	10.875130
1575.000000	10.847503
1574.000000	10.808378
1573.000000	10.804427
1572.000000	10.797079
1571.000000	10.778773
1570.000000	10.758078
1569.000000	10.729815
1568.000000	10.713136
1567.000000	10.697103
1566.000000	10.693807
1565.000000	10.680260
1564.000000	10.667991
1563.000000	10.668744
1562.000000	10.652691
1561.000000	10.629548
1560.000000	10.608410
1559.000000	10.602507
1558.000000	10.583328
1557.000000	10.571464
1556.000000	10.563818
1555.000000	10.540288
1554.000000	10.544084
1553.000000	10.525258
1552.000000	10.501071
1551.000000	10.481360
1550.000000	10.467842
1549.000000	10.453890
1548.000000	10.442815
1547.000000	10.410912
1546.000000	10.393389
1545.000000	10.361991
1544.000000	10.334555
1543.000000	10.290554
1542.000000	10.260219
1541.000000	10.235743
1540.000000	10.207026
1539.000000	10.168437
1538.000000	10.140912
1537.000000	10.107901
1536.000000	10.082078
1535.000000	10.040631
1534.000000	10.008715
1533.000000	9.994795
1532.000000	9.965433
1531.000000	9.913077
1530.000000	9.899986
1529.000000	9.857940
1528.000000	9.830064
1527.000000	9.804343
1526.000000	9.769546
1525.000000	9.752221
1524.000000	9.715573
1523.000000	9.685963
1522.000000	9.680025
1521.000000	9.671678
1520.000000	9.650288
1519.000000	9.640668
1518.000000	9.617211
1517.000000	9.600408
1516.000000	9.592246
1515.000000	9.585886
1514.000000	9.563193
1513.000000	9.556407
1512.000000	9.546284
1511.000000	9.536990
1510.000000	9.509293
1509.000000	9.511813
1508.000000	9.510046
1507.000000	9.499370
1506.000000	9.494672
1505.000000	9.483035
1504.000000	9.471169
1503.000000	9.497621
1502.000000	9.470084
1501.000000	9.460225
1500.000000	9.449457
1499.000000	9.466536
1498.000000	9.475920
1497.000000	9.491283
1496.000000	9.509949
1495.000000	9.507365
1494.000000	9.498811
1493.000000	9.475009
1492.000000	9.475291
1491.000000	9.488829
1490.000000	9.483426
1489.000000	9.484748
1488.000000	9.485357
1487.000000	9.495001
1486.000000	9.508693
1485.000000	9.536156
1484.000000	9.538437
1483.000000	9.563439
1482.000000	9.526389
1481.000000	9.588040
1480.000000	9.587539
1479.000000	9.596680
1478.000000	9.604164
1477.000000	9.602763
1476.000000	9.601061
1475.000000	9.602410
1474.000000	9.633338
1473.000000	9.663691
1472.000000	9.656257
1471.000000	9.683300
1470.000000	9.692084
1469.000000	9.680558
1468.000000	9.682933
1467.000000	9.706420
1466.000000	9.743376
1465.000000	9.763488
1464.000000	9.761563
1463.000000	9.760464
1462.000000	9.794055
1461.000000	9.791548
1460.000000	9.795632
1459.000000	9.806886
1458.000000	9.815252
1457.000000	9.842423
1456.000000	9.858753
1455.000000	9.867087
1454.000000	9.876865
1453.000000	9.899852
1452.000000	9.938833
1451.000000	9.943627
1450.000000	9.930417
1449.000000	9.944517
1448.000000	9.967154
1447.000000	10.007424
1446.000000	10.026412
1445.000000	10.038865
1444.000000	10.063551
