PE UV       SUBTECH     SPECTRUM    ASCII       PEDS        4.00        
   -1
TDms159342.Sample.asc
18/03/19
17:53:37.00
18/03/19
17:53:37.00
Administrator

200.000000
1
Lambda 750
750N8071901
PerkinElmer UV WinLab 6.0.4.0738 / 1.61.00 Lambda 900

0
0
3350/servo 860.8/2
0
0
UV/VIS
1
1
1
CommonBeamDepol,150mm sphere / downward view
0
0
0
0
Program
Program
3350/servo 860.8/2
3350/0.2 860.8/0.2
3350/0.2 860.8/0.2
0
1
 
 
 
0
 
860.8
319.2
860.8
Front
100
on
 
 
0
0
0
 
0
 
 
 
0
 
 
0
0
0
0
0
 
 
 
 
0
0


0
0
#HDR
-1
-1
#GR
nm
%T
1.0
0.0
2350.000000
-1.000000
2151
8
10.954340
-0.033924
#DATA
2350.000000	2.830674
2349.000000	3.227719
2348.000000	2.648691
2347.000000	3.429047
2346.000000	3.198044
2345.000000	2.848128
2344.000000	3.094600
2343.000000	2.797155
2342.000000	2.817567
2341.000000	2.931232
2340.000000	3.235461
2339.000000	3.223192
2338.000000	3.348274
2337.000000	3.455407
2336.000000	3.468379
2335.000000	3.515413
2334.000000	3.489578
2333.000000	3.542979
2332.000000	3.735877
2331.000000	3.590285
2330.000000	3.751339
2329.000000	3.427670
2328.000000	3.630537
2327.000000	3.296059
2326.000000	3.260338
2325.000000	3.418484
2324.000000	3.357842
2323.000000	3.403617
2322.000000	3.438676
2321.000000	3.461171
2320.000000	3.390629
2319.000000	3.433121
2318.000000	3.384355
2317.000000	3.578693
2316.000000	3.266764
2315.000000	3.124284
2314.000000	3.049579
2313.000000	3.103115
2312.000000	2.903349
2311.000000	3.189398
2310.000000	2.879974
2309.000000	3.209693
2308.000000	3.293846
2307.000000	3.182942
2306.000000	3.292047
2305.000000	3.096083
2304.000000	2.934685
2303.000000	2.948451
2302.000000	2.923943
2301.000000	2.998975
2300.000000	2.685260
2299.000000	2.774288
2298.000000	2.864743
2297.000000	2.851017
2296.000000	2.930846
2295.000000	2.769754
2294.000000	2.714190
2293.000000	2.857764
2292.000000	2.873431
2291.000000	2.770135
2290.000000	2.735206
2289.000000	2.784018
2288.000000	2.856651
2287.000000	2.928506
2286.000000	2.751330
2285.000000	2.567287
2284.000000	2.838409
2283.000000	2.702421
2282.000000	2.680526
2281.000000	2.673393
2280.000000	2.702938
2279.000000	2.683263
2278.000000	2.558211
2277.000000	2.545348
2276.000000	2.716685
2275.000000	2.857551
2274.000000	2.823412
2273.000000	2.869658
2272.000000	2.801742
2271.000000	2.775764
2270.000000	2.944222
2269.000000	2.930579
2268.000000	2.756178
2267.000000	2.724914
2266.000000	2.855089
2265.000000	2.808349
2264.000000	2.798220
2263.000000	2.908307
2262.000000	2.967916
2261.000000	2.894698
2260.000000	3.082099
2259.000000	3.144781
2258.000000	3.141821
2257.000000	3.266209
2256.000000	3.263548
2255.000000	3.236641
2254.000000	3.284044
2253.000000	3.330391
2252.000000	3.309737
2251.000000	3.400467
2250.000000	3.500584
2249.000000	3.476791
2248.000000	3.604705
2247.000000	3.758794
2246.000000	3.847487
2245.000000	3.857159
2244.000000	3.725289
2243.000000	3.866994
2242.000000	4.022485
2241.000000	3.928161
2240.000000	3.930693
2239.000000	3.906077
2238.000000	3.817469
2237.000000	3.944596
2236.000000	4.144130
2235.000000	4.238169
2234.000000	4.186970
2233.000000	4.002781
2232.000000	4.010648
2231.000000	4.096232
2230.000000	4.338462
2229.000000	4.419784
2228.000000	4.252513
2227.000000	4.208377
2226.000000	4.200804
2225.000000	4.185724
2224.000000	4.179833
2223.000000	4.122777
2222.000000	4.124789
2221.000000	4.197263
2220.000000	4.241772
2219.000000	4.177014
2218.000000	4.070858
2217.000000	4.078813
2216.000000	4.153826
2215.000000	4.025257
2214.000000	4.034641
2213.000000	4.036891
2212.000000	4.010129
2211.000000	3.992492
2210.000000	4.025203
2209.000000	3.994385
2208.000000	3.945953
2207.000000	4.012219
2206.000000	4.046529
2205.000000	4.097668
2204.000000	4.022845
2203.000000	3.818826
2202.000000	3.828173
2201.000000	3.882960
2200.000000	3.766853
2199.000000	3.805004
2198.000000	3.813356
2197.000000	3.818142
2196.000000	3.875879
2195.000000	3.629682
2194.000000	3.611039
2193.000000	3.676748
2192.000000	3.696189
2191.000000	3.613649
2190.000000	3.673018
2189.000000	3.661484
2188.000000	3.543151
2187.000000	3.595531
2186.000000	3.569486
2185.000000	3.540357
2184.000000	3.542985
2183.000000	3.633775
2182.000000	3.743112
2181.000000	3.660225
2180.000000	3.653115
2179.000000	3.560268
2178.000000	3.454574
2177.000000	3.556888
2176.000000	3.495211
2175.000000	3.690984
2174.000000	3.453948
2173.000000	3.435163
2172.000000	3.570308
2171.000000	3.509190
2170.000000	3.629549
2169.000000	3.751400
2168.000000	3.760140
2167.000000	3.580435
2166.000000	3.641505
2165.000000	3.643794
2164.000000	3.592901
2163.000000	3.733433
2162.000000	3.803381
2161.000000	3.742278
2160.000000	3.714123
2159.000000	3.734723
2158.000000	3.767730
2157.000000	3.831924
2156.000000	3.807025
2155.000000	3.774710
2154.000000	4.053997
2153.000000	4.009024
2152.000000	3.918719
2151.000000	4.076541
2150.000000	4.194633
2149.000000	4.152289
2148.000000	4.072569
2147.000000	4.157807
2146.000000	4.154716
2145.000000	4.171327
2144.000000	4.181002
2143.000000	4.267404
2142.000000	4.307237
2141.000000	4.345305
2140.000000	4.479761
2139.000000	4.464554
2138.000000	4.518260
2137.000000	4.504497
2136.000000	4.440483
2135.000000	4.386290
2134.000000	4.671621
2133.000000	4.388400
2132.000000	4.680601
2131.000000	4.840592
2130.000000	4.695546
2129.000000	4.790081
2128.000000	4.579939
2127.000000	4.554964
2126.000000	4.619314
2125.000000	4.563144
2124.000000	4.580396
2123.000000	4.572904
2122.000000	4.665274
2121.000000	4.748444
2120.000000	4.821214
2119.000000	4.797805
2118.000000	4.852709
2117.000000	4.828584
2116.000000	4.947450
2115.000000	4.842746
2114.000000	4.791282
2113.000000	4.799202
2112.000000	4.846130
2111.000000	4.773143
2110.000000	4.790884
2109.000000	4.886939
2108.000000	4.835710
2107.000000	4.871345
2106.000000	4.880320
2105.000000	4.904164
2104.000000	4.819452
2103.000000	4.771645
2102.000000	4.878325
2101.000000	4.791354
2100.000000	5.013885
2099.000000	4.994228
2098.000000	4.835815
2097.000000	4.828826
2096.000000	4.881227
2095.000000	4.853584
2094.000000	4.872678
2093.000000	4.942709
2092.000000	4.938894
2091.000000	4.818294
2090.000000	4.844147
2089.000000	4.901054
2088.000000	4.884057
2087.000000	4.846247
2086.000000	4.937811
2085.000000	4.835696
2084.000000	4.757983
2083.000000	4.748272
2082.000000	4.681071
2081.000000	4.717794
2080.000000	4.749121
2079.000000	4.668480
2078.000000	4.628482
2077.000000	4.712399
2076.000000	4.661074
2075.000000	4.548907
2074.000000	4.496277
2073.000000	4.551236
2072.000000	4.529190
2071.000000	4.543252
2070.000000	4.469157
2069.000000	4.475733
2068.000000	4.426749
2067.000000	4.384675
2066.000000	4.292236
2065.000000	4.177848
2064.000000	4.237900
2063.000000	4.163314
2062.000000	4.165827
2061.000000	4.126823
2060.000000	4.093993
2059.000000	4.018575
2058.000000	3.981414
2057.000000	3.981744
2056.000000	4.016755
2055.000000	3.927677
2054.000000	3.873546
2053.000000	3.807627
2052.000000	3.771356
2051.000000	3.722671
2050.000000	3.654170
2049.000000	3.633085
2048.000000	3.636664
2047.000000	3.659660
2046.000000	3.631555
2045.000000	3.544579
2044.000000	3.570456
2043.000000	3.599398
2042.000000	3.565526
2041.000000	3.554447
2040.000000	3.563134
2039.000000	3.591254
2038.000000	3.613113
2037.000000	3.624915
2036.000000	3.643806
2035.000000	3.725868
2034.000000	3.726904
2033.000000	3.649654
2032.000000	3.664793
2031.000000	3.711409
2030.000000	3.742007
2029.000000	3.802812
2028.000000	3.847744
2027.000000	3.865924
2026.000000	3.885156
2025.000000	3.916275
2024.000000	3.951050
2023.000000	3.987266
2022.000000	3.987526
2021.000000	3.962506
2020.000000	3.986870
2019.000000	4.016399
2018.000000	4.023457
2017.000000	4.053905
2016.000000	4.047573
2015.000000	4.006622
2014.000000	4.000369
2013.000000	3.995795
2012.000000	3.981314
2011.000000	4.026739
2010.000000	4.039550
2009.000000	3.973214
2008.000000	3.951544
2007.000000	3.938574
2006.000000	3.929381
2005.000000	3.891525
2004.000000	3.832479
2003.000000	3.816353
2002.000000	3.790780
2001.000000	3.730847
2000.000000	3.715210
1999.000000	3.734914
1998.000000	3.692374
1997.000000	3.661439
1996.000000	3.663670
1995.000000	3.655211
1994.000000	3.610256
1993.000000	3.574155
1992.000000	3.544296
1991.000000	3.516363
1990.000000	3.486831
1989.000000	3.476236
1988.000000	3.455411
1987.000000	3.416280
1986.000000	3.385319
1985.000000	3.382437
1984.000000	3.364549
1983.000000	3.349534
1982.000000	3.294675
1981.000000	3.287815
1980.000000	3.278407
1979.000000	3.256489
1978.000000	3.272990
1977.000000	3.235878
1976.000000	3.189160
1975.000000	3.183677
1974.000000	3.132361
1973.000000	3.105059
1972.000000	3.050097
1971.000000	3.043502
1970.000000	3.099323
1969.000000	3.077310
1968.000000	3.069200
1967.000000	3.016620
1966.000000	3.043714
1965.000000	2.983453
1964.000000	2.934201
1963.000000	2.944820
1962.000000	2.931374
1961.000000	2.927998
1960.000000	2.873313
1959.000000	2.864481
1958.000000	2.848857
1957.000000	2.889203
1956.000000	2.852950
1955.000000	2.832677
1954.000000	2.822902
1953.000000	2.825331
1952.000000	2.815506
1951.000000	2.837728
1950.000000	2.804410
1949.000000	2.787697
1948.000000	2.817619
1947.000000	2.789178
1946.000000	2.787053
1945.000000	2.814752
1944.000000	2.776614
1943.000000	2.783593
1942.000000	2.844587
1941.000000	2.781703
1940.000000	2.829721
1939.000000	2.821493
1938.000000	2.859033
1937.000000	2.909491
1936.000000	2.957359
1935.000000	2.883885
1934.000000	2.915768
1933.000000	2.914528
1932.000000	2.918160
1931.000000	2.920425
1930.000000	2.947143
1929.000000	3.039634
1928.000000	3.067394
1927.000000	3.189689
1926.000000	3.166499
1925.000000	3.280204
1924.000000	3.311748
1923.000000	3.321028
1922.000000	3.401544
1921.000000	3.453071
1920.000000	3.562422
1919.000000	3.552060
1918.000000	3.594492
1917.000000	3.682477
1916.000000	3.738839
1915.000000	3.953927
1914.000000	4.015665
1913.000000	4.117528
1912.000000	4.186773
1911.000000	4.220440
1910.000000	4.264686
1909.000000	4.411146
1908.000000	4.499764
1907.000000	4.646459
1906.000000	4.682054
1905.000000	4.845796
1904.000000	4.994641
1903.000000	5.171924
1902.000000	5.321432
1901.000000	5.452503
1900.000000	5.635909
1899.000000	5.721641
1898.000000	5.863371
1897.000000	5.955914
1896.000000	6.138401
1895.000000	6.312180
1894.000000	6.403073
1893.000000	6.603131
1892.000000	6.783724
1891.000000	6.915251
1890.000000	7.054173
1889.000000	7.136039
1888.000000	7.324210
1887.000000	7.490351
1886.000000	7.579436
1885.000000	7.668205
1884.000000	7.820513
1883.000000	7.906091
1882.000000	8.035565
1881.000000	8.148980
1880.000000	8.249039
1879.000000	8.373638
1878.000000	8.444142
1877.000000	8.579005
1876.000000	8.638791
1875.000000	8.760636
1874.000000	8.826308
1873.000000	8.883406
1872.000000	8.954168
1871.000000	9.018752
1870.000000	9.067867
1869.000000	9.106218
1868.000000	9.167305
1867.000000	9.184831
1866.000000	9.223278
1865.000000	9.243433
1864.000000	9.264571
1863.000000	9.270951
1862.000000	9.307715
1861.000000	9.286023
1860.000000	9.288616
1859.000000	9.305329
1858.000000	9.344565
1857.000000	9.367089
1856.000000	9.376992
1855.000000	9.396451
1854.000000	9.393059
1853.000000	9.387100
1852.000000	9.368639
1851.000000	9.374193
1850.000000	9.372107
1849.000000	9.401468
1848.000000	9.394570
1847.000000	9.380535
1846.000000	9.375624
1845.000000	9.383246
1844.000000	9.355565
1843.000000	9.348300
1842.000000	9.350817
1841.000000	9.349112
1840.000000	9.313176
1839.000000	9.319567
1838.000000	9.333818
1837.000000	9.288851
1836.000000	9.251611
1835.000000	9.240365
1834.000000	9.215682
1833.000000	9.211671
1832.000000	9.192190
1831.000000	9.174009
1830.000000	9.175576
1829.000000	9.138071
1828.000000	9.122274
1827.000000	9.115394
1826.000000	9.075790
1825.000000	9.049345
1824.000000	9.062784
1823.000000	9.048297
1822.000000	8.995930
1821.000000	8.993885
1820.000000	8.991551
1819.000000	8.971074
1818.000000	8.963504
1817.000000	8.937129
1816.000000	8.915647
1815.000000	8.920002
1814.000000	8.893905
1813.000000	8.858603
1812.000000	8.858057
1811.000000	8.861128
1810.000000	8.855659
1809.000000	8.851239
1808.000000	8.835226
1807.000000	8.818893
1806.000000	8.808346
1805.000000	8.803000
1804.000000	8.791457
1803.000000	8.788948
1802.000000	8.780503
1801.000000	8.779259
1800.000000	8.778672
1799.000000	8.761785
1798.000000	8.730233
1797.000000	8.725861
1796.000000	8.741425
1795.000000	8.743732
1794.000000	8.714280
1793.000000	8.706103
1792.000000	8.704822
1791.000000	8.693690
1790.000000	8.697707
1789.000000	8.712902
1788.000000	8.713421
1787.000000	8.716272
1786.000000	8.724628
1785.000000	8.702811
1784.000000	8.690973
1783.000000	8.706738
1782.000000	8.691362
1781.000000	8.677537
1780.000000	8.670801
1779.000000	8.689744
1778.000000	8.672290
1777.000000	8.640665
1776.000000	8.630334
1775.000000	8.603225
1774.000000	8.574660
1773.000000	8.551772
1772.000000	8.540410
1771.000000	8.518972
1770.000000	8.491227
1769.000000	8.477392
1768.000000	8.473023
1767.000000	8.461127
1766.000000	8.413518
1765.000000	8.376719
1764.000000	8.374836
1763.000000	8.359518
1762.000000	8.315497
1761.000000	8.294714
1760.000000	8.273065
1759.000000	8.220654
1758.000000	8.215539
1757.000000	8.198227
1756.000000	8.203746
1755.000000	8.177067
1754.000000	8.152071
1753.000000	8.123898
1752.000000	8.113691
1751.000000	8.093194
1750.000000	8.091953
1749.000000	8.092667
1748.000000	8.044722
1747.000000	8.014508
1746.000000	7.991297
1745.000000	7.970523
1744.000000	7.952385
1743.000000	7.932876
1742.000000	7.898072
1741.000000	7.876601
1740.000000	7.880958
1739.000000	7.850756
1738.000000	7.825449
1737.000000	7.775991
1736.000000	7.784906
1735.000000	7.791044
1734.000000	7.784637
1733.000000	7.791036
1732.000000	7.754876
1731.000000	7.783506
1730.000000	7.755375
1729.000000	7.766054
1728.000000	7.792617
1727.000000	7.789471
1726.000000	7.807595
1725.000000	7.844579
1724.000000	7.838355
1723.000000	7.824296
1722.000000	7.859654
1721.000000	7.935184
1720.000000	7.953574
1719.000000	7.979278
1718.000000	8.033858
1717.000000	8.052359
1716.000000	8.074134
1715.000000	8.111865
1714.000000	8.101819
1713.000000	8.142150
1712.000000	8.171370
1711.000000	8.185753
1710.000000	8.210115
1709.000000	8.216683
1708.000000	8.267060
1707.000000	8.256396
1706.000000	8.262643
1705.000000	8.250454
1704.000000	8.312451
1703.000000	8.263958
1702.000000	8.301195
1701.000000	8.285609
1700.000000	8.307746
1699.000000	8.279821
1698.000000	8.322110
1697.000000	8.329820
1696.000000	8.351172
1695.000000	8.334171
1694.000000	8.339217
1693.000000	8.374234
1692.000000	8.373110
1691.000000	8.410364
1690.000000	8.422200
1689.000000	8.437894
1688.000000	8.462830
1687.000000	8.533443
1686.000000	8.588617
1685.000000	8.592366
1684.000000	8.636011
1683.000000	8.681480
1682.000000	8.729515
1681.000000	8.810163
1680.000000	8.859323
1679.000000	8.874296
1678.000000	8.941088
1677.000000	8.997293
1676.000000	9.035141
1675.000000	9.119083
1674.000000	9.157554
1673.000000	9.209081
1672.000000	9.277930
1671.000000	9.317762
1670.000000	9.375536
1669.000000	9.402124
1668.000000	9.424141
1667.000000	9.469374
1666.000000	9.500537
1665.000000	9.542040
1664.000000	9.541700
1663.000000	9.558395
1662.000000	9.585451
1661.000000	9.605332
1660.000000	9.667979
1659.000000	9.697935
1658.000000	9.711230
1657.000000	9.723985
1656.000000	9.752354
1655.000000	9.753386
1654.000000	9.782989
1653.000000	9.798457
1652.000000	9.811447
1651.000000	9.786227
1650.000000	9.782877
1649.000000	9.784943
1648.000000	9.751755
1647.000000	9.748849
1646.000000	9.766011
1645.000000	9.751486
1644.000000	9.755949
1643.000000	9.741294
1642.000000	9.716913
1641.000000	9.725825
1640.000000	9.707568
1639.000000	9.694846
1638.000000	9.680547
1637.000000	9.678779
1636.000000	9.656171
1635.000000	9.617692
1634.000000	9.613493
1633.000000	9.606828
1632.000000	9.601326
1631.000000	9.592853
1630.000000	9.572466
1629.000000	9.551814
1628.000000	9.512487
1627.000000	9.497092
1626.000000	9.496062
1625.000000	9.484604
1624.000000	9.478362
1623.000000	9.450428
1622.000000	9.429459
1621.000000	9.415793
1620.000000	9.410336
1619.000000	9.392572
1618.000000	9.358910
1617.000000	9.343772
1616.000000	9.320922
1615.000000	9.300807
1614.000000	9.283765
1613.000000	9.262657
1612.000000	9.238398
1611.000000	9.211946
1610.000000	9.185665
1609.000000	9.164813
1608.000000	9.165495
1607.000000	9.156883
1606.000000	9.118614
1605.000000	9.098449
1604.000000	9.075026
1603.000000	9.053964
1602.000000	9.029420
1601.000000	9.004501
1600.000000	8.990853
1599.000000	8.962431
1598.000000	8.941895
1597.000000	8.934050
1596.000000	8.916524
1595.000000	8.891275
1594.000000	8.880020
1593.000000	8.866505
1592.000000	8.843280
1591.000000	8.818985
1590.000000	8.800808
1589.000000	8.767002
1588.000000	8.762187
1587.000000	8.760539
1586.000000	8.729718
1585.000000	8.715138
1584.000000	8.702819
1583.000000	8.676696
1582.000000	8.658159
1581.000000	8.668425
1580.000000	8.660669
1579.000000	8.625664
1578.000000	8.609983
1577.000000	8.594584
1576.000000	8.576831
1575.000000	8.566580
1574.000000	8.550462
1573.000000	8.538791
1572.000000	8.512476
1571.000000	8.504205
1570.000000	8.490613
1569.000000	8.462402
1568.000000	8.458097
1567.000000	8.426341
1566.000000	8.412578
1565.000000	8.407957
1564.000000	8.400050
1563.000000	8.396060
1562.000000	8.373538
1561.000000	8.369136
1560.000000	8.362797
1559.000000	8.342763
1558.000000	8.318219
1557.000000	8.307774
1556.000000	8.295047
1555.000000	8.295152
1554.000000	8.284862
1553.000000	8.269179
1552.000000	8.252139
1551.000000	8.228910
1550.000000	8.231431
1549.000000	8.216351
1548.000000	8.202713
1547.000000	8.179481
1546.000000	8.139145
1545.000000	8.118689
1544.000000	8.099590
1543.000000	8.059548
1542.000000	8.032450
1541.000000	8.008702
1540.000000	7.981940
1539.000000	7.948616
1538.000000	7.914566
1537.000000	7.879872
1536.000000	7.856709
1535.000000	7.818972
1534.000000	7.797036
1533.000000	7.777258
1532.000000	7.727545
1531.000000	7.705695
1530.000000	7.675506
1529.000000	7.638864
1528.000000	7.624692
1527.000000	7.599959
1526.000000	7.582625
1525.000000	7.555368
1524.000000	7.532109
1523.000000	7.504404
1522.000000	7.492805
1521.000000	7.473154
1520.000000	7.465868
1519.000000	7.455654
1518.000000	7.447648
1517.000000	7.430498
1516.000000	7.407637
1515.000000	7.400801
1514.000000	7.383166
1513.000000	7.367107
1512.000000	7.350055
1511.000000	7.360593
1510.000000	7.356448
1509.000000	7.349659
1508.000000	7.343422
1507.000000	7.330168
1506.000000	7.338786
1505.000000	7.319237
1504.000000	7.315291
1503.000000	7.336215
1502.000000	7.326668
1501.000000	7.334148
1500.000000	7.324237
1499.000000	7.329085
1498.000000	7.319239
1497.000000	7.334441
1496.000000	7.381877
1495.000000	7.367002
1494.000000	7.351204
1493.000000	7.361142
1492.000000	7.353275
1491.000000	7.364607
1490.000000	7.364113
1489.000000	7.400610
1488.000000	7.395494
1487.000000	7.420218
1486.000000	7.425926
1485.000000	7.430844
1484.000000	7.444378
1483.000000	7.455919
1482.000000	7.469106
1481.000000	7.495876
1480.000000	7.506313
1479.000000	7.507181
1478.000000	7.527127
1477.000000	7.518174
1476.000000	7.551988
1475.000000	7.565462
1474.000000	7.575741
1473.000000	7.585371
1472.000000	7.578986
1471.000000	7.581808
1470.000000	7.585577
1469.000000	7.602957
1468.000000	7.629306
1467.000000	7.652282
1466.000000	7.668576
1465.000000	7.698230
1464.000000	7.698285
1463.000000	7.683696
1462.000000	7.684995
1461.000000	7.728333
1460.000000	7.743131
1459.000000	7.736019
1458.000000	7.743266
1457.000000	7.778017
1456.000000	7.798587
1455.000000	7.793308
1454.000000	7.781868
1453.000000	7.804375
1452.000000	7.841695
1451.000000	7.844893
1450.000000	7.853694
1449.000000	7.845296
1448.000000	7.854471
1447.000000	7.872915
1446.000000	7.916982
1445.000000	7.950177
1444.000000	7.954165
1443.000000	7.944728
1442.000000	7.975035
1441.000000	7.985265
1440.000000	7.991275
1439.000000	8.055500
1438.000000	8.077163
1437.000000	8.086040
1436.000000	8.108980
1435.000000	8.130910
1434.000000	8.158666
1433.000000	8.195031
1432.000000	8.220525
1431.000000	8.238236
1430.000000	8.271719
1429.000000	8.319476
1428.000000	8.352123
