PE UV       SUBTECH     SPECTRUM    ASCII       PEDS        4.00        
   -1
TTms159342.Sample.asc
18/03/19
18:03:13.00
18/03/19
18:03:13.00
Administrator

200.000000
1
Lambda 750
750N8071901
PerkinElmer UV WinLab 6.0.4.0738 / 1.61.00 Lambda 900

0
0
3350/servo 860.8/2
0
0
UV/VIS
1
1
1
CommonBeamDepol,150mm sphere / downward view
0
0
0
0
Program
Program
3350/servo 860.8/2
3350/0.2 860.8/0.2
3350/0.2 860.8/0.2
0
1
 
 
 
0
 
860.8
319.2
860.8
Front
100
on
 
 
0
0
0
 
0
 
 
 
0
 
 
0
0
0
0
0
 
 
 
 
0
0


0
0
#HDR
-1
-1
#GR
nm
%T
1.0
0.0
2350.000000
-1.000000
2151
8
10.954073
-0.049797
#DATA
2350.000000	2.508232
2349.000000	3.127083
2348.000000	2.743128
2347.000000	3.399667
2346.000000	3.364677
2345.000000	2.699347
2344.000000	2.587038
2343.000000	2.588161
2342.000000	2.892484
2341.000000	3.161405
2340.000000	3.090064
2339.000000	3.243177
2338.000000	3.238040
2337.000000	3.427018
2336.000000	3.753805
2335.000000	3.820371
2334.000000	3.537027
2333.000000	3.565252
2332.000000	3.781034
2331.000000	3.719673
2330.000000	3.752962
2329.000000	3.624831
2328.000000	3.411047
2327.000000	3.583451
2326.000000	3.678189
2325.000000	3.622010
2324.000000	3.345717
2323.000000	3.166089
2322.000000	3.487706
2321.000000	3.224293
2320.000000	3.375063
2319.000000	3.238389
2318.000000	3.297054
2317.000000	3.573643
2316.000000	3.619894
2315.000000	3.351457
2314.000000	3.260911
2313.000000	3.217365
2312.000000	2.966198
2311.000000	3.173590
2310.000000	3.109598
2309.000000	3.191425
2308.000000	2.968818
2307.000000	3.014613
2306.000000	2.982120
2305.000000	3.013231
2304.000000	3.142041
2303.000000	2.991798
2302.000000	2.898714
2301.000000	2.926518
2300.000000	2.710799
2299.000000	2.567740
2298.000000	2.694364
2297.000000	2.994626
2296.000000	3.025811
2295.000000	3.068935
2294.000000	2.995587
2293.000000	2.885885
2292.000000	2.763494
2291.000000	2.917357
2290.000000	2.728027
2289.000000	2.634465
2288.000000	2.750234
2287.000000	2.947968
2286.000000	2.854128
2285.000000	2.663621
2284.000000	2.583585
2283.000000	2.524751
2282.000000	2.621641
2281.000000	2.727139
2280.000000	2.667259
2279.000000	2.643558
2278.000000	2.524589
2277.000000	2.518921
2276.000000	2.872054
2275.000000	2.978479
2274.000000	2.765492
2273.000000	2.854463
2272.000000	3.001245
2271.000000	2.899914
2270.000000	2.763999
2269.000000	2.764991
2268.000000	2.721589
2267.000000	2.796120
2266.000000	2.721571
2265.000000	2.817878
2264.000000	2.958938
2263.000000	2.960989
2262.000000	3.076624
2261.000000	3.024743
2260.000000	3.095261
2259.000000	3.152869
2258.000000	3.150937
2257.000000	3.220178
2256.000000	3.292334
2255.000000	3.307834
2254.000000	3.437314
2253.000000	3.428808
2252.000000	3.394043
2251.000000	3.425594
2250.000000	3.389203
2249.000000	3.421391
2248.000000	3.490719
2247.000000	3.711283
2246.000000	3.696681
2245.000000	3.728270
2244.000000	3.993324
2243.000000	4.089710
2242.000000	3.977843
2241.000000	3.935043
2240.000000	3.995257
2239.000000	3.988146
2238.000000	4.083947
2237.000000	4.117797
2236.000000	4.089506
2235.000000	4.196551
2234.000000	4.191121
2233.000000	4.175572
2232.000000	4.216961
2231.000000	4.209785
2230.000000	4.126034
2229.000000	4.123565
2228.000000	4.250692
2227.000000	4.259203
2226.000000	4.153015
2225.000000	4.126349
2224.000000	4.082845
2223.000000	4.126727
2222.000000	4.212186
2221.000000	4.214610
2220.000000	4.173423
2219.000000	4.218401
2218.000000	4.188602
2217.000000	4.131834
2216.000000	4.104576
2215.000000	4.047631
2214.000000	4.005895
2213.000000	4.069626
2212.000000	4.192127
2211.000000	4.221022
2210.000000	4.031178
2209.000000	3.965014
2208.000000	3.934906
2207.000000	4.004514
2206.000000	4.024134
2205.000000	4.022517
2204.000000	3.923542
2203.000000	3.869476
2202.000000	3.820172
2201.000000	3.754251
2200.000000	3.710904
2199.000000	3.835816
2198.000000	3.903443
2197.000000	3.878919
2196.000000	3.801034
2195.000000	3.703385
2194.000000	3.630692
2193.000000	3.549796
2192.000000	3.585440
2191.000000	3.504485
2190.000000	3.642651
2189.000000	3.649445
2188.000000	3.588435
2187.000000	3.641095
2186.000000	3.655022
2185.000000	3.478272
2184.000000	3.512972
2183.000000	3.443077
2182.000000	3.496128
2181.000000	3.524616
2180.000000	3.598795
2179.000000	3.658437
2178.000000	3.493608
2177.000000	3.459328
2176.000000	3.547065
2175.000000	3.592770
2174.000000	3.577524
2173.000000	3.528921
2172.000000	3.516533
2171.000000	3.531907
2170.000000	3.675377
2169.000000	3.703090
2168.000000	3.721763
2167.000000	3.721417
2166.000000	3.522927
2165.000000	3.783481
2164.000000	3.771361
2163.000000	3.653799
2162.000000	3.789358
2161.000000	3.603578
2160.000000	3.688806
2159.000000	3.852725
2158.000000	3.804292
2157.000000	3.801606
2156.000000	4.085327
2155.000000	3.895646
2154.000000	3.930498
2153.000000	4.243389
2152.000000	4.030562
2151.000000	4.015479
2150.000000	4.150546
2149.000000	4.325171
2148.000000	4.178517
2147.000000	4.217697
2146.000000	4.221403
2145.000000	4.181515
2144.000000	4.245400
2143.000000	4.333968
2142.000000	4.297569
2141.000000	4.412642
2140.000000	4.361475
2139.000000	4.450533
2138.000000	4.613299
2137.000000	4.678080
2136.000000	4.472544
2135.000000	4.594647
2134.000000	4.546325
2133.000000	4.430886
2132.000000	4.771301
2131.000000	4.893062
2130.000000	4.719335
2129.000000	4.872610
2128.000000	4.649053
2127.000000	4.671370
2126.000000	4.689186
2125.000000	4.641058
2124.000000	4.683248
2123.000000	4.669074
2122.000000	4.734343
2121.000000	4.770274
2120.000000	4.824339
2119.000000	4.834854
2118.000000	4.616417
2117.000000	4.724372
2116.000000	4.928196
2115.000000	4.904402
2114.000000	4.749723
2113.000000	4.825037
2112.000000	4.809894
2111.000000	4.785055
2110.000000	4.831234
2109.000000	4.890372
2108.000000	4.948738
2107.000000	5.029604
2106.000000	4.843856
2105.000000	4.857597
2104.000000	4.912887
2103.000000	4.875436
2102.000000	4.917725
2101.000000	4.973071
2100.000000	4.882717
2099.000000	4.910912
2098.000000	4.868237
2097.000000	4.875444
2096.000000	4.834214
2095.000000	4.897322
2094.000000	4.916417
2093.000000	4.851987
2092.000000	4.972662
2091.000000	4.946105
2090.000000	4.926749
2089.000000	4.886604
2088.000000	4.953174
2087.000000	4.987093
2086.000000	4.906894
2085.000000	4.900647
2084.000000	4.867149
2083.000000	4.903208
2082.000000	4.914279
2081.000000	4.859092
2080.000000	4.804310
2079.000000	4.797494
2078.000000	4.714350
2077.000000	4.713006
2076.000000	4.671400
2075.000000	4.597864
2074.000000	4.598281
2073.000000	4.600475
2072.000000	4.648090
2071.000000	4.549018
2070.000000	4.503671
2069.000000	4.502240
2068.000000	4.392559
2067.000000	4.394490
2066.000000	4.351843
2065.000000	4.302455
2064.000000	4.223522
2063.000000	4.116957
2062.000000	4.099508
2061.000000	4.159207
2060.000000	4.113525
2059.000000	4.050552
2058.000000	4.023186
2057.000000	3.978608
2056.000000	4.024751
2055.000000	4.018455
2054.000000	3.898139
2053.000000	3.860279
2052.000000	3.871951
2051.000000	3.742302
2050.000000	3.691410
2049.000000	3.711294
2048.000000	3.719046
2047.000000	3.738581
2046.000000	3.653332
2045.000000	3.628089
2044.000000	3.640789
2043.000000	3.626941
2042.000000	3.629831
2041.000000	3.659874
2040.000000	3.659597
2039.000000	3.665823
2038.000000	3.646448
2037.000000	3.671722
2036.000000	3.659304
2035.000000	3.662933
2034.000000	3.733086
2033.000000	3.761825
2032.000000	3.797118
2031.000000	3.814258
2030.000000	3.841636
2029.000000	3.877607
2028.000000	3.900931
2027.000000	3.951122
2026.000000	3.959463
2025.000000	3.984505
2024.000000	4.003252
2023.000000	4.008354
2022.000000	4.048252
2021.000000	4.042476
2020.000000	4.047595
2019.000000	4.068609
2018.000000	4.086995
2017.000000	4.070327
2016.000000	4.074954
2015.000000	4.098878
2014.000000	4.095843
2013.000000	4.066556
2012.000000	4.021967
2011.000000	4.020554
2010.000000	4.024337
2009.000000	4.028688
2008.000000	4.004192
2007.000000	3.954401
2006.000000	3.937294
2005.000000	3.939823
2004.000000	3.919744
2003.000000	3.904643
2002.000000	3.909826
2001.000000	3.869139
2000.000000	3.833315
1999.000000	3.821890
1998.000000	3.786087
1997.000000	3.732805
1996.000000	3.783061
1995.000000	3.760385
1994.000000	3.688912
1993.000000	3.641973
1992.000000	3.610685
1991.000000	3.596748
1990.000000	3.561473
1989.000000	3.533413
1988.000000	3.508108
1987.000000	3.509738
1986.000000	3.456821
1985.000000	3.416962
1984.000000	3.403746
1983.000000	3.380204
1982.000000	3.394427
1981.000000	3.394646
1980.000000	3.328469
1979.000000	3.298149
1978.000000	3.306014
1977.000000	3.260060
1976.000000	3.270240
1975.000000	3.234389
1974.000000	3.205596
1973.000000	3.170668
1972.000000	3.191993
1971.000000	3.163840
1970.000000	3.132421
1969.000000	3.097110
1968.000000	3.050719
1967.000000	3.053791
1966.000000	3.083124
1965.000000	3.065407
1964.000000	3.013904
1963.000000	3.026367
1962.000000	2.983365
1961.000000	2.974297
1960.000000	2.964421
1959.000000	2.936887
1958.000000	2.927224
1957.000000	2.941598
1956.000000	2.882402
1955.000000	2.871461
1954.000000	2.903318
1953.000000	2.856589
1952.000000	2.855501
1951.000000	2.945650
1950.000000	2.888460
1949.000000	2.870727
1948.000000	2.855484
1947.000000	2.845011
1946.000000	2.865994
1945.000000	2.882021
1944.000000	2.806551
1943.000000	2.832914
1942.000000	2.858999
1941.000000	2.884060
1940.000000	2.889738
1939.000000	2.880634
1938.000000	2.886636
1937.000000	2.942548
1936.000000	3.010281
1935.000000	2.986428
1934.000000	3.018140
1933.000000	3.046454
1932.000000	3.056511
1931.000000	3.072910
1930.000000	3.188960
1929.000000	3.117503
1928.000000	3.172064
1927.000000	3.200234
1926.000000	3.145824
1925.000000	3.280001
1924.000000	3.351169
1923.000000	3.375879
1922.000000	3.484167
1921.000000	3.603090
1920.000000	3.610567
1919.000000	3.702592
1918.000000	3.724417
1917.000000	3.856080
1916.000000	3.834748
1915.000000	3.949669
1914.000000	4.000045
1913.000000	4.175637
1912.000000	4.203209
1911.000000	4.343351
1910.000000	4.481877
1909.000000	4.573639
1908.000000	4.639016
1907.000000	4.713200
1906.000000	4.775382
1905.000000	4.924435
1904.000000	5.022246
1903.000000	5.206907
1902.000000	5.343740
1901.000000	5.472776
1900.000000	5.690864
1899.000000	5.779784
1898.000000	5.935857
1897.000000	6.072400
1896.000000	6.219131
1895.000000	6.409052
1894.000000	6.497924
1893.000000	6.656872
1892.000000	6.812543
1891.000000	6.914845
1890.000000	7.095376
1889.000000	7.274919
1888.000000	7.413763
1887.000000	7.507392
1886.000000	7.622736
1885.000000	7.756193
1884.000000	7.889227
1883.000000	8.025175
1882.000000	8.132544
1881.000000	8.234920
1880.000000	8.360002
1879.000000	8.463969
1878.000000	8.544776
1877.000000	8.646386
1876.000000	8.746415
1875.000000	8.782510
1874.000000	8.853747
1873.000000	8.945263
1872.000000	8.993330
1871.000000	9.072497
1870.000000	9.125059
1869.000000	9.136377
1868.000000	9.234813
1867.000000	9.243971
1866.000000	9.255693
1865.000000	9.251839
1864.000000	9.282193
1863.000000	9.288272
1862.000000	9.306701
1861.000000	9.339831
1860.000000	9.397437
1859.000000	9.378058
1858.000000	9.367766
1857.000000	9.376004
1856.000000	9.396446
1855.000000	9.423508
1854.000000	9.448596
1853.000000	9.417190
1852.000000	9.455975
1851.000000	9.483573
1850.000000	9.461124
1849.000000	9.468910
1848.000000	9.463545
1847.000000	9.414476
1846.000000	9.418276
1845.000000	9.439062
1844.000000	9.402252
1843.000000	9.386782
1842.000000	9.403386
1841.000000	9.415251
1840.000000	9.408822
1839.000000	9.382065
1838.000000	9.352359
1837.000000	9.322386
1836.000000	9.300148
1835.000000	9.298241
1834.000000	9.278621
1833.000000	9.257596
1832.000000	9.233869
1831.000000	9.224707
1830.000000	9.224551
1829.000000	9.197900
1828.000000	9.159290
1827.000000	9.125839
1826.000000	9.117062
1825.000000	9.119848
1824.000000	9.105908
1823.000000	9.085142
1822.000000	9.055709
1821.000000	9.043015
1820.000000	9.036008
1819.000000	9.028201
1818.000000	9.015782
1817.000000	8.974393
1816.000000	8.963778
1815.000000	8.975657
1814.000000	8.955748
1813.000000	8.942767
1812.000000	8.937551
1811.000000	8.922655
1810.000000	8.902373
1809.000000	8.890033
1808.000000	8.865896
1807.000000	8.853937
1806.000000	8.843296
1805.000000	8.842828
1804.000000	8.841846
1803.000000	8.838324
1802.000000	8.844014
1801.000000	8.825296
1800.000000	8.793406
1799.000000	8.781094
1798.000000	8.769762
1797.000000	8.767012
1796.000000	8.772620
1795.000000	8.787518
1794.000000	8.791394
1793.000000	8.781009
1792.000000	8.784919
1791.000000	8.765453
1790.000000	8.758093
1789.000000	8.759965
1788.000000	8.765054
1787.000000	8.765872
1786.000000	8.756543
1785.000000	8.755667
1784.000000	8.769232
1783.000000	8.749422
1782.000000	8.741562
1781.000000	8.734141
1780.000000	8.714292
1779.000000	8.694724
1778.000000	8.668835
1777.000000	8.660383
1776.000000	8.662149
1775.000000	8.654447
1774.000000	8.639294
1773.000000	8.608893
1772.000000	8.594072
1771.000000	8.577004
1770.000000	8.519884
1769.000000	8.489279
1768.000000	8.475970
1767.000000	8.453708
1766.000000	8.421748
1765.000000	8.427329
1764.000000	8.422504
1763.000000	8.388785
1762.000000	8.366822
1761.000000	8.346557
1760.000000	8.295628
1759.000000	8.281635
1758.000000	8.266164
1757.000000	8.244065
1756.000000	8.225088
1755.000000	8.228690
1754.000000	8.202989
1753.000000	8.159872
1752.000000	8.137060
1751.000000	8.136985
1750.000000	8.109025
1749.000000	8.106688
1748.000000	8.080587
1747.000000	8.041643
1746.000000	8.041598
1745.000000	8.002828
1744.000000	7.978599
1743.000000	7.950150
1742.000000	7.934251
1741.000000	7.923948
1740.000000	7.899248
1739.000000	7.861730
1738.000000	7.866592
1737.000000	7.833077
1736.000000	7.835093
1735.000000	7.827720
1734.000000	7.834230
1733.000000	7.812174
1732.000000	7.813194
1731.000000	7.800069
1730.000000	7.785247
1729.000000	7.777737
1728.000000	7.813749
1727.000000	7.835907
1726.000000	7.871614
1725.000000	7.855449
1724.000000	7.882642
1723.000000	7.909840
1722.000000	7.933712
1721.000000	7.963730
1720.000000	7.965965
1719.000000	8.020629
1718.000000	8.055906
1717.000000	8.059165
1716.000000	8.111524
1715.000000	8.109833
1714.000000	8.141145
1713.000000	8.186755
1712.000000	8.166087
1711.000000	8.215925
1710.000000	8.245577
1709.000000	8.260671
1708.000000	8.292249
1707.000000	8.313782
1706.000000	8.310397
1705.000000	8.294543
1704.000000	8.329008
1703.000000	8.326739
1702.000000	8.330666
1701.000000	8.314365
1700.000000	8.363324
1699.000000	8.304808
1698.000000	8.351870
1697.000000	8.342416
1696.000000	8.377181
1695.000000	8.382512
1694.000000	8.387269
1693.000000	8.404407
1692.000000	8.394035
1691.000000	8.404167
1690.000000	8.440182
1689.000000	8.462578
1688.000000	8.514436
1687.000000	8.534866
1686.000000	8.573280
1685.000000	8.601505
1684.000000	8.677555
1683.000000	8.729220
1682.000000	8.784060
1681.000000	8.858819
1680.000000	8.884921
1679.000000	8.936773
1678.000000	8.994319
1677.000000	9.056817
1676.000000	9.108369
1675.000000	9.163167
1674.000000	9.221336
1673.000000	9.267290
1672.000000	9.290322
1671.000000	9.377384
1670.000000	9.430889
1669.000000	9.458886
1668.000000	9.477757
1667.000000	9.543607
1666.000000	9.568990
1665.000000	9.577075
1664.000000	9.610036
1663.000000	9.617896
1662.000000	9.664339
1661.000000	9.695301
1660.000000	9.735809
1659.000000	9.744842
1658.000000	9.772055
1657.000000	9.792714
1656.000000	9.799461
1655.000000	9.821822
1654.000000	9.828782
1653.000000	9.829830
1652.000000	9.850843
1651.000000	9.810694
1650.000000	9.824704
1649.000000	9.822202
1648.000000	9.822003
1647.000000	9.820427
1646.000000	9.803780
1645.000000	9.786417
1644.000000	9.773820
1643.000000	9.782719
1642.000000	9.781468
1641.000000	9.769678
1640.000000	9.765035
1639.000000	9.745608
1638.000000	9.723388
1637.000000	9.729239
1636.000000	9.710995
1635.000000	9.701849
1634.000000	9.679987
1633.000000	9.655252
1632.000000	9.641731
1631.000000	9.638947
1630.000000	9.615818
1629.000000	9.588977
1628.000000	9.573607
1627.000000	9.572618
1626.000000	9.547632
1625.000000	9.536271
1624.000000	9.512364
1623.000000	9.513059
1622.000000	9.507836
1621.000000	9.476098
1620.000000	9.445158
1619.000000	9.426587
1618.000000	9.406835
1617.000000	9.386619
1616.000000	9.371485
1615.000000	9.344465
1614.000000	9.325594
1613.000000	9.319614
1612.000000	9.303062
1611.000000	9.272040
1610.000000	9.247903
1609.000000	9.234157
1608.000000	9.222953
1607.000000	9.190890
1606.000000	9.154448
1605.000000	9.135805
1604.000000	9.118171
1603.000000	9.097619
1602.000000	9.088002
1601.000000	9.073234
1600.000000	9.049325
1599.000000	9.022928
1598.000000	8.997221
1597.000000	8.985721
1596.000000	8.963823
1595.000000	8.935122
1594.000000	8.917980
1593.000000	8.912585
1592.000000	8.901346
1591.000000	8.883042
1590.000000	8.868011
1589.000000	8.842730
1588.000000	8.820553
1587.000000	8.810688
1586.000000	8.792354
1585.000000	8.785281
1584.000000	8.772450
1583.000000	8.750986
1582.000000	8.737126
1581.000000	8.724358
1580.000000	8.712442
1579.000000	8.699359
1578.000000	8.678893
1577.000000	8.647051
1576.000000	8.627577
1575.000000	8.609817
1574.000000	8.593091
1573.000000	8.586294
1572.000000	8.574897
1571.000000	8.554751
1570.000000	8.544914
1569.000000	8.526344
1568.000000	8.510070
1567.000000	8.499624
1566.000000	8.481386
1565.000000	8.472602
1564.000000	8.469363
1563.000000	8.456952
1562.000000	8.435140
1561.000000	8.425669
1560.000000	8.403999
1559.000000	8.402439
1558.000000	8.400428
1557.000000	8.382067
1556.000000	8.365987
1555.000000	8.355532
1554.000000	8.335803
1553.000000	8.335743
1552.000000	8.323778
1551.000000	8.311312
1550.000000	8.294044
1549.000000	8.271853
1548.000000	8.253145
1547.000000	8.238235
1546.000000	8.215765
1545.000000	8.169629
1544.000000	8.151137
1543.000000	8.115049
1542.000000	8.088969
1541.000000	8.063498
1540.000000	8.039873
1539.000000	8.007367
1538.000000	7.981628
1537.000000	7.948147
1536.000000	7.918285
1535.000000	7.893132
1534.000000	7.861969
1533.000000	7.833876
1532.000000	7.793392
1531.000000	7.761506
1530.000000	7.736708
1529.000000	7.721461
1528.000000	7.744321
1527.000000	7.799777
1526.000000	7.804778
1525.000000	7.759169
1524.000000	7.706267
1523.000000	7.653061
1522.000000	7.642686
1521.000000	7.623443
1520.000000	7.604170
1519.000000	7.558451
1518.000000	7.547704
1517.000000	7.540394
1516.000000	7.503136
1515.000000	7.481914
1514.000000	7.496126
1513.000000	7.501459
1512.000000	7.485119
1511.000000	7.471128
1510.000000	7.452552
1509.000000	7.447814
1508.000000	7.449374
1507.000000	7.411764
1506.000000	7.412479
1505.000000	7.403990
1504.000000	7.380448
1503.000000	7.374781
1502.000000	7.369500
1501.000000	7.354547
1500.000000	7.352656
1499.000000	7.358316
1498.000000	7.333852
1497.000000	7.364889
1496.000000	7.367972
1495.000000	7.370757
1494.000000	7.376372
1493.000000	7.371492
1492.000000	7.370934
1491.000000	7.385511
1490.000000	7.410392
1489.000000	7.411161
1488.000000	7.424717
1487.000000	7.424379
1486.000000	7.449572
1485.000000	7.476407
1484.000000	7.469037
1483.000000	7.483517
1482.000000	7.530996
1481.000000	7.524082
1480.000000	7.527921
1479.000000	7.557605
1478.000000	7.563449
1477.000000	7.574983
1476.000000	7.587394
1475.000000	7.623898
1474.000000	7.632764
1473.000000	7.630821
1472.000000	7.626976
1471.000000	7.641865
1470.000000	7.660654
1469.000000	7.659366
1468.000000	7.693720
1467.000000	7.708191
1466.000000	7.716258
1465.000000	7.728764
1464.000000	7.727807
1463.000000	7.758193
1462.000000	7.774171
1461.000000	7.777530
1460.000000	7.753375
1459.000000	7.761692
1458.000000	7.795816
1457.000000	7.814434
1456.000000	7.813296
1455.000000	7.817653
1454.000000	7.827120
1453.000000	7.873054
1452.000000	7.889980
1451.000000	7.879176
1450.000000	7.879661
1449.000000	7.885876
1448.000000	7.907828
1447.000000	7.937013
1446.000000	7.955525
1445.000000	7.965188
1444.000000	7.968669
1443.000000	7.975155
1442.000000	8.010035
1441.000000	8.053929
1440.000000	8.069357
1439.000000	8.096574
1438.000000	8.118138
1437.000000	8.124279
1436.000000	8.137984
1435.000000	8.160929
1434.000000	8.187876
1433.000000	8.210040
1432.000000	8.239386
1431.000000	8.272712
1430.000000	8.296865
1429.000000	8.342594
1428.000000	8.366520
