PE UV       SUBTECH     SPECTRUM    ASCII       PEDS        4.00        
   -1
TTms159332.Sample.asc
18/03/19
17:00:11.00
18/03/19
17:00:11.00
Administrator

200.000000
1
Lambda 750
750N8071901
PerkinElmer UV WinLab 6.0.4.0738 / 1.61.00 Lambda 900

0
0
3350/servo 860.8/2
0
0
UV/VIS
1
1
1
CommonBeamDepol,150mm sphere / downward view
0
0
0
0
Program
Program
3350/servo 860.8/2
3350/0.2 860.8/0.2
3350/0.2 860.8/0.2
0
1
 
 
 
0
 
860.8
319.2
860.8
Front
100
on
 
 
0
0
0
 
0
 
 
 
0
 
 
0
0
0
0
0
 
 
 
 
0
0


0
0
#HDR
-1
-1
#GR
nm
%T
1.0
0.0
2350.000000
-1.000000
2151
8
9.325960
-0.062953
#DATA
2350.000000	2.921091
2349.000000	2.700539
2348.000000	2.506226
2347.000000	3.615629
2346.000000	2.701477
2345.000000	2.533115
2344.000000	2.471365
2343.000000	2.569724
2342.000000	2.597374
2341.000000	2.512238
2340.000000	2.740282
2339.000000	2.938047
2338.000000	3.088871
2337.000000	3.213644
2336.000000	3.484146
2335.000000	3.312107
2334.000000	2.981966
2333.000000	3.649407
2332.000000	3.217031
2331.000000	3.254726
2330.000000	3.035190
2329.000000	3.377140
2328.000000	3.344765
2327.000000	3.052741
2326.000000	3.201166
2325.000000	3.345954
2324.000000	3.048156
2323.000000	3.357467
2322.000000	3.007312
2321.000000	2.984888
2320.000000	2.898571
2319.000000	2.966048
2318.000000	2.918884
2317.000000	2.999481
2316.000000	3.045449
2315.000000	2.991750
2314.000000	2.958546
2313.000000	3.055629
2312.000000	2.793592
2311.000000	2.968388
2310.000000	2.812574
2309.000000	2.713614
2308.000000	2.700123
2307.000000	2.790952
2306.000000	2.791466
2305.000000	2.721377
2304.000000	2.847206
2303.000000	2.711963
2302.000000	2.710965
2301.000000	2.681621
2300.000000	2.674011
2299.000000	2.580230
2298.000000	2.528036
2297.000000	2.443686
2296.000000	2.504616
2295.000000	2.450709
2294.000000	2.731714
2293.000000	2.784631
2292.000000	2.799466
2291.000000	2.679397
2290.000000	2.660984
2289.000000	2.839366
2288.000000	2.661942
2287.000000	2.589962
2286.000000	2.501679
2285.000000	2.500025
2284.000000	2.763967
2283.000000	2.542072
2282.000000	2.463230
2281.000000	2.562353
2280.000000	2.583533
2279.000000	2.587646
2278.000000	2.804300
2277.000000	2.641739
2276.000000	2.552926
2275.000000	2.628546
2274.000000	2.663119
2273.000000	2.658438
2272.000000	2.513527
2271.000000	2.449084
2270.000000	2.524242
2269.000000	2.677935
2268.000000	2.658395
2267.000000	2.561707
2266.000000	2.593932
2265.000000	2.649908
2264.000000	2.708697
2263.000000	2.812569
2262.000000	2.729952
2261.000000	2.772040
2260.000000	2.820676
2259.000000	2.809830
2258.000000	2.811300
2257.000000	2.933444
2256.000000	3.038633
2255.000000	2.978035
2254.000000	3.059918
2253.000000	3.150076
2252.000000	3.074348
2251.000000	3.027208
2250.000000	3.159442
2249.000000	3.257931
2248.000000	3.320499
2247.000000	3.366747
2246.000000	3.463478
2245.000000	3.598267
2244.000000	3.648621
2243.000000	3.636075
2242.000000	3.602582
2241.000000	3.618373
2240.000000	3.602501
2239.000000	3.663011
2238.000000	3.800947
2237.000000	3.737322
2236.000000	3.747675
2235.000000	3.839607
2234.000000	3.821212
2233.000000	3.757833
2232.000000	3.684053
2231.000000	3.725385
2230.000000	3.773136
2229.000000	3.804957
2228.000000	3.854153
2227.000000	3.882662
2226.000000	3.772523
2225.000000	3.755205
2224.000000	3.887651
2223.000000	3.891038
2222.000000	3.911873
2221.000000	3.854296
2220.000000	3.857640
2219.000000	3.805437
2218.000000	3.786689
2217.000000	3.897951
2216.000000	3.852854
2215.000000	3.810833
2214.000000	3.825322
2213.000000	3.973954
2212.000000	3.997665
2211.000000	3.819068
2210.000000	3.714271
2209.000000	3.748376
2208.000000	3.741824
2207.000000	3.614079
2206.000000	3.660137
2205.000000	3.632581
2204.000000	3.600426
2203.000000	3.630205
2202.000000	3.643641
2201.000000	3.703719
2200.000000	3.659718
2199.000000	3.717942
2198.000000	3.627912
2197.000000	3.628415
2196.000000	3.528388
2195.000000	3.513660
2194.000000	3.602631
2193.000000	3.467490
2192.000000	3.396509
2191.000000	3.384384
2190.000000	3.357300
2189.000000	3.337424
2188.000000	3.344429
2187.000000	3.325177
2186.000000	3.295789
2185.000000	3.232764
2184.000000	3.349566
2183.000000	3.319720
2182.000000	3.415486
2181.000000	3.344884
2180.000000	3.255272
2179.000000	3.211672
2178.000000	3.316840
2177.000000	3.418442
2176.000000	3.327016
2175.000000	3.253570
2174.000000	3.317742
2173.000000	3.329091
2172.000000	3.400913
2171.000000	3.386415
2170.000000	3.349740
2169.000000	3.408278
2168.000000	3.426159
2167.000000	3.431179
2166.000000	3.446936
2165.000000	3.365025
2164.000000	3.308977
2163.000000	3.371193
2162.000000	3.451483
2161.000000	3.397999
2160.000000	3.496559
2159.000000	3.560045
2158.000000	3.413690
2157.000000	3.609017
2156.000000	3.626295
2155.000000	3.562441
2154.000000	3.742430
2153.000000	3.993191
2152.000000	3.731239
2151.000000	3.735298
2150.000000	3.803801
2149.000000	3.846165
2148.000000	3.699231
2147.000000	3.875296
2146.000000	3.632009
2145.000000	3.815883
2144.000000	3.961305
2143.000000	3.942635
2142.000000	3.980342
2141.000000	3.988489
2140.000000	4.136095
2139.000000	4.172627
2138.000000	4.236071
2137.000000	4.246591
2136.000000	4.109292
2135.000000	4.248730
2134.000000	4.269727
2133.000000	4.026458
2132.000000	4.250686
2131.000000	4.136936
2130.000000	4.336808
2129.000000	4.388725
2128.000000	4.358166
2127.000000	4.292294
2126.000000	4.306654
2125.000000	4.166116
2124.000000	4.255388
2123.000000	4.261464
2122.000000	4.433631
2121.000000	4.480312
2120.000000	4.447830
2119.000000	4.208957
2118.000000	4.349340
2117.000000	4.220128
2116.000000	4.382433
2115.000000	4.483725
2114.000000	4.346238
2113.000000	4.404911
2112.000000	4.441975
2111.000000	4.290317
2110.000000	4.248286
2109.000000	4.472553
2108.000000	4.362402
2107.000000	4.372298
2106.000000	4.460731
2105.000000	4.343342
2104.000000	4.423818
2103.000000	4.631508
2102.000000	4.496448
2101.000000	4.486980
2100.000000	4.535193
2099.000000	4.440403
2098.000000	4.438571
2097.000000	4.502090
2096.000000	4.469125
2095.000000	4.372569
2094.000000	4.394885
2093.000000	4.408286
2092.000000	4.498194
2091.000000	4.429502
2090.000000	4.452061
2089.000000	4.462284
2088.000000	4.389730
2087.000000	4.420577
2086.000000	4.420802
2085.000000	4.492124
2084.000000	4.505151
2083.000000	4.439108
2082.000000	4.426919
2081.000000	4.356769
2080.000000	4.224619
2079.000000	4.314223
2078.000000	4.261949
2077.000000	4.279980
2076.000000	4.180713
2075.000000	4.231601
2074.000000	4.149017
2073.000000	4.153885
2072.000000	4.145397
2071.000000	4.123746
2070.000000	4.182414
2069.000000	4.049801
2068.000000	3.991782
2067.000000	3.942089
2066.000000	3.817199
2065.000000	3.811313
2064.000000	3.823891
2063.000000	3.799746
2062.000000	3.774597
2061.000000	3.707148
2060.000000	3.714296
2059.000000	3.670572
2058.000000	3.561668
2057.000000	3.531830
2056.000000	3.560641
2055.000000	3.581867
2054.000000	3.483499
2053.000000	3.461037
2052.000000	3.490237
2051.000000	3.418090
2050.000000	3.384889
2049.000000	3.301911
2048.000000	3.189288
2047.000000	3.221388
2046.000000	3.250400
2045.000000	3.239691
2044.000000	3.252999
2043.000000	3.238608
2042.000000	3.248863
2041.000000	3.238469
2040.000000	3.255103
2039.000000	3.314357
2038.000000	3.286343
2037.000000	3.278016
2036.000000	3.317137
2035.000000	3.316331
2034.000000	3.309166
2033.000000	3.291154
2032.000000	3.345833
2031.000000	3.414715
2030.000000	3.428121
2029.000000	3.425591
2028.000000	3.451521
2027.000000	3.472453
2026.000000	3.524163
2025.000000	3.530822
2024.000000	3.498157
2023.000000	3.523215
2022.000000	3.590021
2021.000000	3.580800
2020.000000	3.545067
2019.000000	3.553810
2018.000000	3.578895
2017.000000	3.596015
2016.000000	3.597009
2015.000000	3.624117
2014.000000	3.643305
2013.000000	3.606201
2012.000000	3.590289
2011.000000	3.618164
2010.000000	3.565716
2009.000000	3.526890
2008.000000	3.540098
2007.000000	3.495307
2006.000000	3.446971
2005.000000	3.418896
2004.000000	3.402747
2003.000000	3.406668
2002.000000	3.394368
2001.000000	3.373397
2000.000000	3.395801
1999.000000	3.381121
1998.000000	3.318537
1997.000000	3.279732
1996.000000	3.272501
1995.000000	3.257052
1994.000000	3.222660
1993.000000	3.176485
1992.000000	3.164640
1991.000000	3.139302
1990.000000	3.091687
1989.000000	3.078940
1988.000000	3.066941
1987.000000	3.043466
1986.000000	3.048117
1985.000000	3.028454
1984.000000	3.008729
1983.000000	2.980896
1982.000000	2.958137
1981.000000	2.946705
1980.000000	2.929496
1979.000000	2.885614
1978.000000	2.888799
1977.000000	2.849479
1976.000000	2.799507
1975.000000	2.792209
1974.000000	2.827535
1973.000000	2.791334
1972.000000	2.759907
1971.000000	2.760680
1970.000000	2.781847
1969.000000	2.760421
1968.000000	2.710961
1967.000000	2.675177
1966.000000	2.701314
1965.000000	2.677978
1964.000000	2.643004
1963.000000	2.658036
1962.000000	2.633444
1961.000000	2.595986
1960.000000	2.607910
1959.000000	2.553630
1958.000000	2.558124
1957.000000	2.565597
1956.000000	2.526646
1955.000000	2.519763
1954.000000	2.515350
1953.000000	2.482909
1952.000000	2.491788
1951.000000	2.575184
1950.000000	2.540079
1949.000000	2.515464
1948.000000	2.488207
1947.000000	2.501185
1946.000000	2.501834
1945.000000	2.503467
1944.000000	2.492457
1943.000000	2.541048
1942.000000	2.502753
1941.000000	2.518252
1940.000000	2.480872
1939.000000	2.548514
1938.000000	2.589600
1937.000000	2.591893
1936.000000	2.610019
1935.000000	2.646646
1934.000000	2.634297
1933.000000	2.662136
1932.000000	2.626759
1931.000000	2.688352
1930.000000	2.690517
1929.000000	2.766889
1928.000000	2.832798
1927.000000	2.828543
1926.000000	2.900462
1925.000000	2.870888
1924.000000	2.948539
1923.000000	2.974792
1922.000000	3.045504
1921.000000	3.154351
1920.000000	3.135199
1919.000000	3.193113
1918.000000	3.287175
1917.000000	3.293695
1916.000000	3.330261
1915.000000	3.404131
1914.000000	3.601014
1913.000000	3.657422
1912.000000	3.723402
1911.000000	3.784878
1910.000000	3.822697
1909.000000	3.868691
1908.000000	3.976937
1907.000000	4.112030
1906.000000	4.248278
1905.000000	4.401764
1904.000000	4.433107
1903.000000	4.578327
1902.000000	4.672059
1901.000000	4.862775
1900.000000	4.963575
1899.000000	5.084404
1898.000000	5.232792
1897.000000	5.372163
1896.000000	5.503111
1895.000000	5.606184
1894.000000	5.713555
1893.000000	5.914842
1892.000000	6.018487
1891.000000	6.143643
1890.000000	6.260757
1889.000000	6.415567
1888.000000	6.533645
1887.000000	6.636067
1886.000000	6.742437
1885.000000	6.829383
1884.000000	6.927131
1883.000000	7.081520
1882.000000	7.173497
1881.000000	7.299513
1880.000000	7.394879
1879.000000	7.459392
1878.000000	7.549573
1877.000000	7.619961
1876.000000	7.729055
1875.000000	7.801319
1874.000000	7.876860
1873.000000	7.923156
1872.000000	7.966310
1871.000000	8.083830
1870.000000	8.095294
1869.000000	8.098127
1868.000000	8.146185
1867.000000	8.180249
1866.000000	8.200675
1865.000000	8.204264
1864.000000	8.240159
1863.000000	8.235038
1862.000000	8.248677
1861.000000	8.290216
1860.000000	8.300420
1859.000000	8.282771
1858.000000	8.327398
1857.000000	8.345819
1856.000000	8.302218
1855.000000	8.334870
1854.000000	8.358721
1853.000000	8.344596
1852.000000	8.370964
1851.000000	8.341765
1850.000000	8.347663
1849.000000	8.355510
1848.000000	8.382229
1847.000000	8.382338
1846.000000	8.387122
1845.000000	8.354057
1844.000000	8.355892
1843.000000	8.338844
1842.000000	8.332152
1841.000000	8.339503
1840.000000	8.333722
1839.000000	8.303891
1838.000000	8.280945
1837.000000	8.257161
1836.000000	8.231310
1835.000000	8.225168
1834.000000	8.213114
1833.000000	8.167459
1832.000000	8.157911
1831.000000	8.145639
1830.000000	8.136858
1829.000000	8.135687
1828.000000	8.098400
1827.000000	8.080038
1826.000000	8.064981
1825.000000	8.060984
1824.000000	8.054703
1823.000000	8.057039
1822.000000	8.031747
1821.000000	7.980624
1820.000000	7.965097
1819.000000	7.978911
1818.000000	7.980879
1817.000000	7.962696
1816.000000	7.946016
1815.000000	7.929895
1814.000000	7.913152
1813.000000	7.890061
1812.000000	7.877325
1811.000000	7.869181
1810.000000	7.861462
1809.000000	7.870623
1808.000000	7.865766
1807.000000	7.835618
1806.000000	7.827417
1805.000000	7.820520
1804.000000	7.803487
1803.000000	7.782642
1802.000000	7.769201
1801.000000	7.774179
1800.000000	7.789140
1799.000000	7.795006
1798.000000	7.777166
1797.000000	7.770139
1796.000000	7.753571
1795.000000	7.754935
1794.000000	7.784747
1793.000000	7.789848
1792.000000	7.766837
1791.000000	7.763516
1790.000000	7.755118
1789.000000	7.748551
1788.000000	7.746630
1787.000000	7.748656
1786.000000	7.748585
1785.000000	7.738814
1784.000000	7.755619
1783.000000	7.747882
1782.000000	7.739600
1781.000000	7.747590
1780.000000	7.722338
1779.000000	7.715839
1778.000000	7.716144
1777.000000	7.670721
1776.000000	7.647826
1775.000000	7.646464
1774.000000	7.632489
1773.000000	7.630011
1772.000000	7.602644
1771.000000	7.586095
1770.000000	7.560889
1769.000000	7.527851
1768.000000	7.522250
1767.000000	7.530725
1766.000000	7.506071
1765.000000	7.488712
1764.000000	7.466795
1763.000000	7.429779
1762.000000	7.403941
1761.000000	7.421929
1760.000000	7.390999
1759.000000	7.350657
1758.000000	7.316290
1757.000000	7.296528
1756.000000	7.296487
1755.000000	7.275798
1754.000000	7.284025
1753.000000	7.232466
1752.000000	7.201490
1751.000000	7.183542
1750.000000	7.193638
1749.000000	7.194487
1748.000000	7.152546
1747.000000	7.138269
1746.000000	7.140455
1745.000000	7.104290
1744.000000	7.081961
1743.000000	7.052416
1742.000000	7.049382
1741.000000	7.027095
1740.000000	7.012194
1739.000000	6.961165
1738.000000	6.943268
1737.000000	6.954745
1736.000000	6.943001
1735.000000	6.932755
1734.000000	6.921541
1733.000000	6.928414
1732.000000	6.931424
1731.000000	6.900956
1730.000000	6.894457
1729.000000	6.925803
1728.000000	6.924152
1727.000000	6.928626
1726.000000	6.959810
1725.000000	6.968896
1724.000000	6.989096
1723.000000	7.002793
1722.000000	7.020233
1721.000000	7.067030
1720.000000	7.097121
1719.000000	7.119141
1718.000000	7.125425
1717.000000	7.159560
1716.000000	7.185102
1715.000000	7.200996
1714.000000	7.198015
1713.000000	7.228796
1712.000000	7.247851
1711.000000	7.259689
1710.000000	7.289944
1709.000000	7.313956
1708.000000	7.275955
1707.000000	7.305321
1706.000000	7.333384
1705.000000	7.347530
1704.000000	7.357424
1703.000000	7.341045
1702.000000	7.330096
1701.000000	7.343951
1700.000000	7.344021
1699.000000	7.334165
1698.000000	7.377512
1697.000000	7.394352
1696.000000	7.404683
1695.000000	7.391418
1694.000000	7.414139
1693.000000	7.419143
1692.000000	7.424570
1691.000000	7.438144
1690.000000	7.484515
1689.000000	7.492381
1688.000000	7.523159
1687.000000	7.564219
1686.000000	7.580313
1685.000000	7.601420
1684.000000	7.639381
1683.000000	7.679345
1682.000000	7.749852
1681.000000	7.798130
1680.000000	7.827811
1679.000000	7.849073
1678.000000	7.889775
1677.000000	7.931152
1676.000000	8.000305
1675.000000	8.042467
1674.000000	8.083917
1673.000000	8.131050
1672.000000	8.150885
1671.000000	8.195409
1670.000000	8.250517
1669.000000	8.301517
1668.000000	8.325227
1667.000000	8.372743
1666.000000	8.360400
1665.000000	8.393205
1664.000000	8.403235
1663.000000	8.406051
1662.000000	8.449659
1661.000000	8.475024
1660.000000	8.477912
1659.000000	8.524237
1658.000000	8.564599
1657.000000	8.566747
1656.000000	8.573157
1655.000000	8.600225
1654.000000	8.611378
1653.000000	8.604021
1652.000000	8.619209
1651.000000	8.600461
1650.000000	8.605943
1649.000000	8.601787
1648.000000	8.589304
1647.000000	8.571933
1646.000000	8.564182
1645.000000	8.555930
1644.000000	8.566003
1643.000000	8.526652
1642.000000	8.535033
1641.000000	8.533559
1640.000000	8.523604
1639.000000	8.524260
1638.000000	8.513269
1637.000000	8.512907
1636.000000	8.491968
1635.000000	8.463662
1634.000000	8.463301
1633.000000	8.444742
1632.000000	8.431426
1631.000000	8.424167
1630.000000	8.402051
1629.000000	8.370225
1628.000000	8.365611
1627.000000	8.358213
1626.000000	8.337656
1625.000000	8.321753
1624.000000	8.304820
1623.000000	8.289363
1622.000000	8.279584
1621.000000	8.266345
1620.000000	8.247394
1619.000000	8.227956
1618.000000	8.206980
1617.000000	8.191983
1616.000000	8.170478
1615.000000	8.157180
1614.000000	8.150719
1613.000000	8.142301
1612.000000	8.124800
1611.000000	8.107008
1610.000000	8.083348
1609.000000	8.066473
1608.000000	8.056036
1607.000000	8.025317
1606.000000	8.003569
1605.000000	7.982942
1604.000000	7.958553
1603.000000	7.942180
1602.000000	7.925807
1601.000000	7.903850
1600.000000	7.886474
1599.000000	7.874596
1598.000000	7.857417
1597.000000	7.848243
1596.000000	7.831089
1595.000000	7.808919
1594.000000	7.790875
1593.000000	7.780369
1592.000000	7.767639
1591.000000	7.739770
1590.000000	7.736021
1589.000000	7.728735
1588.000000	7.707643
1587.000000	7.692792
1586.000000	7.674847
1585.000000	7.663088
1584.000000	7.656430
1583.000000	7.636333
1582.000000	7.618494
1581.000000	7.612597
1580.000000	7.605723
1579.000000	7.594226
1578.000000	7.585354
1577.000000	7.570825
1576.000000	7.544043
1575.000000	7.525635
1574.000000	7.516303
1573.000000	7.509049
1572.000000	7.481974
1571.000000	7.468216
1570.000000	7.455435
1569.000000	7.442472
1568.000000	7.429905
1567.000000	7.421896
1566.000000	7.402171
1565.000000	7.385822
1564.000000	7.388975
1563.000000	7.386678
1562.000000	7.382130
1561.000000	7.358847
1560.000000	7.337820
1559.000000	7.334881
1558.000000	7.305629
1557.000000	7.298228
1556.000000	7.286151
1555.000000	7.280862
1554.000000	7.263017
1553.000000	7.251539
1552.000000	7.243808
1551.000000	7.235421
1550.000000	7.218967
1549.000000	7.203005
1548.000000	7.187179
1547.000000	7.161384
1546.000000	7.144916
1545.000000	7.125048
1544.000000	7.091898
1543.000000	7.068440
1542.000000	7.055296
1541.000000	7.023698
1540.000000	6.988459
1539.000000	6.951488
1538.000000	6.942011
1537.000000	6.919857
1536.000000	6.896646
1535.000000	6.864224
1534.000000	6.840187
1533.000000	6.802475
1532.000000	6.774335
1531.000000	6.745337
1530.000000	6.730683
1529.000000	6.739726
1528.000000	6.780999
1527.000000	6.797544
1526.000000	6.785250
1525.000000	6.739553
1524.000000	6.688115
1523.000000	6.643105
1522.000000	6.642840
1521.000000	6.637989
1520.000000	6.613328
1519.000000	6.566508
1518.000000	6.575764
1517.000000	6.577309
1516.000000	6.538502
1515.000000	6.524899
1514.000000	6.540182
1513.000000	6.535934
1512.000000	6.511362
1511.000000	6.491231
1510.000000	6.457417
1509.000000	6.471033
1508.000000	6.487388
1507.000000	6.470463
1506.000000	6.453044
1505.000000	6.435671
1504.000000	6.421355
1503.000000	6.403838
1502.000000	6.392692
1501.000000	6.405632
1500.000000	6.392405
1499.000000	6.381193
1498.000000	6.393019
1497.000000	6.388114
1496.000000	6.380968
1495.000000	6.386176
1494.000000	6.392078
1493.000000	6.390811
1492.000000	6.406639
1491.000000	6.413765
1490.000000	6.408483
1489.000000	6.425299
1488.000000	6.437522
1487.000000	6.445193
1486.000000	6.437163
1485.000000	6.464088
1484.000000	6.476298
1483.000000	6.468973
1482.000000	6.496520
1481.000000	6.515845
1480.000000	6.497504
1479.000000	6.513210
1478.000000	6.541265
1477.000000	6.545724
1476.000000	6.547842
1475.000000	6.554901
1474.000000	6.569011
1473.000000	6.570660
1472.000000	6.572513
1471.000000	6.592792
1470.000000	6.595784
1469.000000	6.635885
1468.000000	6.650930
1467.000000	6.631606
1466.000000	6.629704
1465.000000	6.618887
1464.000000	6.639559
1463.000000	6.675862
1462.000000	6.683169
1461.000000	6.668323
1460.000000	6.669716
1459.000000	6.683234
1458.000000	6.704027
1457.000000	6.729431
1456.000000	6.733253
1455.000000	6.723248
1454.000000	6.728789
1453.000000	6.748825
1452.000000	6.764318
1451.000000	6.766316
1450.000000	6.761573
1449.000000	6.775293
1448.000000	6.816845
1447.000000	6.838420
1446.000000	6.833917
1445.000000	6.836664
1444.000000	6.838821
1443.000000	6.853408
1442.000000	6.883426
1441.000000	6.936142
1440.000000	6.943349
1439.000000	6.953192
1438.000000	6.960288
1437.000000	6.979042
1436.000000	6.994640
1435.000000	7.000645
1434.000000	7.019889
1433.000000	7.052099
1432.000000	7.071457
1431.000000	7.103050
1430.000000	7.137107
1429.000000	7.164613
1428.000000	7.197446
