PE IR       SUBTECH     SPECTRUM    ASCII       PEDS        4.00        
   -1
3C-YYX-C005_1.ASC
23/09/07
11:13:09.00
23/09/07
11:30:09.00
uco
Sample 005 By uco Date Thursday, September 07 2023
450.000000
#HDR
-1
-1
#GR
cm-1
%T
1.0
0.0
4000.000000
-1.000000
3551
8
98.741110
80.861919
#DATA
4000.000000	98.661918
3999.000000	98.658929
3998.000000	98.655980
3997.000000	98.654234
3996.000000	98.653880
3995.000000	98.659135
3994.000000	98.658714
3993.000000	98.656243
3992.000000	98.652466
3991.000000	98.648630
3990.000000	98.645315
3989.000000	98.642260
3988.000000	98.639264
3987.000000	98.636860
3986.000000	98.635895
3985.000000	98.636821
3984.000000	98.639725
3983.000000	98.644614
3982.000000	98.650955
3981.000000	98.656965
3980.000000	98.660087
3979.000000	98.658776
3978.000000	98.653702
3977.000000	98.647048
3976.000000	98.640748
3975.000000	98.635604
3974.000000	98.631837
3973.000000	98.629798
3972.000000	98.629697
3971.000000	98.630895
3970.000000	98.632042
3969.000000	98.632047
3968.000000	98.630960
3967.000000	98.629772
3966.000000	98.629268
3965.000000	98.629191
3964.000000	98.628404
3963.000000	98.625891
3962.000000	98.621769
3961.000000	98.617553
3960.000000	98.615144
3959.000000	98.615451
3958.000000	98.617726
3957.000000	98.620035
3956.000000	98.620765
3955.000000	98.619801
3954.000000	98.618355
3953.000000	98.617839
3952.000000	98.618972
3951.000000	98.621756
3950.000000	98.625510
3949.000000	98.628595
3948.000000	98.628871
3947.000000	98.625108
3946.000000	98.618164
3945.000000	98.610771
3944.000000	98.606276
3943.000000	98.607044
3942.000000	98.612952
3941.000000	98.621690
3940.000000	98.630340
3939.000000	98.636428
3938.000000	98.638299
3937.000000	98.635029
3936.000000	98.626844
3935.000000	98.615985
3934.000000	98.606840
3933.000000	98.604396
3932.000000	98.610528
3931.000000	98.621736
3930.000000	98.631492
3929.000000	98.635074
3928.000000	98.632355
3927.000000	98.626473
3926.000000	98.621062
3925.000000	98.618092
3924.000000	98.617094
3923.000000	98.616553
3922.000000	98.615927
3921.000000	98.615767
3920.000000	98.616316
3919.000000	98.616703
3918.000000	98.616248
3917.000000	98.616165
3916.000000	98.618280
3915.000000	98.621996
3914.000000	98.623890
3913.000000	98.620981
3912.000000	98.613544
3911.000000	98.604974
3910.000000	98.598938
3909.000000	98.596680
3908.000000	98.597003
3907.000000	98.598257
3906.000000	98.599746
3905.000000	98.601638
3904.000000	98.604128
3903.000000	98.607181
3902.000000	98.610982
3901.000000	98.615519
3900.000000	98.620290
3899.000000	98.624361
3898.000000	98.626683
3897.000000	98.626766
3896.000000	98.624785
3895.000000	98.621558
3894.000000	98.618862
3893.000000	98.619214
3892.000000	98.624245
3891.000000	98.632713
3890.000000	98.640789
3889.000000	98.644740
3888.000000	98.642740
3887.000000	98.635884
3886.000000	98.627592
3885.000000	98.620618
3884.000000	98.615362
3883.000000	98.611041
3882.000000	98.608063
3881.000000	98.607636
3880.000000	98.609143
3879.000000	98.610246
3878.000000	98.609613
3877.000000	98.607799
3876.000000	98.606842
3875.000000	98.608950
3874.000000	98.613800
3873.000000	98.618188
3872.000000	98.619683
3871.000000	98.619945
3870.000000	98.622688
3869.000000	98.628534
3868.000000	98.634319
3867.000000	98.637181
3866.000000	98.637568
3865.000000	98.638261
3864.000000	98.640074
3863.000000	98.640326
3862.000000	98.636444
3861.000000	98.629001
3860.000000	98.620659
3859.000000	98.613370
3858.000000	98.606700
3857.000000	98.598799
3856.000000	98.589591
3855.000000	98.583234
3854.000000	98.584888
3853.000000	98.592696
3852.000000	98.600305
3851.000000	98.604847
3850.000000	98.606779
3849.000000	98.607602
3848.000000	98.608955
3847.000000	98.611460
3846.000000	98.614663
3845.000000	98.617732
3844.000000	98.619793
3843.000000	98.620492
3842.000000	98.620530
3841.000000	98.621667
3840.000000	98.625932
3839.000000	98.633663
3838.000000	98.642092
3837.000000	98.647991
3836.000000	98.650904
3835.000000	98.652122
3834.000000	98.652038
3833.000000	98.649959
3832.000000	98.645716
3831.000000	98.640267
3830.000000	98.635105
3829.000000	98.631439
3828.000000	98.629716
3827.000000	98.629332
3826.000000	98.628706
3825.000000	98.626414
3824.000000	98.622852
3823.000000	98.621705
3822.000000	98.627217
3821.000000	98.637458
3820.000000	98.644119
3819.000000	98.642589
3818.000000	98.635886
3817.000000	98.629645
3816.000000	98.627043
3815.000000	98.625667
3814.000000	98.621890
3813.000000	98.615858
3812.000000	98.610796
3811.000000	98.609585
3810.000000	98.612179
3809.000000	98.616131
3808.000000	98.619076
3807.000000	98.620225
3806.000000	98.620141
3805.000000	98.619931
3804.000000	98.621452
3803.000000	98.628040
3802.000000	98.640837
3801.000000	98.652916
3800.000000	98.655116
3799.000000	98.647507
3798.000000	98.636657
3797.000000	98.628117
3796.000000	98.622776
3795.000000	98.617838
3794.000000	98.611576
3793.000000	98.605745
3792.000000	98.603778
3791.000000	98.607544
3790.000000	98.615559
3789.000000	98.623867
3788.000000	98.628918
3787.000000	98.629619
3786.000000	98.627658
3785.000000	98.626164
3784.000000	98.627525
3783.000000	98.631861
3782.000000	98.637486
3781.000000	98.641961
3780.000000	98.642847
3779.000000	98.638760
3778.000000	98.630762
3777.000000	98.621967
3776.000000	98.615385
3775.000000	98.612550
3774.000000	98.612935
3773.000000	98.614440
3772.000000	98.615159
3771.000000	98.615579
3770.000000	98.618171
3769.000000	98.623991
3768.000000	98.631275
3767.000000	98.637315
3766.000000	98.640442
3765.000000	98.640380
3764.000000	98.637762
3763.000000	98.633698
3762.000000	98.630153
3761.000000	98.629347
3760.000000	98.631534
3759.000000	98.634047
3758.000000	98.634640
3757.000000	98.634593
3756.000000	98.635915
3755.000000	98.638255
3754.000000	98.639671
3753.000000	98.638604
3752.000000	98.634777
3751.000000	98.629323
3750.000000	98.625021
3749.000000	98.624447
3748.000000	98.626828
3747.000000	98.628619
3746.000000	98.627796
3745.000000	98.625739
3744.000000	98.624330
3743.000000	98.624963
3742.000000	98.627039
3741.000000	98.627695
3740.000000	98.625444
3739.000000	98.621247
3738.000000	98.617100
3737.000000	98.616249
3736.000000	98.622351
3735.000000	98.635536
3734.000000	98.650146
3733.000000	98.660276
3732.000000	98.665098
3731.000000	98.666870
3730.000000	98.667190
3729.000000	98.666161
3728.000000	98.663883
3727.000000	98.660799
3726.000000	98.656789
3725.000000	98.651964
3724.000000	98.648179
3723.000000	98.647304
3722.000000	98.647964
3721.000000	98.647063
3720.000000	98.644575
3719.000000	98.643645
3718.000000	98.646046
3717.000000	98.649866
3716.000000	98.651822
3715.000000	98.650842
3714.000000	98.648188
3713.000000	98.645478
3712.000000	98.643698
3711.000000	98.643790
3710.000000	98.646485
3709.000000	98.650756
3708.000000	98.654927
3707.000000	98.658458
3706.000000	98.661771
3705.000000	98.665196
3704.000000	98.667986
3703.000000	98.668068
3702.000000	98.663874
3701.000000	98.656633
3700.000000	98.649885
3699.000000	98.645726
3698.000000	98.643157
3697.000000	98.640058
3696.000000	98.635051
3695.000000	98.628011
3694.000000	98.620627
3693.000000	98.617038
3692.000000	98.622212
3691.000000	98.637587
3690.000000	98.656126
3689.000000	98.664839
3688.000000	98.658298
3687.000000	98.644985
3686.000000	98.635172
3685.000000	98.631473
3684.000000	98.631005
3683.000000	98.629542
3682.000000	98.624229
3681.000000	98.614712
3680.000000	98.602762
3679.000000	98.590107
3678.000000	98.577378
3677.000000	98.566528
3676.000000	98.562603
3675.000000	98.567230
3674.000000	98.574392
3673.000000	98.578425
3672.000000	98.578504
3671.000000	98.577176
3670.000000	98.575441
3669.000000	98.569409
3668.000000	98.557049
3667.000000	98.542448
3666.000000	98.530619
3665.000000	98.523436
3664.000000	98.518966
3663.000000	98.513695
3662.000000	98.506175
3661.000000	98.498633
3660.000000	98.494543
3659.000000	98.494974
3658.000000	98.497425
3657.000000	98.497724
3656.000000	98.494158
3655.000000	98.489718
3654.000000	98.487967
3653.000000	98.488602
3652.000000	98.488176
3651.000000	98.482031
3650.000000	98.467140
3649.000000	98.447431
3648.000000	98.431717
3647.000000	98.422744
3646.000000	98.416652
3645.000000	98.410069
3644.000000	98.403030
3643.000000	98.397608
3642.000000	98.395160
3641.000000	98.394467
3640.000000	98.393008
3639.000000	98.389959
3638.000000	98.386169
3637.000000	98.381664
3636.000000	98.374761
3635.000000	98.364461
3634.000000	98.352735
3633.000000	98.342670
3632.000000	98.335138
3631.000000	98.328928
3630.000000	98.323050
3629.000000	98.317200
3628.000000	98.311754
3627.000000	98.307704
3626.000000	98.304806
3625.000000	98.301361
3624.000000	98.296620
3623.000000	98.291016
3622.000000	98.284624
3621.000000	98.276739
3620.000000	98.266380
3619.000000	98.253072
3618.000000	98.237979
3617.000000	98.223365
3616.000000	98.210339
3615.000000	98.198388
3614.000000	98.186399
3613.000000	98.172903
3612.000000	98.156505
3611.000000	98.136893
3610.000000	98.115359
3609.000000	98.095769
3608.000000	98.083367
3607.000000	98.080124
3606.000000	98.082906
3605.000000	98.086759
3604.000000	98.088591
3603.000000	98.087517
3602.000000	98.083957
3601.000000	98.079263
3600.000000	98.074783
3599.000000	98.069855
3598.000000	98.061450
3597.000000	98.046948
3596.000000	98.027223
3595.000000	98.006847
3594.000000	97.990192
3593.000000	97.977847
3592.000000	97.967267
3591.000000	97.956086
3590.000000	97.943398
3589.000000	97.929270
3588.000000	97.914046
3587.000000	97.899256
3586.000000	97.888013
3585.000000	97.882552
3584.000000	97.881874
3583.000000	97.881926
3582.000000	97.877771
3581.000000	97.866680
3580.000000	97.850002
3579.000000	97.832009
3578.000000	97.816074
3577.000000	97.802438
3576.000000	97.789206
3575.000000	97.774743
3574.000000	97.758631
3573.000000	97.741167
3572.000000	97.723012
3571.000000	97.705261
3570.000000	97.689181
3569.000000	97.675587
3568.000000	97.664278
3567.000000	97.654163
3566.000000	97.644297
3565.000000	97.634631
3564.000000	97.625735
3563.000000	97.618138
3562.000000	97.611771
3561.000000	97.605475
3560.000000	97.597268
3559.000000	97.585681
3558.000000	97.571026
3557.000000	97.554955
3556.000000	97.538695
3555.000000	97.521863
3554.000000	97.503252
3553.000000	97.482918
3552.000000	97.463228
3551.000000	97.447122
3550.000000	97.435439
3549.000000	97.426659
3548.000000	97.418603
3547.000000	97.410114
3546.000000	97.401577
3545.000000	97.394320
3544.000000	97.388695
3543.000000	97.382658
3542.000000	97.372604
3541.000000	97.356472
3540.000000	97.336127
3539.000000	97.316233
3538.000000	97.300222
3537.000000	97.287523
3536.000000	97.274912
3535.000000	97.260393
3534.000000	97.244771
3533.000000	97.230089
3532.000000	97.217692
3531.000000	97.207686
3530.000000	97.199168
3529.000000	97.190738
3528.000000	97.181467
3527.000000	97.171731
3526.000000	97.162673
3525.000000	97.154625
3524.000000	97.146234
3523.000000	97.135420
3522.000000	97.121389
3521.000000	97.105581
3520.000000	97.090540
3519.000000	97.077742
3518.000000	97.066352
3517.000000	97.054199
3516.000000	97.040144
3515.000000	97.025339
3514.000000	97.011704
3513.000000	96.999440
3512.000000	96.986756
3511.000000	96.972334
3510.000000	96.957493
3509.000000	96.945289
3508.000000	96.937497
3507.000000	96.932989
3506.000000	96.928992
3505.000000	96.922999
3504.000000	96.913715
3503.000000	96.901367
3502.000000	96.887642
3501.000000	96.874627
3500.000000	96.863073
3499.000000	96.851891
3498.000000	96.839697
3497.000000	96.826652
3496.000000	96.814139
3495.000000	96.802668
3494.000000	96.791107
3493.000000	96.778371
3492.000000	96.764940
3491.000000	96.752046
3490.000000	96.740008
3489.000000	96.728171
3488.000000	96.716128
3487.000000	96.704087
3486.000000	96.692087
3485.000000	96.679703
3484.000000	96.666743
3483.000000	96.653880
3482.000000	96.642375
3481.000000	96.633290
3480.000000	96.626863
3479.000000	96.622336
3478.000000	96.618402
3477.000000	96.613900
3476.000000	96.608033
3475.000000	96.600030
3474.000000	96.589251
3473.000000	96.576057
3472.000000	96.561996
3471.000000	96.548535
3470.000000	96.535899
3469.000000	96.523656
3468.000000	96.511979
3467.000000	96.501527
3466.000000	96.492381
3465.000000	96.484084
3464.000000	96.476617
3463.000000	96.470333
3462.000000	96.464540
3461.000000	96.456924
3460.000000	96.445065
3459.000000	96.428526
3458.000000	96.409591
3457.000000	96.392149
3456.000000	96.379516
3455.000000	96.372380
3454.000000	96.368457
3453.000000	96.364666
3452.000000	96.359783
3451.000000	96.354934
3450.000000	96.351629
3449.000000	96.349714
3448.000000	96.347237
3447.000000	96.341967
3446.000000	96.332991
3445.000000	96.320975
3444.000000	96.307223
3443.000000	96.293002
3442.000000	96.279836
3441.000000	96.269586
3440.000000	96.263185
3439.000000	96.259206
3438.000000	96.254560
3437.000000	96.247328
3436.000000	96.238498
3435.000000	96.230471
3434.000000	96.224286
3433.000000	96.218994
3432.000000	96.213049
3431.000000	96.205243
3430.000000	96.194609
3429.000000	96.180655
3428.000000	96.164195
3427.000000	96.147207
3426.000000	96.131672
3425.000000	96.118833
3424.000000	96.109223
3423.000000	96.102434
3422.000000	96.096631
3421.000000	96.089312
3420.000000	96.079283
3419.000000	96.067550
3418.000000	96.055954
3417.000000	96.045525
3416.000000	96.036330
3415.000000	96.028128
3414.000000	96.020577
3413.000000	96.012964
3412.000000	96.004186
3411.000000	95.993191
3410.000000	95.979929
3409.000000	95.966295
3408.000000	95.955697
3407.000000	95.950458
3406.000000	95.949195
3405.000000	95.947402
3404.000000	95.941244
3403.000000	95.930847
3402.000000	95.919739
3401.000000	95.911336
3400.000000	95.905752
3399.000000	95.899434
3398.000000	95.887864
3397.000000	95.869486
3396.000000	95.847481
3395.000000	95.827394
3394.000000	95.812737
3393.000000	95.802877
3392.000000	95.794756
3391.000000	95.786021
3390.000000	95.776465
3389.000000	95.767312
3388.000000	95.759761
3387.000000	95.753934
3386.000000	95.748727
3385.000000	95.742555
3384.000000	95.734198
3383.000000	95.722918
3382.000000	95.708411
3381.000000	95.691582
3380.000000	95.675124
3379.000000	95.661969
3378.000000	95.652533
3377.000000	95.644168
3376.000000	95.633871
3375.000000	95.621080
3374.000000	95.607523
3373.000000	95.595030
3372.000000	95.584120
3371.000000	95.574118
3370.000000	95.563590
3369.000000	95.550673
3368.000000	95.533975
3367.000000	95.513840
3366.000000	95.492636
3365.000000	95.473451
3364.000000	95.458195
3363.000000	95.446605
3362.000000	95.436639
3361.000000	95.425703
3360.000000	95.411816
3359.000000	95.394294
3358.000000	95.373930
3357.000000	95.352702
3356.000000	95.332785
3355.000000	95.315184
3354.000000	95.299110
3353.000000	95.282912
3352.000000	95.265747
3351.000000	95.248352
3350.000000	95.232248
3349.000000	95.218106
3348.000000	95.204707
3347.000000	95.189520
3346.000000	95.170646
3345.000000	95.148440
3344.000000	95.125205
3343.000000	95.103449
3342.000000	95.084588
3341.000000	95.068809
3340.000000	95.055201
3339.000000	95.041992
3338.000000	95.027657
3337.000000	95.012218
3336.000000	94.996647
3335.000000	94.980680
3334.000000	94.962386
3333.000000	94.940828
3332.000000	94.918240
3331.000000	94.898366
3330.000000	94.882960
3329.000000	94.870579
3328.000000	94.858267
3327.000000	94.843637
3326.000000	94.825937
3325.000000	94.806346
3324.000000	94.787290
3323.000000	94.770704
3322.000000	94.756841
3321.000000	94.744886
3320.000000	94.733825
3319.000000	94.722059
3318.000000	94.707352
3317.000000	94.688854
3316.000000	94.668931
3315.000000	94.651447
3314.000000	94.637996
3313.000000	94.626843
3312.000000	94.615376
3311.000000	94.602366
3310.000000	94.587976
3309.000000	94.573118
3308.000000	94.559296
3307.000000	94.547731
3306.000000	94.537802
3305.000000	94.527034
3304.000000	94.513219
3303.000000	94.496399
3302.000000	94.478916
3301.000000	94.464095
3300.000000	94.454523
3299.000000	94.450286
3298.000000	94.448421
3297.000000	94.444882
3296.000000	94.437490
3295.000000	94.426649
3294.000000	94.413574
3293.000000	94.399194
3292.000000	94.384922
3291.000000	94.373045
3290.000000	94.365343
3289.000000	94.361692
3288.000000	94.360351
3287.000000	94.359125
3286.000000	94.356354
3285.000000	94.351919
3284.000000	94.347600
3283.000000	94.345618
3282.000000	94.346436
3281.000000	94.348772
3280.000000	94.352075
3279.000000	94.357465
3278.000000	94.365551
3277.000000	94.374544
3276.000000	94.382016
3275.000000	94.388341
3274.000000	94.396835
3273.000000	94.410191
3272.000000	94.427299
3271.000000	94.443763
3270.000000	94.455440
3269.000000	94.461633
3268.000000	94.465326
3267.000000	94.470529
3266.000000	94.479313
3265.000000	94.491232
3264.000000	94.504965
3263.000000	94.519596
3262.000000	94.534461
3261.000000	94.548900
3260.000000	94.562913
3259.000000	94.577485
3258.000000	94.593645
3257.000000	94.611466
3256.000000	94.630298
3255.000000	94.649653
3254.000000	94.669439
3253.000000	94.689516
3252.000000	94.709304
3251.000000	94.727783
3250.000000	94.743936
3249.000000	94.757727
3248.000000	94.770749
3247.000000	94.785196
3246.000000	94.801632
3245.000000	94.818051
3244.000000	94.831790
3243.000000	94.842239
3242.000000	94.851086
3241.000000	94.860127
3240.000000	94.869653
3239.000000	94.879372
3238.000000	94.890246
3237.000000	94.904274
3236.000000	94.922022
3235.000000	94.941123
3234.000000	94.958117
3233.000000	94.971421
3232.000000	94.981572
3231.000000	94.988946
3230.000000	94.992964
3229.000000	94.994137
3228.000000	94.995340
3227.000000	94.999717
3226.000000	95.008166
3225.000000	95.020010
3224.000000	95.034806
3223.000000	95.051733
3222.000000	95.068059
3221.000000	95.080758
3220.000000	95.090022
3219.000000	95.099207
3218.000000	95.110375
3217.000000	95.121604
3216.000000	95.129586
3215.000000	95.133598
3214.000000	95.135794
3213.000000	95.138476
3212.000000	95.142496
3211.000000	95.147933
3210.000000	95.155069
3209.000000	95.164088
3208.000000	95.174339
3207.000000	95.184495
3206.000000	95.193921
3205.000000	95.203762
3204.000000	95.215981
3203.000000	95.230681
3202.000000	95.245037
3201.000000	95.255785
3200.000000	95.262528
3199.000000	95.267770
3198.000000	95.274007
3197.000000	95.282005
3196.000000	95.291540
3195.000000	95.302257
3194.000000	95.313457
3193.000000	95.324400
3192.000000	95.335432
3191.000000	95.347899
3190.000000	95.362531
3189.000000	95.378881
3188.000000	95.396472
3187.000000	95.415211
3186.000000	95.434285
3185.000000	95.451930
3184.000000	95.467169
3183.000000	95.480704
3182.000000	95.493448
3181.000000	95.505241
3180.000000	95.515806
3179.000000	95.525878
3178.000000	95.536472
3177.000000	95.547857
3176.000000	95.560201
3175.000000	95.574232
3174.000000	95.590133
3173.000000	95.606504
3172.000000	95.621611
3171.000000	95.635240
3170.000000	95.648331
3169.000000	95.661439
3168.000000	95.674660
3167.000000	95.688510
3166.000000	95.703479
3165.000000	95.718842
3164.000000	95.733277
3163.000000	95.746774
3162.000000	95.760884
3161.000000	95.776733
3160.000000	95.793589
3159.000000	95.809584
3158.000000	95.823260
3157.000000	95.834221
3156.000000	95.843068
3155.000000	95.851188
3154.000000	95.860302
3153.000000	95.871702
3152.000000	95.885601
3151.000000	95.900969
3150.000000	95.915965
3149.000000	95.929194
3148.000000	95.941059
3147.000000	95.953493
3146.000000	95.967694
