PE IR       SUBTECH     SPECTRUM    ASCII       PEDS        4.00        
   -1
3C-XXX-C013_1.ASC
23/09/07
10:29:25.00
23/09/07
11:30:09.00
uco
Sample 013 By uco Date Thursday, September 07 2023
450.000000
#HDR
-1
-1
#GR
cm-1
%T
1.0
0.0
4000.000000
-1.000000
3551
8
98.827056
88.210147
#DATA
4000.000000	98.759030
3999.000000	98.760820
3998.000000	98.759934
3997.000000	98.756659
3996.000000	98.751547
3995.000000	98.745138
3994.000000	98.738267
3993.000000	98.732500
3992.000000	98.729756
3991.000000	98.730878
3990.000000	98.734486
3989.000000	98.737646
3988.000000	98.737932
3987.000000	98.735051
3986.000000	98.730633
3985.000000	98.726695
3984.000000	98.724428
3983.000000	98.723860
3982.000000	98.724213
3981.000000	98.724500
3980.000000	98.723999
3979.000000	98.722389
3978.000000	98.719536
3977.000000	98.715406
3976.000000	98.710513
3975.000000	98.706350
3974.000000	98.704747
3973.000000	98.706410
3972.000000	98.710131
3971.000000	98.713661
3970.000000	98.715434
3969.000000	98.715379
3968.000000	98.714523
3967.000000	98.714212
3966.000000	98.715506
3965.000000	98.718741
3964.000000	98.723124
3963.000000	98.726908
3962.000000	98.728521
3961.000000	98.727747
3960.000000	98.725667
3959.000000	98.723489
3958.000000	98.721593
3957.000000	98.719665
3956.000000	98.717401
3955.000000	98.714758
3954.000000	98.711723
3953.000000	98.708212
3952.000000	98.704473
3951.000000	98.701439
3950.000000	98.700234
3949.000000	98.700997
3948.000000	98.702369
3947.000000	98.702509
3946.000000	98.700750
3945.000000	98.698182
3944.000000	98.696749
3943.000000	98.697898
3942.000000	98.701793
3941.000000	98.707448
3940.000000	98.713135
3939.000000	98.716695
3938.000000	98.716094
3937.000000	98.710439
3936.000000	98.701104
3935.000000	98.691786
3934.000000	98.687027
3933.000000	98.689736
3932.000000	98.698920
3931.000000	98.709815
3930.000000	98.717079
3929.000000	98.718321
3928.000000	98.715041
3927.000000	98.710924
3926.000000	98.709206
3925.000000	98.710821
3924.000000	98.714350
3923.000000	98.717658
3922.000000	98.719433
3921.000000	98.719240
3920.000000	98.716725
3919.000000	98.711610
3918.000000	98.704878
3917.000000	98.699522
3916.000000	98.698765
3915.000000	98.702995
3914.000000	98.709184
3913.000000	98.713454
3912.000000	98.713663
3911.000000	98.710167
3910.000000	98.704682
3909.000000	98.698436
3908.000000	98.691669
3907.000000	98.684443
3906.000000	98.677798
3905.000000	98.674198
3904.000000	98.676332
3903.000000	98.684526
3902.000000	98.695511
3901.000000	98.704567
3900.000000	98.709243
3899.000000	98.710794
3898.000000	98.711906
3897.000000	98.713572
3896.000000	98.714609
3895.000000	98.713597
3894.000000	98.710769
3893.000000	98.708377
3892.000000	98.709072
3891.000000	98.712894
3890.000000	98.716516
3889.000000	98.716676
3888.000000	98.713419
3887.000000	98.709492
3886.000000	98.707430
3885.000000	98.707287
3884.000000	98.706964
3883.000000	98.704684
3882.000000	98.700835
3881.000000	98.697587
3880.000000	98.697090
3879.000000	98.699336
3878.000000	98.701896
3877.000000	98.702353
3876.000000	98.700264
3875.000000	98.696955
3874.000000	98.694042
3873.000000	98.691808
3872.000000	98.689573
3871.000000	98.687919
3870.000000	98.689322
3869.000000	98.695094
3868.000000	98.702502
3867.000000	98.707163
3866.000000	98.707090
3865.000000	98.704009
3864.000000	98.701866
3863.000000	98.703213
3862.000000	98.706795
3861.000000	98.709538
3860.000000	98.709624
3859.000000	98.706954
3858.000000	98.702305
3857.000000	98.696633
3856.000000	98.690394
3855.000000	98.682765
3854.000000	98.674049
3853.000000	98.668835
3852.000000	98.670548
3851.000000	98.676620
3850.000000	98.683627
3849.000000	98.690526
3848.000000	98.697192
3847.000000	98.702776
3846.000000	98.705703
3845.000000	98.704957
3844.000000	98.701488
3843.000000	98.698299
3842.000000	98.698315
3841.000000	98.701781
3840.000000	98.706110
3839.000000	98.708256
3838.000000	98.708048
3837.000000	98.708264
3836.000000	98.710655
3835.000000	98.713879
3834.000000	98.715717
3833.000000	98.715835
3832.000000	98.715970
3831.000000	98.717753
3830.000000	98.720641
3829.000000	98.722427
3828.000000	98.721336
3827.000000	98.717290
3826.000000	98.711584
3825.000000	98.705562
3824.000000	98.699860
3823.000000	98.694533
3822.000000	98.689911
3821.000000	98.686854
3820.000000	98.685157
3819.000000	98.683823
3818.000000	98.683476
3817.000000	98.686014
3816.000000	98.691777
3815.000000	98.697985
3814.000000	98.701300
3813.000000	98.701248
3812.000000	98.699942
3811.000000	98.699864
3810.000000	98.702250
3809.000000	98.706615
3808.000000	98.711250
3807.000000	98.714490
3806.000000	98.715623
3805.000000	98.714760
3804.000000	98.712750
3803.000000	98.711446
3802.000000	98.713440
3801.000000	98.719160
3800.000000	98.724605
3799.000000	98.725345
3798.000000	98.720755
3797.000000	98.713590
3796.000000	98.707281
3795.000000	98.703401
3794.000000	98.701429
3793.000000	98.700622
3792.000000	98.701083
3791.000000	98.703112
3790.000000	98.706365
3789.000000	98.709823
3788.000000	98.712515
3787.000000	98.714169
3786.000000	98.715182
3785.000000	98.716119
3784.000000	98.717357
3783.000000	98.719133
3782.000000	98.721421
3781.000000	98.723406
3780.000000	98.723387
3779.000000	98.720159
3778.000000	98.714943
3777.000000	98.711068
3776.000000	98.711416
3775.000000	98.716291
3774.000000	98.723241
3773.000000	98.728444
3772.000000	98.728609
3771.000000	98.722956
3770.000000	98.714636
3769.000000	98.709152
3768.000000	98.710000
3767.000000	98.716517
3766.000000	98.725014
3765.000000	98.730883
3764.000000	98.731325
3763.000000	98.727023
3762.000000	98.721327
3761.000000	98.718155
3760.000000	98.719725
3759.000000	98.725016
3758.000000	98.730961
3757.000000	98.735555
3756.000000	98.739076
3755.000000	98.743003
3754.000000	98.748427
3753.000000	98.754592
3752.000000	98.757978
3751.000000	98.754027
3750.000000	98.741890
3749.000000	98.726463
3748.000000	98.714486
3747.000000	98.711603
3746.000000	98.721449
3745.000000	98.741202
3744.000000	98.759909
3743.000000	98.769202
3742.000000	98.770243
3741.000000	98.767337
3740.000000	98.763003
3739.000000	98.758345
3738.000000	98.754491
3737.000000	98.752404
3736.000000	98.751264
3735.000000	98.748904
3734.000000	98.745149
3733.000000	98.743036
3732.000000	98.745365
3731.000000	98.751035
3730.000000	98.756149
3729.000000	98.758025
3728.000000	98.756901
3727.000000	98.754361
3726.000000	98.751575
3725.000000	98.749391
3724.000000	98.748810
3723.000000	98.750390
3722.000000	98.753155
3721.000000	98.755342
3720.000000	98.756413
3719.000000	98.757432
3718.000000	98.759338
3717.000000	98.761596
3716.000000	98.762921
3715.000000	98.762511
3714.000000	98.759955
3713.000000	98.755267
3712.000000	98.750035
3711.000000	98.746765
3710.000000	98.745528
3709.000000	98.744147
3708.000000	98.741725
3707.000000	98.739404
3706.000000	98.738615
3705.000000	98.739542
3704.000000	98.741191
3703.000000	98.742630
3702.000000	98.744617
3701.000000	98.749220
3700.000000	98.756983
3699.000000	98.765247
3698.000000	98.770006
3697.000000	98.769017
3696.000000	98.763349
3695.000000	98.756222
3694.000000	98.750231
3693.000000	98.746231
3692.000000	98.744246
3691.000000	98.744603
3690.000000	98.747363
3689.000000	98.750877
3688.000000	98.752200
3687.000000	98.749814
3686.000000	98.744871
3685.000000	98.740103
3684.000000	98.738182
3683.000000	98.739694
3682.000000	98.742425
3681.000000	98.742806
3680.000000	98.738598
3679.000000	98.730065
3678.000000	98.718662
3677.000000	98.705787
3676.000000	98.694509
3675.000000	98.689265
3674.000000	98.689962
3673.000000	98.692401
3672.000000	98.694554
3671.000000	98.697182
3670.000000	98.700483
3669.000000	98.702268
3668.000000	98.699998
3667.000000	98.693557
3666.000000	98.684680
3665.000000	98.675225
3664.000000	98.666459
3663.000000	98.658978
3662.000000	98.652789
3661.000000	98.647375
3660.000000	98.642001
3659.000000	98.636206
3658.000000	98.630338
3657.000000	98.626031
3656.000000	98.625645
3655.000000	98.629814
3654.000000	98.636185
3653.000000	98.641524
3652.000000	98.643032
3651.000000	98.637417
3650.000000	98.622024
3649.000000	98.599864
3648.000000	98.580151
3647.000000	98.569433
3646.000000	98.566329
3645.000000	98.565934
3644.000000	98.565037
3643.000000	98.563260
3642.000000	98.561488
3641.000000	98.560150
3640.000000	98.558846
3639.000000	98.556900
3638.000000	98.553495
3637.000000	98.547558
3636.000000	98.538448
3635.000000	98.527147
3634.000000	98.516148
3633.000000	98.507410
3632.000000	98.500756
3631.000000	98.494515
3630.000000	98.486940
3629.000000	98.478399
3628.000000	98.471738
3627.000000	98.467167
3626.000000	98.461479
3625.000000	98.453023
3624.000000	98.443108
3623.000000	98.433755
3622.000000	98.425383
3621.000000	98.416483
3620.000000	98.405478
3619.000000	98.393148
3618.000000	98.382159
3617.000000	98.373949
3616.000000	98.367945
3615.000000	98.362805
3614.000000	98.356696
3613.000000	98.347472
3612.000000	98.333963
3611.000000	98.316786
3610.000000	98.297919
3609.000000	98.280702
3608.000000	98.269527
3607.000000	98.266810
3606.000000	98.270419
3605.000000	98.275674
3604.000000	98.278987
3603.000000	98.278639
3602.000000	98.273786
3601.000000	98.264291
3600.000000	98.251662
3599.000000	98.238524
3598.000000	98.226216
3597.000000	98.213661
3596.000000	98.199158
3595.000000	98.183049
3594.000000	98.167727
3593.000000	98.154937
3592.000000	98.143982
3591.000000	98.133076
3590.000000	98.121146
3589.000000	98.107954
3588.000000	98.093699
3587.000000	98.079579
3586.000000	98.067260
3585.000000	98.056978
3584.000000	98.047736
3583.000000	98.038467
3582.000000	98.028276
3581.000000	98.016558
3580.000000	98.003768
3579.000000	97.991645
3578.000000	97.981836
3577.000000	97.974332
3576.000000	97.967181
3575.000000	97.957588
3574.000000	97.943450
3573.000000	97.924769
3572.000000	97.903940
3571.000000	97.884394
3570.000000	97.868126
3569.000000	97.853951
3568.000000	97.838208
3567.000000	97.819512
3566.000000	97.801924
3565.000000	97.789820
3564.000000	97.782388
3563.000000	97.775567
3562.000000	97.766098
3561.000000	97.753260
3560.000000	97.738335
3559.000000	97.722978
3558.000000	97.708011
3557.000000	97.693576
3556.000000	97.679744
3555.000000	97.666329
3554.000000	97.652484
3553.000000	97.637322
3552.000000	97.621138
3551.000000	97.605180
3550.000000	97.589903
3549.000000	97.574439
3548.000000	97.558036
3547.000000	97.541610
3546.000000	97.527692
3545.000000	97.518420
3544.000000	97.512992
3543.000000	97.507311
3542.000000	97.496561
3541.000000	97.478881
3540.000000	97.457126
3539.000000	97.436754
3538.000000	97.421160
3537.000000	97.408923
3536.000000	97.396018
3535.000000	97.380319
3534.000000	97.362928
3533.000000	97.345915
3532.000000	97.330362
3531.000000	97.316455
3530.000000	97.304065
3529.000000	97.292742
3528.000000	97.281916
3527.000000	97.271604
3526.000000	97.262256
3525.000000	97.253362
3524.000000	97.242847
3523.000000	97.228826
3522.000000	97.211840
3521.000000	97.194532
3520.000000	97.179140
3519.000000	97.165799
3518.000000	97.153148
3517.000000	97.140052
3516.000000	97.126519
3515.000000	97.113164
3514.000000	97.100258
3513.000000	97.087441
3512.000000	97.074218
3511.000000	97.060610
3510.000000	97.047456
3509.000000	97.036099
3508.000000	97.027530
3507.000000	97.021564
3506.000000	97.016823
3505.000000	97.011434
3504.000000	97.003915
3503.000000	96.993955
3502.000000	96.982501
3501.000000	96.970720
3500.000000	96.958736
3499.000000	96.945594
3498.000000	96.930554
3497.000000	96.914337
3496.000000	96.898775
3495.000000	96.885037
3494.000000	96.872654
3493.000000	96.860737
3492.000000	96.849599
3491.000000	96.840377
3490.000000	96.833113
3489.000000	96.826058
3488.000000	96.817380
3487.000000	96.807052
3486.000000	96.796243
3485.000000	96.785043
3484.000000	96.771937
3483.000000	96.756190
3482.000000	96.740327
3481.000000	96.728986
3480.000000	96.724544
3479.000000	96.724390
3478.000000	96.722961
3477.000000	96.716087
3476.000000	96.703439
3475.000000	96.687907
3474.000000	96.673284
3473.000000	96.661997
3472.000000	96.653937
3471.000000	96.647005
3470.000000	96.639301
3469.000000	96.630934
3468.000000	96.623223
3467.000000	96.616178
3466.000000	96.607940
3465.000000	96.597351
3464.000000	96.586021
3463.000000	96.576638
3462.000000	96.569522
3461.000000	96.562002
3460.000000	96.551417
3459.000000	96.537936
3458.000000	96.524140
3457.000000	96.512439
3456.000000	96.503242
3455.000000	96.495193
3454.000000	96.486847
3453.000000	96.478088
3452.000000	96.470021
3451.000000	96.463682
3450.000000	96.459227
3449.000000	96.456357
3448.000000	96.454833
3447.000000	96.453910
3446.000000	96.451499
3445.000000	96.444762
3444.000000	96.432049
3443.000000	96.414525
3442.000000	96.396212
3441.000000	96.381896
3440.000000	96.373799
3439.000000	96.369687
3438.000000	96.364594
3437.000000	96.355068
3436.000000	96.341917
3435.000000	96.328811
3434.000000	96.318707
3433.000000	96.311940
3432.000000	96.307036
3431.000000	96.302180
3430.000000	96.295993
3429.000000	96.287950
3428.000000	96.278567
3427.000000	96.268798
3426.000000	96.259106
3425.000000	96.249520
3424.000000	96.240448
3423.000000	96.232528
3422.000000	96.225228
3421.000000	96.216399
3420.000000	96.204157
3419.000000	96.189055
3418.000000	96.173659
3417.000000	96.160063
3416.000000	96.148492
3415.000000	96.138290
3414.000000	96.129431
3413.000000	96.122274
3412.000000	96.115917
3411.000000	96.107787
3410.000000	96.095825
3409.000000	96.081198
3408.000000	96.068083
3407.000000	96.059967
3406.000000	96.055971
3405.000000	96.051112
3404.000000	96.040622
3403.000000	96.024423
3402.000000	96.007416
3401.000000	95.995122
3400.000000	95.988753
3399.000000	95.984398
3398.000000	95.977045
3397.000000	95.965305
3396.000000	95.952050
3395.000000	95.940743
3394.000000	95.931826
3393.000000	95.922788
3392.000000	95.911193
3391.000000	95.897230
3390.000000	95.883550
3389.000000	95.873056
3388.000000	95.866825
3387.000000	95.863503
3386.000000	95.860304
3385.000000	95.854649
3384.000000	95.845234
3383.000000	95.832179
3382.000000	95.816672
3381.000000	95.800545
3380.000000	95.785802
3379.000000	95.774029
3378.000000	95.765766
3377.000000	95.759834
3376.000000	95.753192
3375.000000	95.742364
3374.000000	95.726108
3373.000000	95.706816
3372.000000	95.688676
3371.000000	95.674302
3370.000000	95.663313
3369.000000	95.653648
3368.000000	95.643236
3367.000000	95.630492
3366.000000	95.614605
3365.000000	95.596310
3364.000000	95.577737
3363.000000	95.560636
3362.000000	95.544819
3361.000000	95.528674
3360.000000	95.511026
3359.000000	95.492188
3358.000000	95.473317
3357.000000	95.455034
3356.000000	95.436719
3355.000000	95.417267
3354.000000	95.396572
3353.000000	95.375920
3352.000000	95.356578
3351.000000	95.338413
3350.000000	95.320455
3349.000000	95.302318
3348.000000	95.284264
3347.000000	95.266266
3346.000000	95.248013
3345.000000	95.229559
3344.000000	95.210816
3343.000000	95.190666
3342.000000	95.168146
3341.000000	95.144617
3340.000000	95.122994
3339.000000	95.104343
3338.000000	95.086849
3337.000000	95.068891
3336.000000	95.051452
3335.000000	95.036072
3334.000000	95.021650
3333.000000	95.005154
3332.000000	94.985188
3331.000000	94.963510
3330.000000	94.943116
3329.000000	94.925498
3328.000000	94.909447
3327.000000	94.892141
3326.000000	94.871897
3325.000000	94.850220
3324.000000	94.830440
3323.000000	94.814060
3322.000000	94.799628
3321.000000	94.785560
3320.000000	94.772224
3319.000000	94.760060
3318.000000	94.747322
3317.000000	94.731825
3316.000000	94.714506
3315.000000	94.699340
3314.000000	94.689511
3313.000000	94.684738
3312.000000	94.681957
3311.000000	94.677373
3310.000000	94.668300
3309.000000	94.654712
3308.000000	94.639552
3307.000000	94.626487
3306.000000	94.616939
3305.000000	94.609520
3304.000000	94.601809
3303.000000	94.592034
3302.000000	94.579805
3301.000000	94.566466
3300.000000	94.554451
3299.000000	94.545186
3298.000000	94.537837
3297.000000	94.530864
3296.000000	94.524183
3295.000000	94.518497
3294.000000	94.513067
3293.000000	94.506186
3292.000000	94.498048
3291.000000	94.491392
3290.000000	94.488582
3289.000000	94.488998
3288.000000	94.489795
3287.000000	94.488288
3286.000000	94.483342
3285.000000	94.475719
3284.000000	94.467840
3283.000000	94.462441
3282.000000	94.460700
3281.000000	94.461955
3280.000000	94.465408
3279.000000	94.471107
3278.000000	94.478973
3277.000000	94.487843
3276.000000	94.496367
3275.000000	94.504418
3274.000000	94.512567
3273.000000	94.520399
3272.000000	94.526217
3271.000000	94.528651
3270.000000	94.528158
3269.000000	94.526681
3268.000000	94.526116
3267.000000	94.527340
3266.000000	94.530507
3265.000000	94.535723
3264.000000	94.543059
3263.000000	94.552177
3262.000000	94.562475
3261.000000	94.573546
3260.000000	94.585076
3259.000000	94.596448
3258.000000	94.607319
3257.000000	94.618649
3256.000000	94.631976
3255.000000	94.647054
3254.000000	94.661139
3253.000000	94.671598
3252.000000	94.678664
3251.000000	94.684806
3250.000000	94.692034
3249.000000	94.700770
3248.000000	94.710791
3247.000000	94.721681
3246.000000	94.732174
3245.000000	94.740137
3244.000000	94.744029
3243.000000	94.744287
3242.000000	94.743348
3241.000000	94.744672
3240.000000	94.751342
3239.000000	94.764534
3238.000000	94.782741
3237.000000	94.802564
3236.000000	94.820425
3235.000000	94.834070
3234.000000	94.843375
3233.000000	94.850140
3232.000000	94.856334
3231.000000	94.861801
3230.000000	94.864369
3229.000000	94.863048
3228.000000	94.860593
3227.000000	94.861866
3226.000000	94.869738
3225.000000	94.883266
3224.000000	94.899178
3223.000000	94.914062
3222.000000	94.925756
3221.000000	94.934302
3220.000000	94.941974
3219.000000	94.951130
3218.000000	94.961499
3217.000000	94.970551
3216.000000	94.976699
3215.000000	94.981173
3214.000000	94.986208
3213.000000	94.992285
3212.000000	94.998017
3211.000000	95.002281
3210.000000	95.005572
3209.000000	95.009201
3208.000000	95.013915
3207.000000	95.019841
3206.000000	95.027540
3205.000000	95.038214
3204.000000	95.052127
3203.000000	95.067119
3202.000000	95.079930
3201.000000	95.089333
3200.000000	95.097196
3199.000000	95.106021
3198.000000	95.116325
3197.000000	95.127098
3196.000000	95.137673
3195.000000	95.147989
3194.000000	95.157797
3193.000000	95.167073
3192.000000	95.176853
3191.000000	95.188311
3190.000000	95.201166
3189.000000	95.214142
3188.000000	95.226700
3187.000000	95.239149
3186.000000	95.251436
3185.000000	95.263487
3184.000000	95.276723
3183.000000	95.293383
3182.000000	95.313656
3181.000000	95.334686
3180.000000	95.352974
3179.000000	95.366891
3178.000000	95.376972
3177.000000	95.385325
3176.000000	95.395367
3175.000000	95.410370
3174.000000	95.430647
3173.000000	95.452660
3172.000000	95.471766
3171.000000	95.485664
3170.000000	95.494945
3169.000000	95.501670
3168.000000	95.508587
3167.000000	95.518700
3166.000000	95.533695
3165.000000	95.552290
3164.000000	95.570963
3163.000000	95.586630
3162.000000	95.598615
3161.000000	95.608629
3160.000000	95.619553
3159.000000	95.633756
3158.000000	95.651294
3157.000000	95.669410
3156.000000	95.684582
3155.000000	95.695751
3154.000000	95.705437
3153.000000	95.717370
3152.000000	95.732956
3151.000000	95.750172
3150.000000	95.765963
3149.000000	95.779487
3148.000000	95.792607
3147.000000	95.807144
3146.000000	95.822393
