PE IR       SUBTECH     SPECTRUM    ASCII       PEDS        4.00        
   -1
3C-YYX-C007_1.ASC
23/09/07
11:16:47.00
23/09/07
11:30:09.00
uco
Sample 007 By uco Date Thursday, September 07 2023
450.000000
#HDR
-1
-1
#GR
cm-1
%T
1.0
0.0
4000.000000
-1.000000
3551
8
98.592769
79.036494
#DATA
4000.000000	98.498487
3999.000000	98.499162
3998.000000	98.498421
3997.000000	98.497093
3996.000000	98.495814
3995.000000	98.494388
3994.000000	98.492338
3993.000000	98.489849
3992.000000	98.487737
3991.000000	98.486484
3990.000000	98.485679
3989.000000	98.484654
3988.000000	98.483380
3987.000000	98.482382
3986.000000	98.481979
3985.000000	98.482160
3984.000000	98.483240
3983.000000	98.485931
3982.000000	98.490177
3981.000000	98.494238
3980.000000	98.495615
3979.000000	98.493062
3978.000000	98.487421
3977.000000	98.480632
3976.000000	98.474331
3975.000000	98.469489
3974.000000	98.466768
3973.000000	98.466511
3972.000000	98.468306
3971.000000	98.471051
3970.000000	98.473812
3969.000000	98.476354
3968.000000	98.478795
3967.000000	98.480856
3966.000000	98.481803
3965.000000	98.481248
3964.000000	98.479909
3963.000000	98.479279
3962.000000	98.480273
3961.000000	98.482196
3960.000000	98.482977
3959.000000	98.480631
3958.000000	98.474772
3957.000000	98.466899
3956.000000	98.459559
3955.000000	98.454991
3954.000000	98.453935
3953.000000	98.455464
3952.000000	98.457913
3951.000000	98.460186
3950.000000	98.462329
3949.000000	98.464855
3948.000000	98.467732
3947.000000	98.470120
3946.000000	98.471089
3945.000000	98.470365
3944.000000	98.468649
3943.000000	98.467549
3942.000000	98.468629
3941.000000	98.472334
3940.000000	98.477359
3939.000000	98.481152
3938.000000	98.481601
3937.000000	98.478161
3936.000000	98.472181
3935.000000	98.466326
3934.000000	98.463426
3933.000000	98.465213
3932.000000	98.470752
3931.000000	98.476550
3930.000000	98.479047
3929.000000	98.477355
3928.000000	98.473667
3927.000000	98.470660
3926.000000	98.468815
3925.000000	98.466301
3924.000000	98.461649
3923.000000	98.456279
3922.000000	98.453338
3921.000000	98.454284
3920.000000	98.457334
3919.000000	98.459166
3918.000000	98.458411
3917.000000	98.457241
3916.000000	98.458592
3915.000000	98.462412
3914.000000	98.465431
3913.000000	98.464287
3912.000000	98.458211
3911.000000	98.449532
3910.000000	98.441993
3909.000000	98.437983
3908.000000	98.437173
3907.000000	98.437229
3906.000000	98.435704
3905.000000	98.432246
3904.000000	98.429720
3903.000000	98.432205
3902.000000	98.440869
3901.000000	98.452081
3900.000000	98.460944
3899.000000	98.465404
3898.000000	98.466670
3897.000000	98.466617
3896.000000	98.465672
3895.000000	98.463470
3894.000000	98.460741
3893.000000	98.459372
3892.000000	98.460445
3891.000000	98.462535
3890.000000	98.462993
3889.000000	98.460430
3888.000000	98.455525
3887.000000	98.450700
3886.000000	98.448389
3885.000000	98.448736
3884.000000	98.450248
3883.000000	98.451560
3882.000000	98.452403
3881.000000	98.452769
3880.000000	98.452290
3879.000000	98.451330
3878.000000	98.450901
3877.000000	98.451339
3876.000000	98.452599
3875.000000	98.454127
3874.000000	98.454157
3873.000000	98.451010
3872.000000	98.445154
3871.000000	98.439636
3870.000000	98.438126
3869.000000	98.442053
3868.000000	98.449988
3867.000000	98.459214
3866.000000	98.467462
3865.000000	98.473424
3864.000000	98.476332
3863.000000	98.476349
3862.000000	98.474386
3861.000000	98.470834
3860.000000	98.465760
3859.000000	98.459328
3858.000000	98.451680
3857.000000	98.442668
3856.000000	98.432541
3855.000000	98.422715
3854.000000	98.414046
3853.000000	98.407460
3852.000000	98.406961
3851.000000	98.412965
3850.000000	98.421514
3849.000000	98.430219
3848.000000	98.438872
3847.000000	98.447184
3846.000000	98.453820
3845.000000	98.457084
3844.000000	98.455903
3843.000000	98.450737
3842.000000	98.443924
3841.000000	98.438892
3840.000000	98.439268
3839.000000	98.447024
3838.000000	98.460324
3837.000000	98.474261
3836.000000	98.484478
3835.000000	98.489437
3834.000000	98.489718
3833.000000	98.486760
3832.000000	98.482382
3831.000000	98.477803
3830.000000	98.473167
3829.000000	98.468282
3828.000000	98.463693
3827.000000	98.460053
3826.000000	98.456810
3825.000000	98.452507
3824.000000	98.447243
3823.000000	98.445082
3822.000000	98.450566
3821.000000	98.460852
3820.000000	98.466741
3819.000000	98.464041
3818.000000	98.456870
3817.000000	98.452065
3816.000000	98.453226
3815.000000	98.457080
3814.000000	98.458257
3813.000000	98.455199
3812.000000	98.450206
3811.000000	98.446707
3810.000000	98.446898
3809.000000	98.451170
3808.000000	98.457789
3807.000000	98.463134
3806.000000	98.464457
3805.000000	98.462310
3804.000000	98.459682
3803.000000	98.460603
3802.000000	98.467366
3801.000000	98.476786
3800.000000	98.482810
3799.000000	98.482968
3798.000000	98.478306
3797.000000	98.471356
3796.000000	98.464736
3795.000000	98.460359
3794.000000	98.458880
3793.000000	98.459876
3792.000000	98.462588
3791.000000	98.466358
3790.000000	98.470469
3789.000000	98.474041
3788.000000	98.476339
3787.000000	98.477035
3786.000000	98.476506
3785.000000	98.475626
3784.000000	98.475009
3783.000000	98.474314
3782.000000	98.472939
3781.000000	98.471058
3780.000000	98.469671
3779.000000	98.469388
3778.000000	98.469776
3777.000000	98.470078
3776.000000	98.469845
3775.000000	98.468832
3774.000000	98.466384
3773.000000	98.461819
3772.000000	98.455634
3771.000000	98.450296
3770.000000	98.449171
3769.000000	98.453996
3768.000000	98.464067
3767.000000	98.476841
3766.000000	98.488311
3765.000000	98.494026
3764.000000	98.491742
3763.000000	98.482887
3762.000000	98.471437
3761.000000	98.461766
3760.000000	98.457218
3759.000000	98.458739
3758.000000	98.464409
3757.000000	98.470636
3756.000000	98.474219
3755.000000	98.474627
3754.000000	98.474387
3753.000000	98.476598
3752.000000	98.480458
3751.000000	98.479430
3750.000000	98.469567
3749.000000	98.457130
3748.000000	98.451210
3747.000000	98.456646
3746.000000	98.474433
3745.000000	98.499154
3744.000000	98.517330
3743.000000	98.521639
3742.000000	98.515903
3741.000000	98.503932
3740.000000	98.487403
3739.000000	98.468657
3738.000000	98.451705
3737.000000	98.442073
3736.000000	98.444129
3735.000000	98.456827
3734.000000	98.472756
3733.000000	98.484957
3732.000000	98.492275
3731.000000	98.496857
3730.000000	98.500284
3729.000000	98.502700
3728.000000	98.503940
3727.000000	98.503689
3726.000000	98.501307
3725.000000	98.497222
3724.000000	98.493743
3723.000000	98.493149
3722.000000	98.495127
3721.000000	98.497495
3720.000000	98.499243
3719.000000	98.500870
3718.000000	98.502473
3717.000000	98.502923
3716.000000	98.501025
3715.000000	98.496988
3714.000000	98.492322
3713.000000	98.489225
3712.000000	98.489960
3711.000000	98.494883
3710.000000	98.500927
3709.000000	98.503603
3708.000000	98.501425
3707.000000	98.496835
3706.000000	98.493565
3705.000000	98.494540
3704.000000	98.500045
3703.000000	98.506634
3702.000000	98.508774
3701.000000	98.504004
3700.000000	98.495707
3699.000000	98.488784
3698.000000	98.484896
3697.000000	98.482749
3696.000000	98.480276
3695.000000	98.475908
3694.000000	98.469657
3693.000000	98.464131
3692.000000	98.464169
3691.000000	98.473511
3690.000000	98.489644
3689.000000	98.503238
3688.000000	98.507190
3687.000000	98.503027
3686.000000	98.495106
3685.000000	98.485362
3684.000000	98.474563
3683.000000	98.464216
3682.000000	98.455735
3681.000000	98.448396
3680.000000	98.439021
3679.000000	98.425090
3678.000000	98.408384
3677.000000	98.395864
3676.000000	98.394510
3675.000000	98.401306
3674.000000	98.406091
3673.000000	98.404773
3672.000000	98.399996
3671.000000	98.396192
3670.000000	98.394470
3669.000000	98.391241
3668.000000	98.384786
3667.000000	98.377298
3666.000000	98.370649
3665.000000	98.365079
3664.000000	98.359995
3663.000000	98.354819
3662.000000	98.349203
3661.000000	98.343061
3660.000000	98.336515
3659.000000	98.329787
3658.000000	98.323016
3657.000000	98.316422
3656.000000	98.310822
3655.000000	98.307150
3654.000000	98.304290
3653.000000	98.299304
3652.000000	98.290027
3651.000000	98.276260
3650.000000	98.259780
3649.000000	98.244580
3648.000000	98.234209
3647.000000	98.227748
3646.000000	98.222520
3645.000000	98.217858
3644.000000	98.215156
3643.000000	98.215878
3642.000000	98.219332
3641.000000	98.222060
3640.000000	98.220504
3639.000000	98.214040
3638.000000	98.204230
3637.000000	98.192394
3636.000000	98.178807
3635.000000	98.163865
3634.000000	98.148667
3633.000000	98.133983
3632.000000	98.119892
3631.000000	98.107090
3630.000000	98.096930
3629.000000	98.088866
3628.000000	98.081501
3627.000000	98.075766
3626.000000	98.072333
3625.000000	98.069519
3624.000000	98.065624
3623.000000	98.060365
3622.000000	98.054512
3621.000000	98.048631
3620.000000	98.041424
3619.000000	98.030110
3618.000000	98.014336
3617.000000	97.997533
3616.000000	97.982836
3615.000000	97.970237
3614.000000	97.957107
3613.000000	97.940812
3612.000000	97.921889
3611.000000	97.903744
3610.000000	97.888857
3609.000000	97.877493
3608.000000	97.869256
3607.000000	97.864082
3606.000000	97.861505
3605.000000	97.859726
3604.000000	97.856362
3603.000000	97.849499
3602.000000	97.838289
3601.000000	97.823599
3600.000000	97.807924
3599.000000	97.793518
3598.000000	97.780430
3597.000000	97.767110
3596.000000	97.752668
3595.000000	97.738160
3594.000000	97.724890
3593.000000	97.712348
3592.000000	97.698858
3591.000000	97.684151
3590.000000	97.669976
3589.000000	97.658187
3588.000000	97.647987
3587.000000	97.636734
3586.000000	97.623856
3585.000000	97.611204
3584.000000	97.599437
3583.000000	97.586513
3582.000000	97.569567
3581.000000	97.548153
3580.000000	97.525368
3579.000000	97.505668
3578.000000	97.490987
3577.000000	97.479537
3576.000000	97.467891
3575.000000	97.453608
3574.000000	97.436296
3573.000000	97.417308
3572.000000	97.399433
3571.000000	97.385963
3570.000000	97.378700
3569.000000	97.375462
3568.000000	97.369482
3567.000000	97.354336
3566.000000	97.331368
3565.000000	97.308098
3564.000000	97.289701
3563.000000	97.275694
3562.000000	97.262546
3561.000000	97.247321
3560.000000	97.229758
3559.000000	97.211451
3558.000000	97.193631
3557.000000	97.176289
3556.000000	97.159208
3555.000000	97.142665
3554.000000	97.126776
3553.000000	97.110761
3552.000000	97.093830
3551.000000	97.076503
3550.000000	97.060139
3549.000000	97.045421
3548.000000	97.031879
3547.000000	97.018793
3546.000000	97.006213
3545.000000	96.994866
3544.000000	96.984592
3543.000000	96.973327
3542.000000	96.958098
3541.000000	96.937732
3540.000000	96.914792
3539.000000	96.894165
3538.000000	96.878888
3537.000000	96.867257
3536.000000	96.854473
3535.000000	96.837428
3534.000000	96.817022
3533.000000	96.796488
3532.000000	96.778559
3531.000000	96.764165
3530.000000	96.752547
3529.000000	96.742165
3528.000000	96.731912
3527.000000	96.721666
3526.000000	96.711528
3525.000000	96.700896
3524.000000	96.688650
3523.000000	96.674119
3522.000000	96.657629
3521.000000	96.640150
3520.000000	96.622624
3519.000000	96.605433
3518.000000	96.588150
3517.000000	96.570043
3516.000000	96.551068
3515.000000	96.532412
3514.000000	96.515644
3513.000000	96.501457
3512.000000	96.489437
3511.000000	96.478817
3510.000000	96.468973
3509.000000	96.459316
3508.000000	96.449196
3507.000000	96.438025
3506.000000	96.425391
3505.000000	96.411049
3504.000000	96.395275
3503.000000	96.379276
3502.000000	96.364680
3501.000000	96.352160
3500.000000	96.340586
3499.000000	96.327830
3498.000000	96.312569
3497.000000	96.295636
3496.000000	96.279149
3495.000000	96.263961
3494.000000	96.248525
3493.000000	96.231203
3492.000000	96.213405
3491.000000	96.199293
3490.000000	96.191763
3489.000000	96.188974
3488.000000	96.185333
3487.000000	96.175857
3486.000000	96.159534
3485.000000	96.138909
3484.000000	96.117478
3483.000000	96.097839
3482.000000	96.081305
3481.000000	96.068204
3480.000000	96.058174
3479.000000	96.050273
3478.000000	96.043125
3477.000000	96.035135
3476.000000	96.024999
3475.000000	96.012408
3474.000000	95.998554
3473.000000	95.985540
3472.000000	95.974643
3471.000000	95.964938
3470.000000	95.954046
3469.000000	95.940551
3468.000000	95.925585
3467.000000	95.911857
3466.000000	95.901356
3465.000000	95.894168
3464.000000	95.888759
3463.000000	95.882705
3462.000000	95.873518
3461.000000	95.859873
3460.000000	95.842458
3459.000000	95.823373
3458.000000	95.804547
3457.000000	95.786845
3456.000000	95.770504
3455.000000	95.756083
3454.000000	95.744573
3453.000000	95.736696
3452.000000	95.732087
3451.000000	95.729432
3450.000000	95.727496
3449.000000	95.725656
3448.000000	95.723146
3447.000000	95.718218
3446.000000	95.708956
3445.000000	95.695097
3444.000000	95.678408
3443.000000	95.661438
3442.000000	95.646462
3441.000000	95.635092
3440.000000	95.627688
3439.000000	95.622743
3438.000000	95.617562
3437.000000	95.610181
3436.000000	95.600308
3435.000000	95.588450
3434.000000	95.574942
3433.000000	95.560507
3432.000000	95.546718
3431.000000	95.534853
3430.000000	95.524508
3429.000000	95.514047
3428.000000	95.502364
3427.000000	95.489671
3426.000000	95.476960
3425.000000	95.465174
3424.000000	95.454494
3423.000000	95.443827
3422.000000	95.431334
3421.000000	95.416162
3420.000000	95.399430
3419.000000	95.383069
3418.000000	95.368200
3417.000000	95.355248
3416.000000	95.344620
3415.000000	95.336184
3414.000000	95.328519
3413.000000	95.319769
3412.000000	95.309104
3411.000000	95.296656
3410.000000	95.282682
3409.000000	95.267886
3408.000000	95.254010
3407.000000	95.242479
3406.000000	95.232490
3405.000000	95.221651
3404.000000	95.208713
3403.000000	95.194863
3402.000000	95.182456
3401.000000	95.173475
3400.000000	95.168665
3399.000000	95.166499
3398.000000	95.162848
3397.000000	95.153589
3396.000000	95.138394
3395.000000	95.120843
3394.000000	95.104348
3393.000000	95.089122
3392.000000	95.073601
3391.000000	95.057516
3390.000000	95.042468
3389.000000	95.030170
3388.000000	95.021101
3387.000000	95.014398
3386.000000	95.008306
3385.000000	95.000882
3384.000000	94.990719
3383.000000	94.977085
3382.000000	94.959779
3381.000000	94.939739
3380.000000	94.919666
3379.000000	94.902814
3378.000000	94.890397
3377.000000	94.880599
3376.000000	94.870346
3375.000000	94.857580
3374.000000	94.841918
3373.000000	94.824175
3372.000000	94.805926
3371.000000	94.788917
3370.000000	94.774114
3369.000000	94.761121
3368.000000	94.748462
3367.000000	94.734247
3366.000000	94.717051
3365.000000	94.697073
3364.000000	94.676358
3363.000000	94.656992
3362.000000	94.638844
3361.000000	94.619732
3360.000000	94.597991
3359.000000	94.574211
3358.000000	94.550316
3357.000000	94.527717
3356.000000	94.506624
3355.000000	94.486384
3354.000000	94.466011
3353.000000	94.444853
3352.000000	94.423197
3351.000000	94.401926
3350.000000	94.381490
3349.000000	94.361595
3348.000000	94.341920
3347.000000	94.322430
3346.000000	94.302640
3345.000000	94.281185
3344.000000	94.256818
3343.000000	94.230059
3342.000000	94.203641
3341.000000	94.180977
3340.000000	94.163644
3339.000000	94.150055
3338.000000	94.136800
3337.000000	94.121393
3336.000000	94.103413
3335.000000	94.083161
3334.000000	94.060580
3333.000000	94.036404
3332.000000	94.013225
3331.000000	93.993742
3330.000000	93.978107
3329.000000	93.963983
3328.000000	93.948907
3327.000000	93.931620
3326.000000	93.911589
3325.000000	93.888907
3324.000000	93.865038
3323.000000	93.842488
3322.000000	93.823085
3321.000000	93.807051
3320.000000	93.793387
3319.000000	93.780356
3318.000000	93.766030
3317.000000	93.749763
3316.000000	93.733210
3315.000000	93.718712
3314.000000	93.706541
3313.000000	93.694862
3312.000000	93.682188
3311.000000	93.668372
3310.000000	93.653203
3309.000000	93.635929
3308.000000	93.616986
3307.000000	93.598577
3306.000000	93.582251
3305.000000	93.566862
3304.000000	93.549965
3303.000000	93.530762
3302.000000	93.511081
3301.000000	93.493895
3300.000000	93.481190
3299.000000	93.472604
3298.000000	93.465702
3297.000000	93.458076
3296.000000	93.449380
3295.000000	93.440781
3294.000000	93.432539
3293.000000	93.423499
3292.000000	93.413264
3291.000000	93.403507
3290.000000	93.396261
3289.000000	93.391671
3288.000000	93.388180
3287.000000	93.384281
3286.000000	93.379591
3285.000000	93.374917
3284.000000	93.371696
3283.000000	93.370620
3282.000000	93.370559
3281.000000	93.369892
3280.000000	93.369512
3279.000000	93.373020
3278.000000	93.382928
3277.000000	93.397453
3276.000000	93.412168
3275.000000	93.424442
3274.000000	93.434898
3273.000000	93.445178
3272.000000	93.455754
3271.000000	93.466101
3270.000000	93.475884
3269.000000	93.485330
3268.000000	93.494971
3267.000000	93.505401
3266.000000	93.517092
3265.000000	93.530255
3264.000000	93.544818
3263.000000	93.560491
3262.000000	93.577007
3261.000000	93.594473
3260.000000	93.613333
3259.000000	93.633412
3258.000000	93.653317
3257.000000	93.671750
3256.000000	93.689517
3255.000000	93.709294
3254.000000	93.732708
3253.000000	93.758254
3252.000000	93.782558
3251.000000	93.803173
3250.000000	93.819911
3249.000000	93.834299
3248.000000	93.848402
3247.000000	93.863410
3246.000000	93.878524
3245.000000	93.891532
3244.000000	93.901208
3243.000000	93.908765
3242.000000	93.916350
3241.000000	93.924754
3240.000000	93.933588
3239.000000	93.943525
3238.000000	93.957130
3237.000000	93.976794
3236.000000	94.001908
3235.000000	94.028461
3234.000000	94.051544
3233.000000	94.068409
3232.000000	94.079462
3231.000000	94.086698
3230.000000	94.091681
3229.000000	94.095320
3228.000000	94.099051
3227.000000	94.105109
3226.000000	94.115044
3225.000000	94.128364
3224.000000	94.143016
3223.000000	94.157166
3222.000000	94.170571
3221.000000	94.184437
3220.000000	94.199882
3219.000000	94.215980
3218.000000	94.229522
3217.000000	94.237553
3216.000000	94.240441
3215.000000	94.242097
3214.000000	94.246732
3213.000000	94.255723
3212.000000	94.267629
3211.000000	94.280250
3210.000000	94.291943
3209.000000	94.301524
3208.000000	94.308471
3207.000000	94.313899
3206.000000	94.320737
3205.000000	94.331819
3204.000000	94.347211
3203.000000	94.363525
3202.000000	94.376735
3201.000000	94.385909
3200.000000	94.393968
3199.000000	94.404596
3198.000000	94.418941
3197.000000	94.435584
3196.000000	94.452634
3195.000000	94.468821
3194.000000	94.483152
3193.000000	94.495195
3192.000000	94.506053
3191.000000	94.517904
3190.000000	94.532035
3189.000000	94.548018
3188.000000	94.565013
3187.000000	94.582976
3186.000000	94.602108
3185.000000	94.621763
3184.000000	94.640638
3183.000000	94.657728
3182.000000	94.672841
3181.000000	94.686485
3180.000000	94.699406
3179.000000	94.711912
3178.000000	94.723713
3177.000000	94.735067
3176.000000	94.747958
3175.000000	94.764979
3174.000000	94.786514
3173.000000	94.809816
3172.000000	94.831327
3171.000000	94.849466
3170.000000	94.864704
3169.000000	94.877952
3168.000000	94.889909
3167.000000	94.901618
3166.000000	94.914573
3165.000000	94.929924
3164.000000	94.947895
3163.000000	94.967785
3162.000000	94.988102
3161.000000	95.007007
3160.000000	95.023390
3159.000000	95.037931
3158.000000	95.052702
3157.000000	95.069251
3156.000000	95.087022
3155.000000	95.103955
3154.000000	95.118792
3153.000000	95.132520
3152.000000	95.147045
3151.000000	95.162558
3150.000000	95.177122
3149.000000	95.189429
3148.000000	95.201172
3147.000000	95.215617
3146.000000	95.233922
