PE IR       SUBTECH     SPECTRUM    ASCII       PEDS        4.00        
   -1
3C-YYX-F014_1.ASC
23/09/07
11:03:54.00
23/09/07
11:30:09.00
uco
Sample 014 By uco Date Thursday, September 07 2023
450.000000
#HDR
-1
-1
#GR
cm-1
%T
1.0
0.0
4000.000000
-1.000000
3551
8
98.812411
83.041801
#DATA
4000.000000	98.739844
3999.000000	98.738124
3998.000000	98.734927
3997.000000	98.731591
3996.000000	98.728853
3995.000000	98.726436
3994.000000	98.723687
3993.000000	98.720435
3992.000000	98.717012
3991.000000	98.713490
3990.000000	98.709359
3989.000000	98.704453
3988.000000	98.700123
3987.000000	98.698790
3986.000000	98.701817
3985.000000	98.707848
3984.000000	98.713757
3983.000000	98.717487
3982.000000	98.719576
3981.000000	98.721658
3980.000000	98.723841
3979.000000	98.724025
3978.000000	98.720055
3977.000000	98.712233
3976.000000	98.703536
3975.000000	98.697555
3974.000000	98.696112
3973.000000	98.698515
3972.000000	98.702562
3971.000000	98.706040
3970.000000	98.707733
3969.000000	98.707608
3968.000000	98.706428
3967.000000	98.705088
3966.000000	98.703953
3965.000000	98.702696
3964.000000	98.700692
3963.000000	98.697665
3962.000000	98.694122
3961.000000	98.691133
3960.000000	98.689498
3959.000000	98.689116
3958.000000	98.689061
3957.000000	98.688276
3956.000000	98.686461
3955.000000	98.684365
3954.000000	98.683158
3953.000000	98.683400
3952.000000	98.684510
3951.000000	98.685235
3950.000000	98.684705
3949.000000	98.683190
3948.000000	98.681792
3947.000000	98.681172
3946.000000	98.680825
3945.000000	98.680013
3944.000000	98.679321
3943.000000	98.680719
3942.000000	98.685473
3941.000000	98.692384
3940.000000	98.698221
3939.000000	98.699804
3938.000000	98.695975
3937.000000	98.688079
3936.000000	98.679166
3935.000000	98.672846
3934.000000	98.672240
3933.000000	98.678791
3932.000000	98.690928
3931.000000	98.704004
3930.000000	98.712609
3929.000000	98.713676
3928.000000	98.708094
3927.000000	98.699999
3926.000000	98.694304
3925.000000	98.693504
3924.000000	98.696208
3923.000000	98.699229
3922.000000	98.700551
3921.000000	98.699449
3920.000000	98.695123
3919.000000	98.687002
3918.000000	98.677001
3917.000000	98.669893
3916.000000	98.669327
3915.000000	98.673976
3914.000000	98.678892
3913.000000	98.680306
3912.000000	98.678113
3911.000000	98.675054
3910.000000	98.673837
3909.000000	98.675003
3908.000000	98.676900
3907.000000	98.677214
3906.000000	98.674937
3905.000000	98.671444
3904.000000	98.669552
3903.000000	98.671040
3902.000000	98.675171
3901.000000	98.679811
3900.000000	98.683858
3899.000000	98.687593
3898.000000	98.691460
3897.000000	98.695361
3896.000000	98.698682
3895.000000	98.700947
3894.000000	98.702050
3893.000000	98.702247
3892.000000	98.701888
3891.000000	98.701465
3890.000000	98.701255
3889.000000	98.700379
3888.000000	98.697300
3887.000000	98.692601
3886.000000	98.689453
3885.000000	98.689703
3884.000000	98.691464
3883.000000	98.691456
3882.000000	98.688315
3881.000000	98.683493
3880.000000	98.679241
3879.000000	98.676533
3878.000000	98.674663
3877.000000	98.672549
3876.000000	98.671508
3875.000000	98.675321
3874.000000	98.684994
3873.000000	98.695401
3872.000000	98.699943
3871.000000	98.697717
3870.000000	98.694158
3869.000000	98.694394
3868.000000	98.697935
3867.000000	98.701057
3866.000000	98.702312
3865.000000	98.703491
3864.000000	98.705468
3863.000000	98.706054
3862.000000	98.702914
3861.000000	98.696865
3860.000000	98.691309
3859.000000	98.689416
3858.000000	98.691600
3857.000000	98.694839
3856.000000	98.694892
3855.000000	98.690274
3854.000000	98.683512
3853.000000	98.677272
3852.000000	98.673490
3851.000000	98.673309
3850.000000	98.675444
3849.000000	98.678587
3848.000000	98.682263
3847.000000	98.686012
3846.000000	98.689264
3845.000000	98.691830
3844.000000	98.694061
3843.000000	98.696519
3842.000000	98.699008
3841.000000	98.700846
3840.000000	98.701654
3839.000000	98.701930
3838.000000	98.702894
3837.000000	98.705675
3836.000000	98.710209
3835.000000	98.714847
3834.000000	98.717068
3833.000000	98.715198
3832.000000	98.709665
3831.000000	98.702435
3830.000000	98.695451
3829.000000	98.689596
3828.000000	98.685473
3827.000000	98.684502
3826.000000	98.687450
3825.000000	98.692573
3824.000000	98.696488
3823.000000	98.697979
3822.000000	98.699337
3821.000000	98.702232
3820.000000	98.704311
3819.000000	98.702583
3818.000000	98.696281
3817.000000	98.687157
3816.000000	98.678955
3815.000000	98.673437
3814.000000	98.669678
3813.000000	98.667222
3812.000000	98.667405
3811.000000	98.671796
3810.000000	98.679483
3809.000000	98.686879
3808.000000	98.690991
3807.000000	98.692463
3806.000000	98.694421
3805.000000	98.698464
3804.000000	98.703487
3803.000000	98.709306
3802.000000	98.717440
3801.000000	98.725790
3800.000000	98.728307
3799.000000	98.722266
3798.000000	98.709784
3797.000000	98.695914
3796.000000	98.685682
3795.000000	98.680618
3794.000000	98.679065
3793.000000	98.679176
3792.000000	98.680443
3791.000000	98.682770
3790.000000	98.685366
3789.000000	98.686954
3788.000000	98.687094
3787.000000	98.686453
3786.000000	98.686009
3785.000000	98.686184
3784.000000	98.686731
3783.000000	98.687393
3782.000000	98.688370
3781.000000	98.690002
3780.000000	98.691801
3779.000000	98.692292
3778.000000	98.690579
3777.000000	98.687783
3776.000000	98.686018
3775.000000	98.686896
3774.000000	98.690230
3773.000000	98.693485
3772.000000	98.693246
3771.000000	98.688544
3770.000000	98.682750
3769.000000	98.681272
3768.000000	98.686899
3767.000000	98.697573
3766.000000	98.708367
3765.000000	98.714714
3764.000000	98.714943
3763.000000	98.710451
3762.000000	98.704179
3761.000000	98.699092
3760.000000	98.696093
3759.000000	98.693827
3758.000000	98.691891
3757.000000	98.692459
3756.000000	98.696897
3755.000000	98.703555
3754.000000	98.710047
3753.000000	98.715878
3752.000000	98.721423
3751.000000	98.724677
3750.000000	98.723129
3749.000000	98.719220
3748.000000	98.716817
3747.000000	98.715570
3746.000000	98.714043
3745.000000	98.713189
3744.000000	98.714253
3743.000000	98.717574
3742.000000	98.722143
3741.000000	98.725449
3740.000000	98.726521
3739.000000	98.726643
3738.000000	98.728085
3737.000000	98.733133
3736.000000	98.741861
3735.000000	98.749313
3734.000000	98.749628
3733.000000	98.743159
3732.000000	98.735547
3731.000000	98.731289
3730.000000	98.730152
3729.000000	98.729184
3728.000000	98.726886
3727.000000	98.724357
3726.000000	98.722827
3725.000000	98.721813
3724.000000	98.720698
3723.000000	98.720302
3722.000000	98.721741
3721.000000	98.725247
3720.000000	98.729844
3719.000000	98.733746
3718.000000	98.735506
3717.000000	98.734922
3716.000000	98.732876
3715.000000	98.730307
3714.000000	98.727212
3713.000000	98.722990
3712.000000	98.717575
3711.000000	98.712315
3710.000000	98.708902
3709.000000	98.707463
3708.000000	98.707024
3707.000000	98.706931
3706.000000	98.707339
3705.000000	98.708935
3704.000000	98.712170
3703.000000	98.716382
3702.000000	98.720040
3701.000000	98.722533
3700.000000	98.725080
3699.000000	98.728163
3698.000000	98.729975
3697.000000	98.728435
3696.000000	98.723459
3695.000000	98.717272
3694.000000	98.713317
3693.000000	98.715152
3692.000000	98.724535
3691.000000	98.738878
3690.000000	98.750048
3689.000000	98.749366
3688.000000	98.737018
3687.000000	98.721743
3686.000000	98.710042
3685.000000	98.702292
3684.000000	98.696640
3683.000000	98.691703
3682.000000	98.687165
3681.000000	98.683490
3680.000000	98.681349
3679.000000	98.679911
3678.000000	98.677077
3677.000000	98.672905
3676.000000	98.670593
3675.000000	98.670537
3674.000000	98.669430
3673.000000	98.665681
3672.000000	98.659932
3671.000000	98.655845
3670.000000	98.656439
3669.000000	98.657674
3668.000000	98.653928
3667.000000	98.645000
3666.000000	98.633596
3665.000000	98.622883
3664.000000	98.615148
3663.000000	98.610600
3662.000000	98.607894
3661.000000	98.605942
3660.000000	98.604921
3659.000000	98.604972
3658.000000	98.605086
3657.000000	98.603754
3656.000000	98.600942
3655.000000	98.598553
3654.000000	98.597445
3653.000000	98.595661
3652.000000	98.591134
3651.000000	98.583898
3650.000000	98.574962
3649.000000	98.564998
3648.000000	98.554990
3647.000000	98.545409
3646.000000	98.535366
3645.000000	98.524091
3644.000000	98.512494
3643.000000	98.503310
3642.000000	98.498838
3641.000000	98.498339
3640.000000	98.498835
3639.000000	98.498211
3638.000000	98.496123
3637.000000	98.492341
3636.000000	98.486171
3635.000000	98.477932
3634.000000	98.469463
3633.000000	98.461657
3632.000000	98.452539
3631.000000	98.439681
3630.000000	98.424500
3629.000000	98.412055
3628.000000	98.405245
3627.000000	98.402556
3626.000000	98.400249
3625.000000	98.395447
3624.000000	98.389054
3623.000000	98.383973
3622.000000	98.381333
3621.000000	98.379377
3620.000000	98.375099
3619.000000	98.367067
3618.000000	98.357119
3617.000000	98.347710
3616.000000	98.338412
3615.000000	98.327222
3614.000000	98.313746
3613.000000	98.299528
3612.000000	98.286224
3611.000000	98.274233
3610.000000	98.262935
3609.000000	98.252525
3608.000000	98.244308
3607.000000	98.238994
3606.000000	98.235849
3605.000000	98.233159
3604.000000	98.229400
3603.000000	98.223599
3602.000000	98.215570
3601.000000	98.206324
3600.000000	98.197605
3599.000000	98.190128
3598.000000	98.182587
3597.000000	98.172676
3596.000000	98.159482
3595.000000	98.144898
3594.000000	98.132008
3593.000000	98.121957
3592.000000	98.112482
3591.000000	98.100153
3590.000000	98.083914
3589.000000	98.067163
3588.000000	98.055277
3587.000000	98.050019
3586.000000	98.047951
3585.000000	98.044773
3584.000000	98.038134
3583.000000	98.027305
3582.000000	98.012913
3581.000000	97.997095
3580.000000	97.983055
3579.000000	97.973437
3578.000000	97.968191
3577.000000	97.964212
3576.000000	97.957158
3575.000000	97.944500
3574.000000	97.927117
3573.000000	97.908375
3572.000000	97.891375
3571.000000	97.876985
3570.000000	97.864407
3569.000000	97.853352
3568.000000	97.844803
3567.000000	97.839104
3566.000000	97.834534
3565.000000	97.828659
3564.000000	97.819665
3563.000000	97.806654
3562.000000	97.790358
3561.000000	97.773305
3560.000000	97.758230
3559.000000	97.745706
3558.000000	97.733977
3557.000000	97.721339
3556.000000	97.707840
3555.000000	97.694324
3554.000000	97.680689
3553.000000	97.665996
3552.000000	97.650210
3551.000000	97.634542
3550.000000	97.619865
3549.000000	97.606182
3548.000000	97.593804
3547.000000	97.583920
3546.000000	97.577451
3545.000000	97.573984
3544.000000	97.571812
3543.000000	97.568283
3542.000000	97.560352
3541.000000	97.546479
3540.000000	97.528461
3539.000000	97.510594
3538.000000	97.496328
3537.000000	97.485667
3536.000000	97.475767
3535.000000	97.463649
3534.000000	97.448159
3533.000000	97.430462
3532.000000	97.413629
3531.000000	97.400929
3530.000000	97.393230
3529.000000	97.388115
3528.000000	97.382403
3527.000000	97.375030
3526.000000	97.366611
3525.000000	97.357039
3524.000000	97.345007
3523.000000	97.329900
3522.000000	97.313032
3521.000000	97.296666
3520.000000	97.282455
3519.000000	97.270867
3518.000000	97.261333
3517.000000	97.252679
3516.000000	97.243936
3515.000000	97.234940
3514.000000	97.225820
3513.000000	97.216123
3512.000000	97.205046
3511.000000	97.192711
3510.000000	97.180649
3509.000000	97.170614
3508.000000	97.163094
3507.000000	97.157212
3506.000000	97.151888
3505.000000	97.146619
3504.000000	97.141155
3503.000000	97.134711
3502.000000	97.126045
3501.000000	97.114502
3500.000000	97.100700
3499.000000	97.086237
3498.000000	97.072758
3497.000000	97.060936
3496.000000	97.049791
3495.000000	97.037281
3494.000000	97.022207
3493.000000	97.005947
3492.000000	96.991886
3491.000000	96.982539
3490.000000	96.976925
3489.000000	96.971060
3488.000000	96.961308
3487.000000	96.947079
3486.000000	96.930290
3485.000000	96.912862
3484.000000	96.895657
3483.000000	96.879663
3482.000000	96.867183
3481.000000	96.860844
3480.000000	96.861097
3479.000000	96.864883
3478.000000	96.867157
3477.000000	96.863969
3476.000000	96.854688
3475.000000	96.841959
3474.000000	96.829555
3473.000000	96.819592
3472.000000	96.811002
3471.000000	96.800405
3470.000000	96.785132
3469.000000	96.766147
3468.000000	96.748174
3467.000000	96.736327
3466.000000	96.732087
3465.000000	96.732446
3464.000000	96.732460
3463.000000	96.728573
3462.000000	96.720136
3461.000000	96.708632
3460.000000	96.695694
3459.000000	96.681767
3458.000000	96.666684
3457.000000	96.651280
3456.000000	96.637864
3455.000000	96.628624
3454.000000	96.623661
3453.000000	96.621050
3452.000000	96.618609
3451.000000	96.615403
3450.000000	96.611718
3449.000000	96.607991
3448.000000	96.603820
3447.000000	96.597942
3446.000000	96.589362
3445.000000	96.578498
3444.000000	96.566867
3443.000000	96.555948
3442.000000	96.546727
3441.000000	96.539886
3440.000000	96.535451
3439.000000	96.532111
3438.000000	96.527791
3437.000000	96.521529
3436.000000	96.514141
3435.000000	96.506487
3434.000000	96.497939
3433.000000	96.487551
3432.000000	96.475977
3431.000000	96.464982
3430.000000	96.455399
3429.000000	96.446743
3428.000000	96.438606
3427.000000	96.430954
3426.000000	96.423061
3425.000000	96.413769
3424.000000	96.403443
3423.000000	96.394446
3422.000000	96.388550
3421.000000	96.384394
3420.000000	96.378456
3419.000000	96.368503
3418.000000	96.355375
3417.000000	96.341636
3416.000000	96.329413
3415.000000	96.319474
3414.000000	96.311572
3413.000000	96.304948
3412.000000	96.298366
3411.000000	96.290238
3410.000000	96.279707
3409.000000	96.268003
3408.000000	96.257957
3407.000000	96.251222
3406.000000	96.246310
3405.000000	96.240216
3404.000000	96.231849
3403.000000	96.223035
3402.000000	96.216079
3401.000000	96.211290
3400.000000	96.206893
3399.000000	96.200413
3398.000000	96.189927
3397.000000	96.175216
3396.000000	96.158526
3395.000000	96.143537
3394.000000	96.132590
3393.000000	96.124815
3392.000000	96.117350
3391.000000	96.108421
3390.000000	96.098972
3389.000000	96.091275
3388.000000	96.086171
3387.000000	96.081756
3386.000000	96.074946
3385.000000	96.064603
3384.000000	96.052742
3383.000000	96.042206
3382.000000	96.033546
3381.000000	96.024951
3380.000000	96.014926
3379.000000	96.003869
3378.000000	95.992839
3377.000000	95.981808
3376.000000	95.969708
3375.000000	95.955670
3374.000000	95.939884
3373.000000	95.923808
3372.000000	95.909858
3371.000000	95.900011
3370.000000	95.893889
3369.000000	95.888523
3368.000000	95.880698
3367.000000	95.869492
3366.000000	95.856295
3365.000000	95.842952
3364.000000	95.830563
3363.000000	95.819416
3362.000000	95.808827
3361.000000	95.796957
3360.000000	95.781977
3359.000000	95.763986
3358.000000	95.745186
3357.000000	95.727613
3356.000000	95.711184
3355.000000	95.694634
3354.000000	95.677968
3353.000000	95.662919
3352.000000	95.650699
3351.000000	95.640174
3350.000000	95.628879
3349.000000	95.615374
3348.000000	95.600090
3347.000000	95.584262
3346.000000	95.568758
3345.000000	95.553799
3344.000000	95.538984
3343.000000	95.523597
3342.000000	95.507605
3341.000000	95.492311
3340.000000	95.479040
3339.000000	95.466953
3338.000000	95.453224
3337.000000	95.436060
3336.000000	95.416734
3335.000000	95.397857
3334.000000	95.380323
3333.000000	95.363035
3332.000000	95.345240
3331.000000	95.327855
3330.000000	95.312429
3329.000000	95.299527
3328.000000	95.288232
3327.000000	95.276774
3326.000000	95.263827
3325.000000	95.249756
3324.000000	95.236503
3323.000000	95.225686
3322.000000	95.216708
3321.000000	95.207111
3320.000000	95.194674
3319.000000	95.178952
3318.000000	95.161205
3317.000000	95.143416
3316.000000	95.127218
3315.000000	95.113168
3314.000000	95.100923
3313.000000	95.090084
3312.000000	95.080372
3311.000000	95.070837
3310.000000	95.059865
3309.000000	95.046916
3308.000000	95.033672
3307.000000	95.022235
3306.000000	95.012423
3305.000000	95.001939
3304.000000	94.989135
3303.000000	94.974710
3302.000000	94.960676
3301.000000	94.948545
3300.000000	94.938643
3299.000000	94.930300
3298.000000	94.922361
3297.000000	94.914111
3296.000000	94.905846
3295.000000	94.898090
3294.000000	94.890355
3293.000000	94.881556
3292.000000	94.871734
3291.000000	94.862559
3290.000000	94.855812
3289.000000	94.851872
3288.000000	94.849808
3287.000000	94.848320
3286.000000	94.846477
3285.000000	94.844201
3284.000000	94.842113
3283.000000	94.840460
3282.000000	94.838413
3281.000000	94.835375
3280.000000	94.832977
3279.000000	94.834363
3278.000000	94.840968
3277.000000	94.850892
3276.000000	94.861212
3275.000000	94.871228
3274.000000	94.882247
3273.000000	94.894813
3272.000000	94.907245
3271.000000	94.917033
3270.000000	94.922969
3269.000000	94.925796
3268.000000	94.927588
3267.000000	94.930886
3266.000000	94.937845
3265.000000	94.949256
3264.000000	94.963907
3263.000000	94.979234
3262.000000	94.993239
3261.000000	95.005957
3260.000000	95.018859
3259.000000	95.032690
3258.000000	95.046593
3257.000000	95.059667
3256.000000	95.072592
3255.000000	95.086837
3254.000000	95.102602
3253.000000	95.118700
3252.000000	95.134408
3251.000000	95.150232
3250.000000	95.166458
3249.000000	95.182068
3248.000000	95.196024
3247.000000	95.208805
3246.000000	95.221560
3245.000000	95.233809
3244.000000	95.243244
3243.000000	95.248473
3242.000000	95.251207
3241.000000	95.255118
3240.000000	95.262722
3239.000000	95.273952
3238.000000	95.287598
3237.000000	95.303056
3236.000000	95.320112
3235.000000	95.337705
3234.000000	95.354102
3233.000000	95.368207
3232.000000	95.379749
3231.000000	95.388106
3230.000000	95.392109
3229.000000	95.391790
3228.000000	95.389763
3227.000000	95.390036
3226.000000	95.395413
3225.000000	95.406065
3224.000000	95.419859
3223.000000	95.433694
3222.000000	95.445524
3221.000000	95.455931
3220.000000	95.467408
3219.000000	95.481245
3218.000000	95.495498
3217.000000	95.506869
3216.000000	95.514045
3215.000000	95.518510
3214.000000	95.522475
3213.000000	95.527097
3212.000000	95.532531
3211.000000	95.538557
3210.000000	95.544813
3209.000000	95.551083
3208.000000	95.557743
3207.000000	95.565562
3206.000000	95.574844
3205.000000	95.584830
3204.000000	95.593827
3203.000000	95.600101
3202.000000	95.603499
3201.000000	95.606543
3200.000000	95.613088
3199.000000	95.624778
3198.000000	95.639251
3197.000000	95.652539
3196.000000	95.662724
3195.000000	95.670522
3194.000000	95.677323
3193.000000	95.684372
3192.000000	95.693303
3191.000000	95.705472
3190.000000	95.720277
3189.000000	95.735402
3188.000000	95.749093
3187.000000	95.761217
3186.000000	95.772179
3185.000000	95.782157
3184.000000	95.791755
3183.000000	95.802012
3182.000000	95.813102
3181.000000	95.823940
3180.000000	95.833540
3179.000000	95.841885
3178.000000	95.849479
3177.000000	95.857377
3176.000000	95.868134
3175.000000	95.884823
3174.000000	95.907692
3173.000000	95.932622
3172.000000	95.954023
3171.000000	95.969063
3170.000000	95.978432
3169.000000	95.984342
3168.000000	95.989303
3167.000000	95.996098
3166.000000	96.006795
3165.000000	96.021014
3164.000000	96.036214
3163.000000	96.050194
3162.000000	96.062820
3161.000000	96.075235
3160.000000	96.088338
3159.000000	96.102559
3158.000000	96.118094
3157.000000	96.134172
3156.000000	96.148274
3155.000000	96.157674
3154.000000	96.162667
3153.000000	96.167737
3152.000000	96.178055
3151.000000	96.194437
3150.000000	96.212443
3149.000000	96.226952
3148.000000	96.236825
3147.000000	96.244580
3146.000000	96.252574
