PE IR       SUBTECH     SPECTRUM    ASCII       PEDS        4.00        
   -1
3C-XXX-F006_1.ASC
23/09/07
10:41:15.00
23/09/07
11:30:09.00
uco
Sample 006 By uco Date Thursday, September 07 2023
450.000000
#HDR
-1
-1
#GR
cm-1
%T
1.0
0.0
4000.000000
-1.000000
3551
8
98.755542
88.884903
#DATA
4000.000000	98.698628
3999.000000	98.697783
3998.000000	98.695835
3997.000000	98.693883
3996.000000	98.693074
3995.000000	98.693996
3994.000000	98.695894
3993.000000	98.696860
3992.000000	98.694965
3991.000000	98.689431
3990.000000	98.681096
3989.000000	98.672029
3988.000000	98.664668
3987.000000	98.660723
3986.000000	98.660440
3985.000000	98.662839
3984.000000	98.666746
3983.000000	98.671594
3982.000000	98.677046
3981.000000	98.682162
3980.000000	98.685420
3979.000000	98.685726
3978.000000	98.683190
3977.000000	98.678839
3976.000000	98.673858
3975.000000	98.669296
3974.000000	98.666256
3973.000000	98.665714
3972.000000	98.667760
3971.000000	98.671101
3970.000000	98.673720
3969.000000	98.674229
3968.000000	98.672806
3967.000000	98.670929
3966.000000	98.670120
3965.000000	98.670858
3964.000000	98.672376
3963.000000	98.673340
3962.000000	98.672831
3961.000000	98.670673
3960.000000	98.667167
3959.000000	98.662769
3958.000000	98.658046
3957.000000	98.653709
3956.000000	98.650309
3955.000000	98.648003
3954.000000	98.646660
3953.000000	98.646281
3952.000000	98.647244
3951.000000	98.649993
3950.000000	98.654361
3949.000000	98.659164
3948.000000	98.662696
3947.000000	98.663665
3946.000000	98.661711
3945.000000	98.657216
3944.000000	98.651585
3943.000000	98.647736
3942.000000	98.648459
3941.000000	98.653669
3940.000000	98.660190
3939.000000	98.664122
3938.000000	98.663373
3937.000000	98.658655
3936.000000	98.652561
3935.000000	98.647967
3934.000000	98.646785
3933.000000	98.649608
3932.000000	98.655633
3931.000000	98.662667
3930.000000	98.668304
3929.000000	98.671527
3928.000000	98.672954
3927.000000	98.673392
3926.000000	98.672889
3925.000000	98.671400
3924.000000	98.669073
3923.000000	98.665832
3922.000000	98.661668
3921.000000	98.656858
3920.000000	98.651397
3919.000000	98.644741
3918.000000	98.637291
3917.000000	98.631875
3916.000000	98.631812
3915.000000	98.636898
3914.000000	98.642912
3913.000000	98.645240
3912.000000	98.642275
3911.000000	98.635925
3910.000000	98.629517
3909.000000	98.625301
3908.000000	98.623310
3907.000000	98.621794
3906.000000	98.618743
3905.000000	98.615097
3904.000000	98.615855
3903.000000	98.624817
3902.000000	98.638833
3901.000000	98.650049
3900.000000	98.653851
3899.000000	98.652458
3898.000000	98.650715
3897.000000	98.650703
3896.000000	98.651647
3895.000000	98.652273
3894.000000	98.651593
3893.000000	98.648847
3892.000000	98.645478
3891.000000	98.645012
3890.000000	98.648329
3889.000000	98.652788
3888.000000	98.654557
3887.000000	98.651022
3886.000000	98.644945
3885.000000	98.642763
3884.000000	98.646083
3883.000000	98.649735
3882.000000	98.647361
3881.000000	98.638178
3880.000000	98.628476
3879.000000	98.624262
3878.000000	98.625963
3877.000000	98.630464
3876.000000	98.633975
3875.000000	98.635337
3874.000000	98.637206
3873.000000	98.641198
3872.000000	98.643425
3871.000000	98.639141
3870.000000	98.632270
3869.000000	98.632046
3868.000000	98.640573
3867.000000	98.651631
3866.000000	98.658614
3865.000000	98.660270
3864.000000	98.659642
3863.000000	98.658478
3862.000000	98.655889
3861.000000	98.650920
3860.000000	98.643374
3859.000000	98.633332
3858.000000	98.621928
3857.000000	98.612550
3856.000000	98.608515
3855.000000	98.606143
3854.000000	98.601820
3853.000000	98.602054
3852.000000	98.608908
3851.000000	98.616384
3850.000000	98.621748
3849.000000	98.627015
3848.000000	98.634617
3847.000000	98.643489
3846.000000	98.649549
3845.000000	98.648955
3844.000000	98.641715
3843.000000	98.632553
3842.000000	98.626851
3841.000000	98.625719
3840.000000	98.626403
3839.000000	98.626638
3838.000000	98.626887
3837.000000	98.628561
3836.000000	98.631795
3835.000000	98.635296
3834.000000	98.637052
3833.000000	98.635745
3832.000000	98.632370
3831.000000	98.629257
3830.000000	98.627578
3829.000000	98.626307
3828.000000	98.623618
3827.000000	98.619710
3826.000000	98.617129
3825.000000	98.617719
3824.000000	98.620638
3823.000000	98.621759
3822.000000	98.618592
3821.000000	98.617375
3820.000000	98.622465
3819.000000	98.628385
3818.000000	98.628357
3817.000000	98.621556
3816.000000	98.615891
3815.000000	98.618621
3814.000000	98.626343
3813.000000	98.631361
3812.000000	98.631190
3811.000000	98.629600
3810.000000	98.631416
3809.000000	98.636220
3808.000000	98.638660
3807.000000	98.636239
3806.000000	98.632353
3805.000000	98.631330
3804.000000	98.633870
3803.000000	98.636475
3802.000000	98.638341
3801.000000	98.642991
3800.000000	98.648649
3799.000000	98.649543
3798.000000	98.643274
3797.000000	98.633212
3796.000000	98.625826
3795.000000	98.624043
3794.000000	98.625430
3793.000000	98.626820
3792.000000	98.627802
3791.000000	98.629689
3790.000000	98.633469
3789.000000	98.638967
3788.000000	98.644974
3787.000000	98.649401
3786.000000	98.650399
3785.000000	98.648331
3784.000000	98.645843
3783.000000	98.644944
3782.000000	98.644787
3781.000000	98.642610
3780.000000	98.637650
3779.000000	98.633124
3778.000000	98.632172
3777.000000	98.634291
3776.000000	98.637039
3775.000000	98.639084
3774.000000	98.640500
3773.000000	98.640775
3772.000000	98.638069
3771.000000	98.632582
3770.000000	98.629351
3769.000000	98.633129
3768.000000	98.641982
3767.000000	98.649454
3766.000000	98.651378
3765.000000	98.649017
3764.000000	98.646227
3763.000000	98.644923
3762.000000	98.644133
3761.000000	98.642289
3760.000000	98.639696
3759.000000	98.638435
3758.000000	98.640139
3757.000000	98.644653
3756.000000	98.650212
3755.000000	98.654414
3754.000000	98.655214
3753.000000	98.651955
3752.000000	98.646165
3751.000000	98.641118
3750.000000	98.637399
3749.000000	98.632304
3748.000000	98.625712
3747.000000	98.620808
3746.000000	98.620204
3745.000000	98.629198
3744.000000	98.652494
3743.000000	98.679850
3742.000000	98.695509
3741.000000	98.694797
3740.000000	98.684837
3739.000000	98.677703
3738.000000	98.680725
3737.000000	98.691595
3736.000000	98.702650
3735.000000	98.707964
3734.000000	98.706266
3733.000000	98.700438
3732.000000	98.694990
3731.000000	98.692840
3730.000000	98.694223
3729.000000	98.697589
3728.000000	98.700778
3727.000000	98.702603
3726.000000	98.703111
3725.000000	98.702173
3724.000000	98.699655
3723.000000	98.696605
3722.000000	98.694627
3721.000000	98.694252
3720.000000	98.694743
3719.000000	98.694919
3718.000000	98.694310
3717.000000	98.693653
3716.000000	98.694081
3715.000000	98.695758
3714.000000	98.696492
3713.000000	98.692661
3712.000000	98.684815
3711.000000	98.680365
3710.000000	98.684994
3709.000000	98.695749
3708.000000	98.704986
3707.000000	98.707270
3706.000000	98.702381
3705.000000	98.693969
3704.000000	98.686390
3703.000000	98.682375
3702.000000	98.683302
3701.000000	98.688985
3700.000000	98.696856
3699.000000	98.702609
3698.000000	98.702604
3697.000000	98.696444
3696.000000	98.687213
3695.000000	98.678423
3694.000000	98.671766
3693.000000	98.667760
3692.000000	98.666359
3691.000000	98.666938
3690.000000	98.669585
3689.000000	98.676007
3688.000000	98.685260
3687.000000	98.692927
3686.000000	98.695614
3685.000000	98.693105
3684.000000	98.687910
3683.000000	98.682632
3682.000000	98.676849
3681.000000	98.667871
3680.000000	98.655912
3679.000000	98.645197
3678.000000	98.637828
3677.000000	98.628736
3676.000000	98.617631
3675.000000	98.615401
3674.000000	98.625120
3673.000000	98.637792
3672.000000	98.643460
3671.000000	98.636827
3670.000000	98.623371
3669.000000	98.613897
3668.000000	98.610850
3667.000000	98.609590
3666.000000	98.606566
3665.000000	98.601749
3664.000000	98.596900
3663.000000	98.593205
3662.000000	98.590659
3661.000000	98.589399
3660.000000	98.590185
3659.000000	98.592622
3658.000000	98.593178
3657.000000	98.588338
3656.000000	98.580532
3655.000000	98.575870
3654.000000	98.577382
3653.000000	98.583322
3652.000000	98.588115
3651.000000	98.583501
3650.000000	98.565891
3649.000000	98.543046
3648.000000	98.525651
3647.000000	98.515917
3646.000000	98.509687
3645.000000	98.503322
3644.000000	98.496284
3643.000000	98.490758
3642.000000	98.489641
3641.000000	98.493824
3640.000000	98.500907
3639.000000	98.507196
3638.000000	98.510276
3637.000000	98.509050
3636.000000	98.502449
3635.000000	98.490176
3634.000000	98.475281
3633.000000	98.463780
3632.000000	98.460876
3631.000000	98.465811
3630.000000	98.470358
3629.000000	98.468786
3628.000000	98.462892
3627.000000	98.454951
3626.000000	98.445144
3625.000000	98.433686
3624.000000	98.422298
3623.000000	98.413297
3622.000000	98.406793
3621.000000	98.399451
3620.000000	98.387618
3619.000000	98.372422
3618.000000	98.358865
3617.000000	98.350194
3616.000000	98.345464
3615.000000	98.340910
3614.000000	98.333195
3613.000000	98.322272
3612.000000	98.311054
3611.000000	98.302084
3610.000000	98.294801
3609.000000	98.287286
3608.000000	98.280030
3607.000000	98.275176
3606.000000	98.272733
3605.000000	98.270337
3604.000000	98.265997
3603.000000	98.259621
3602.000000	98.252689
3601.000000	98.246914
3600.000000	98.242402
3599.000000	98.236806
3598.000000	98.227028
3597.000000	98.211776
3596.000000	98.192648
3595.000000	98.173741
3594.000000	98.158935
3593.000000	98.148458
3592.000000	98.139353
3591.000000	98.129017
3590.000000	98.116205
3589.000000	98.100237
3588.000000	98.082594
3587.000000	98.067224
3586.000000	98.056075
3585.000000	98.048051
3584.000000	98.041655
3583.000000	98.035482
3582.000000	98.027917
3581.000000	98.017926
3580.000000	98.006386
3579.000000	97.995626
3578.000000	97.987324
3577.000000	97.980938
3576.000000	97.973798
3575.000000	97.962667
3574.000000	97.945935
3573.000000	97.925590
3572.000000	97.907154
3571.000000	97.896761
3570.000000	97.896276
3569.000000	97.900026
3568.000000	97.897822
3567.000000	97.884466
3566.000000	97.864116
3565.000000	97.843915
3564.000000	97.827090
3563.000000	97.812771
3562.000000	97.799119
3561.000000	97.785564
3560.000000	97.772873
3559.000000	97.761626
3558.000000	97.751073
3557.000000	97.739695
3556.000000	97.726292
3555.000000	97.710208
3554.000000	97.691469
3553.000000	97.671839
3552.000000	97.654918
3551.000000	97.643539
3550.000000	97.637302
3549.000000	97.633159
3548.000000	97.627654
3547.000000	97.618752
3546.000000	97.606640
3545.000000	97.593235
3544.000000	97.580455
3543.000000	97.568415
3542.000000	97.555327
3541.000000	97.539625
3540.000000	97.522071
3539.000000	97.505415
3538.000000	97.491667
3537.000000	97.479980
3536.000000	97.467313
3535.000000	97.451203
3534.000000	97.431953
3533.000000	97.412523
3532.000000	97.396589
3531.000000	97.386116
3530.000000	97.380145
3529.000000	97.375963
3528.000000	97.371686
3527.000000	97.367178
3526.000000	97.362535
3525.000000	97.356530
3524.000000	97.346924
3523.000000	97.332095
3522.000000	97.312270
3521.000000	97.289753
3520.000000	97.268144
3519.000000	97.250691
3518.000000	97.238410
3517.000000	97.229248
3516.000000	97.219534
3515.000000	97.206755
3514.000000	97.191325
3513.000000	97.175858
3512.000000	97.162845
3511.000000	97.152924
3510.000000	97.145160
3509.000000	97.138751
3508.000000	97.133994
3507.000000	97.131248
3506.000000	97.129200
3505.000000	97.124750
3504.000000	97.115319
3503.000000	97.101488
3502.000000	97.086734
3501.000000	97.074117
3500.000000	97.063429
3499.000000	97.051721
3498.000000	97.036598
3497.000000	97.019156
3496.000000	97.003258
3495.000000	96.991439
3494.000000	96.982261
3493.000000	96.972425
3492.000000	96.960663
3491.000000	96.948481
3490.000000	96.937631
3489.000000	96.928246
3488.000000	96.919726
3487.000000	96.912069
3486.000000	96.905160
3485.000000	96.897342
3484.000000	96.886064
3483.000000	96.870503
3482.000000	96.853223
3481.000000	96.838487
3480.000000	96.828809
3479.000000	96.823540
3478.000000	96.820438
3477.000000	96.817589
3476.000000	96.813724
3475.000000	96.807784
3474.000000	96.799143
3473.000000	96.788031
3472.000000	96.774957
3471.000000	96.759868
3470.000000	96.742759
3469.000000	96.725164
3468.000000	96.709932
3467.000000	96.698766
3466.000000	96.690644
3465.000000	96.683493
3464.000000	96.676928
3463.000000	96.672355
3462.000000	96.670291
3461.000000	96.668332
3460.000000	96.662272
3459.000000	96.649346
3458.000000	96.630616
3457.000000	96.610549
3456.000000	96.594136
3455.000000	96.583683
3454.000000	96.577976
3453.000000	96.574283
3452.000000	96.570745
3451.000000	96.566933
3450.000000	96.563045
3449.000000	96.559232
3448.000000	96.555257
3447.000000	96.550034
3446.000000	96.541795
3445.000000	96.529764
3444.000000	96.515449
3443.000000	96.501640
3442.000000	96.490236
3441.000000	96.481295
3440.000000	96.473711
3439.000000	96.466135
3438.000000	96.457544
3437.000000	96.447959
3436.000000	96.438801
3435.000000	96.431729
3434.000000	96.426763
3433.000000	96.421922
3432.000000	96.414902
3431.000000	96.404835
3430.000000	96.392678
3429.000000	96.380431
3428.000000	96.369749
3427.000000	96.360682
3426.000000	96.351887
3425.000000	96.342573
3424.000000	96.333814
3423.000000	96.326989
3422.000000	96.321083
3421.000000	96.312765
3420.000000	96.299801
3419.000000	96.283806
3418.000000	96.269002
3417.000000	96.258513
3416.000000	96.251921
3415.000000	96.245821
3414.000000	96.236696
3413.000000	96.223821
3412.000000	96.209561
3411.000000	96.196928
3410.000000	96.187307
3409.000000	96.180635
3408.000000	96.176598
3407.000000	96.174398
3406.000000	96.171795
3405.000000	96.165902
3404.000000	96.155514
3403.000000	96.142195
3402.000000	96.128966
3401.000000	96.118208
3400.000000	96.110330
3399.000000	96.103442
3398.000000	96.094379
3397.000000	96.081096
3396.000000	96.064496
3395.000000	96.047512
3394.000000	96.032520
3393.000000	96.020195
3392.000000	96.010454
3391.000000	96.003248
3390.000000	95.998032
3389.000000	95.993364
3388.000000	95.987668
3387.000000	95.980151
3386.000000	95.970887
3385.000000	95.960423
3384.000000	95.949531
3383.000000	95.938867
3382.000000	95.928626
3381.000000	95.918737
3380.000000	95.909307
3379.000000	95.900248
3378.000000	95.890475
3377.000000	95.878231
3376.000000	95.862686
3375.000000	95.844977
3374.000000	95.827401
3373.000000	95.811813
3372.000000	95.798772
3371.000000	95.787625
3370.000000	95.776936
3369.000000	95.765182
3368.000000	95.751714
3367.000000	95.737267
3366.000000	95.723330
3365.000000	95.710901
3364.000000	95.699764
3363.000000	95.688788
3362.000000	95.676774
3361.000000	95.663087
3360.000000	95.647584
3359.000000	95.630054
3358.000000	95.610056
3357.000000	95.587580
3356.000000	95.563819
3355.000000	95.540984
3354.000000	95.521003
3353.000000	95.504126
3352.000000	95.488550
3351.000000	95.471632
3350.000000	95.452098
3349.000000	95.431328
3348.000000	95.412004
3347.000000	95.395105
3346.000000	95.378606
3345.000000	95.359559
3344.000000	95.337256
3343.000000	95.313931
3342.000000	95.292541
3341.000000	95.274293
3340.000000	95.258200
3339.000000	95.242490
3338.000000	95.226259
3337.000000	95.209932
3336.000000	95.194260
3335.000000	95.179099
3334.000000	95.163510
3333.000000	95.146962
3332.000000	95.129851
3331.000000	95.112729
3330.000000	95.095598
3329.000000	95.078077
3328.000000	95.059649
3327.000000	95.039682
3326.000000	95.018084
3325.000000	94.996328
3324.000000	94.976986
3323.000000	94.961562
3322.000000	94.949400
3321.000000	94.939129
3320.000000	94.930029
3319.000000	94.921229
3318.000000	94.910746
3317.000000	94.896866
3316.000000	94.880203
3315.000000	94.863106
3314.000000	94.847086
3313.000000	94.831965
3312.000000	94.817328
3311.000000	94.803527
3310.000000	94.791040
3309.000000	94.779697
3308.000000	94.768846
3307.000000	94.757633
3306.000000	94.745096
3305.000000	94.730756
3304.000000	94.715320
3303.000000	94.700212
3302.000000	94.686296
3301.000000	94.673541
3300.000000	94.661877
3299.000000	94.651582
3298.000000	94.642680
3297.000000	94.634544
3296.000000	94.626348
3295.000000	94.617671
3294.000000	94.608712
3293.000000	94.600291
3292.000000	94.593457
3291.000000	94.588597
3290.000000	94.585093
3289.000000	94.582179
3288.000000	94.579770
3287.000000	94.577902
3286.000000	94.575951
3285.000000	94.573322
3284.000000	94.570387
3283.000000	94.567697
3282.000000	94.564588
3281.000000	94.560083
3280.000000	94.555479
3279.000000	94.554420
3278.000000	94.559548
3277.000000	94.569637
3276.000000	94.580783
3275.000000	94.590143
3274.000000	94.597818
3273.000000	94.605561
3272.000000	94.614409
3271.000000	94.623531
3270.000000	94.630955
3269.000000	94.635226
3268.000000	94.636557
3267.000000	94.636584
3266.000000	94.637256
3265.000000	94.640093
3264.000000	94.646135
3263.000000	94.655904
3262.000000	94.668989
3261.000000	94.683886
3260.000000	94.698584
3259.000000	94.711659
3258.000000	94.723135
3257.000000	94.734470
3256.000000	94.747450
3255.000000	94.762697
3254.000000	94.779181
3253.000000	94.795225
3252.000000	94.809808
3251.000000	94.822916
3250.000000	94.835196
3249.000000	94.847690
3248.000000	94.861391
3247.000000	94.876140
3246.000000	94.889834
3245.000000	94.899395
3244.000000	94.903257
3243.000000	94.903060
3242.000000	94.902785
3241.000000	94.906072
3240.000000	94.914029
3239.000000	94.925492
3238.000000	94.939156
3237.000000	94.954839
3236.000000	94.972238
3235.000000	94.989351
3234.000000	95.003684
3233.000000	95.015051
3232.000000	95.025724
3231.000000	95.037073
3230.000000	95.047310
3229.000000	95.053552
3228.000000	95.055255
3227.000000	95.054649
3226.000000	95.054513
3225.000000	95.056722
3224.000000	95.062259
3223.000000	95.071045
3222.000000	95.081692
3221.000000	95.092478
3220.000000	95.102705
3219.000000	95.112351
3218.000000	95.120629
3217.000000	95.126206
3216.000000	95.129167
3215.000000	95.131844
3214.000000	95.136981
3213.000000	95.145318
3212.000000	95.155150
3211.000000	95.163913
3210.000000	95.170156
3209.000000	95.174445
3208.000000	95.178724
3207.000000	95.184791
3206.000000	95.193313
3205.000000	95.203912
3204.000000	95.215380
3203.000000	95.225811
3202.000000	95.233726
3201.000000	95.239761
3200.000000	95.246386
3199.000000	95.255039
3198.000000	95.264305
3197.000000	95.271904
3196.000000	95.277681
3195.000000	95.283486
3194.000000	95.291017
3193.000000	95.301384
3192.000000	95.315797
3191.000000	95.334255
3190.000000	95.353517
3189.000000	95.368823
3188.000000	95.378770
3187.000000	95.387032
3186.000000	95.398407
3185.000000	95.414124
3184.000000	95.431675
3183.000000	95.447922
3182.000000	95.461393
3181.000000	95.472598
3180.000000	95.483222
3179.000000	95.494503
3178.000000	95.505810
3177.000000	95.515624
3176.000000	95.524477
3175.000000	95.535499
3174.000000	95.550853
3173.000000	95.568549
3172.000000	95.584106
3171.000000	95.595072
3170.000000	95.602910
3169.000000	95.611031
3168.000000	95.622124
3167.000000	95.636872
3166.000000	95.653634
3165.000000	95.669163
3164.000000	95.681071
3163.000000	95.690260
3162.000000	95.700252
3161.000000	95.713735
3160.000000	95.730351
3159.000000	95.747857
3158.000000	95.764437
3157.000000	95.779306
3156.000000	95.792094
3155.000000	95.802938
3154.000000	95.813112
3153.000000	95.824450
3152.000000	95.837547
3151.000000	95.850906
3150.000000	95.862469
3149.000000	95.872030
3148.000000	95.881667
3147.000000	95.893564
3146.000000	95.907729
