PE IR       SUBTECH     SPECTRUM    ASCII       PEDS        4.00        
   -1
3C-YYX-C010_1.ASC
23/09/07
11:19:08.00
23/09/07
11:30:09.00
uco
Sample 010 By uco Date Thursday, September 07 2023
450.000000
#HDR
-1
-1
#GR
cm-1
%T
1.0
0.0
4000.000000
-1.000000
3551
8
98.645507
78.529958
#DATA
4000.000000	98.599510
3999.000000	98.594176
3998.000000	98.587329
3997.000000	98.582103
3996.000000	98.579855
3995.000000	98.580016
3994.000000	98.581283
3993.000000	98.582637
3992.000000	98.583468
3991.000000	98.583409
3990.000000	98.582503
3989.000000	98.581322
3988.000000	98.580556
3987.000000	98.580289
3986.000000	98.579944
3985.000000	98.579229
3984.000000	98.578983
3983.000000	98.580635
3982.000000	98.584523
3981.000000	98.588909
3980.000000	98.590905
3979.000000	98.588519
3978.000000	98.582042
3977.000000	98.574016
3976.000000	98.568006
3975.000000	98.566812
3974.000000	98.570866
3973.000000	98.577861
3972.000000	98.584110
3971.000000	98.586736
3970.000000	98.585241
3969.000000	98.581377
3968.000000	98.577655
3967.000000	98.575618
3966.000000	98.575049
3965.000000	98.574622
3964.000000	98.573241
3963.000000	98.570721
3962.000000	98.567499
3961.000000	98.564165
3960.000000	98.561186
3959.000000	98.558892
3958.000000	98.557345
3957.000000	98.556095
3956.000000	98.554453
3955.000000	98.551984
3954.000000	98.548817
3953.000000	98.545817
3952.000000	98.544468
3951.000000	98.546297
3950.000000	98.551559
3949.000000	98.558348
3948.000000	98.563550
3947.000000	98.564856
3946.000000	98.562245
3945.000000	98.557884
3944.000000	98.555149
3943.000000	98.556964
3942.000000	98.563393
3941.000000	98.571388
3940.000000	98.577024
3939.000000	98.577574
3938.000000	98.572322
3937.000000	98.562452
3936.000000	98.550968
3935.000000	98.542043
3934.000000	98.539326
3933.000000	98.544159
3932.000000	98.554340
3931.000000	98.564948
3930.000000	98.570991
3929.000000	98.570125
3928.000000	98.564000
3927.000000	98.556950
3926.000000	98.553343
3925.000000	98.554928
3924.000000	98.559933
3923.000000	98.565123
3922.000000	98.568311
3921.000000	98.568422
3920.000000	98.564863
3919.000000	98.558062
3918.000000	98.550717
3917.000000	98.546947
3916.000000	98.548693
3915.000000	98.553568
3914.000000	98.556722
3913.000000	98.554945
3912.000000	98.548747
3911.000000	98.541570
3910.000000	98.536978
3909.000000	98.536058
3908.000000	98.537460
3907.000000	98.538924
3906.000000	98.538820
3905.000000	98.537428
3904.000000	98.537259
3903.000000	98.541273
3902.000000	98.549890
3901.000000	98.559894
3900.000000	98.567342
3899.000000	98.570206
3898.000000	98.568697
3897.000000	98.564386
3896.000000	98.559001
3895.000000	98.554029
3894.000000	98.550645
3893.000000	98.549262
3892.000000	98.549281
3891.000000	98.549682
3890.000000	98.550324
3889.000000	98.551989
3888.000000	98.554909
3887.000000	98.558354
3886.000000	98.561247
3885.000000	98.562962
3884.000000	98.564470
3883.000000	98.567169
3882.000000	98.570542
3881.000000	98.571536
3880.000000	98.567226
3879.000000	98.558476
3878.000000	98.549073
3877.000000	98.541760
3876.000000	98.537777
3875.000000	98.537787
3874.000000	98.540775
3873.000000	98.543846
3872.000000	98.544955
3871.000000	98.545367
3870.000000	98.547818
3869.000000	98.552417
3868.000000	98.556880
3867.000000	98.559475
3866.000000	98.560060
3865.000000	98.559684
3864.000000	98.559296
3863.000000	98.558772
3862.000000	98.557091
3861.000000	98.553569
3860.000000	98.549327
3859.000000	98.546233
3858.000000	98.544951
3857.000000	98.543843
3856.000000	98.540501
3855.000000	98.535105
3854.000000	98.531691
3853.000000	98.533141
3852.000000	98.537159
3851.000000	98.540675
3850.000000	98.542826
3849.000000	98.544174
3848.000000	98.545647
3847.000000	98.547780
3846.000000	98.549916
3845.000000	98.550011
3844.000000	98.546113
3843.000000	98.538911
3842.000000	98.531843
3841.000000	98.528718
3840.000000	98.531566
3839.000000	98.539181
3838.000000	98.547603
3837.000000	98.553455
3836.000000	98.557058
3835.000000	98.560872
3834.000000	98.565514
3833.000000	98.568814
3832.000000	98.568360
3831.000000	98.563714
3830.000000	98.556505
3829.000000	98.548966
3828.000000	98.543103
3827.000000	98.540221
3826.000000	98.539877
3825.000000	98.540171
3824.000000	98.539854
3823.000000	98.540331
3822.000000	98.544033
3821.000000	98.549958
3820.000000	98.553768
3819.000000	98.554217
3818.000000	98.553492
3817.000000	98.552843
3816.000000	98.552089
3815.000000	98.550068
3814.000000	98.546495
3813.000000	98.542594
3812.000000	98.540083
3811.000000	98.540187
3810.000000	98.542489
3809.000000	98.544877
3808.000000	98.545185
3807.000000	98.543338
3806.000000	98.541408
3805.000000	98.542006
3804.000000	98.547201
3803.000000	98.558392
3802.000000	98.573874
3801.000000	98.586070
3800.000000	98.588127
3799.000000	98.582548
3798.000000	98.575643
3797.000000	98.570520
3796.000000	98.566087
3795.000000	98.560020
3794.000000	98.552034
3793.000000	98.544091
3792.000000	98.538801
3791.000000	98.537713
3790.000000	98.540144
3789.000000	98.543589
3788.000000	98.545937
3787.000000	98.546720
3786.000000	98.546455
3785.000000	98.545667
3784.000000	98.544805
3783.000000	98.544364
3782.000000	98.544618
3781.000000	98.545496
3780.000000	98.546964
3779.000000	98.548746
3778.000000	98.549780
3777.000000	98.549130
3776.000000	98.547165
3775.000000	98.545377
3774.000000	98.544724
3773.000000	98.544959
3772.000000	98.545777
3771.000000	98.547956
3770.000000	98.552140
3769.000000	98.557064
3768.000000	98.561371
3767.000000	98.565040
3766.000000	98.567842
3765.000000	98.568133
3764.000000	98.564330
3763.000000	98.556747
3762.000000	98.547184
3761.000000	98.537832
3760.000000	98.531165
3759.000000	98.529313
3758.000000	98.532740
3757.000000	98.539897
3756.000000	98.548738
3755.000000	98.558091
3754.000000	98.567220
3753.000000	98.575313
3752.000000	98.581491
3751.000000	98.584065
3750.000000	98.580724
3749.000000	98.572452
3748.000000	98.564718
3747.000000	98.562814
3746.000000	98.568248
3745.000000	98.577507
3744.000000	98.583191
3743.000000	98.582368
3742.000000	98.578556
3741.000000	98.574535
3740.000000	98.571538
3739.000000	98.570767
3738.000000	98.573357
3737.000000	98.579853
3736.000000	98.590043
3735.000000	98.601868
3734.000000	98.610169
3733.000000	98.610656
3732.000000	98.604234
3731.000000	98.595167
3730.000000	98.586708
3729.000000	98.579541
3728.000000	98.573826
3727.000000	98.570106
3726.000000	98.568122
3725.000000	98.567103
3724.000000	98.568028
3723.000000	98.573017
3722.000000	98.580854
3721.000000	98.586854
3720.000000	98.587934
3719.000000	98.585335
3718.000000	98.582167
3717.000000	98.580058
3716.000000	98.578836
3715.000000	98.577504
3714.000000	98.574173
3713.000000	98.567700
3712.000000	98.561231
3711.000000	98.560456
3710.000000	98.565681
3709.000000	98.570964
3708.000000	98.572897
3707.000000	98.573606
3706.000000	98.576294
3705.000000	98.581909
3704.000000	98.588828
3703.000000	98.594087
3702.000000	98.595105
3701.000000	98.591835
3700.000000	98.587274
3699.000000	98.583987
3698.000000	98.580896
3697.000000	98.574808
3696.000000	98.564261
3695.000000	98.551328
3694.000000	98.540165
3693.000000	98.535225
3692.000000	98.540425
3691.000000	98.557179
3690.000000	98.579986
3689.000000	98.596204
3688.000000	98.596915
3687.000000	98.585451
3686.000000	98.569895
3685.000000	98.554543
3684.000000	98.540360
3683.000000	98.527711
3682.000000	98.516746
3681.000000	98.506478
3680.000000	98.495235
3679.000000	98.482487
3678.000000	98.470217
3677.000000	98.464189
3676.000000	98.470970
3675.000000	98.485991
3674.000000	98.495075
3673.000000	98.493297
3672.000000	98.485883
3671.000000	98.480188
3670.000000	98.479108
3669.000000	98.477274
3668.000000	98.469864
3667.000000	98.459534
3666.000000	98.450627
3665.000000	98.445168
3664.000000	98.443186
3663.000000	98.443061
3662.000000	98.441724
3661.000000	98.436681
3660.000000	98.428901
3659.000000	98.422080
3658.000000	98.418241
3657.000000	98.415222
3656.000000	98.409507
3655.000000	98.401411
3654.000000	98.394220
3653.000000	98.389481
3652.000000	98.385816
3651.000000	98.380165
3650.000000	98.369870
3649.000000	98.356720
3648.000000	98.346825
3647.000000	98.342512
3646.000000	98.339954
3645.000000	98.335000
3644.000000	98.327019
3643.000000	98.317953
3642.000000	98.309496
3641.000000	98.301696
3640.000000	98.294695
3639.000000	98.290132
3638.000000	98.288735
3637.000000	98.288404
3636.000000	98.285918
3635.000000	98.279823
3634.000000	98.270867
3633.000000	98.260790
3632.000000	98.251433
3631.000000	98.243948
3630.000000	98.237295
3629.000000	98.227695
3628.000000	98.213386
3627.000000	98.199089
3626.000000	98.189670
3625.000000	98.184626
3624.000000	98.181885
3623.000000	98.180761
3622.000000	98.180791
3621.000000	98.179862
3620.000000	98.174556
3619.000000	98.162703
3618.000000	98.145830
3617.000000	98.128284
3616.000000	98.113771
3615.000000	98.102660
3614.000000	98.091166
3613.000000	98.074449
3612.000000	98.052877
3611.000000	98.032670
3610.000000	98.018534
3609.000000	98.009639
3608.000000	98.002854
3607.000000	97.996987
3606.000000	97.992533
3605.000000	97.988908
3604.000000	97.984781
3603.000000	97.979471
3602.000000	97.972785
3601.000000	97.964407
3600.000000	97.954275
3599.000000	97.943038
3598.000000	97.931248
3597.000000	97.918694
3596.000000	97.905086
3595.000000	97.891035
3594.000000	97.876936
3593.000000	97.862286
3592.000000	97.846746
3591.000000	97.831184
3590.000000	97.817024
3589.000000	97.805769
3588.000000	97.798245
3587.000000	97.793083
3586.000000	97.786848
3585.000000	97.777617
3584.000000	97.766268
3583.000000	97.753730
3582.000000	97.739147
3581.000000	97.721673
3580.000000	97.702974
3579.000000	97.686607
3578.000000	97.674008
3577.000000	97.663256
3576.000000	97.651973
3575.000000	97.639644
3574.000000	97.626482
3573.000000	97.612023
3572.000000	97.596501
3571.000000	97.581583
3570.000000	97.568612
3569.000000	97.557014
3568.000000	97.545456
3567.000000	97.533274
3566.000000	97.519699
3565.000000	97.503794
3564.000000	97.486998
3563.000000	97.472546
3562.000000	97.462079
3561.000000	97.453850
3560.000000	97.444479
3559.000000	97.431767
3558.000000	97.415798
3557.000000	97.398243
3556.000000	97.381328
3555.000000	97.366228
3554.000000	97.351962
3553.000000	97.336762
3552.000000	97.321144
3551.000000	97.307779
3550.000000	97.297563
3549.000000	97.287991
3548.000000	97.275864
3547.000000	97.260307
3546.000000	97.242738
3545.000000	97.225225
3544.000000	97.209371
3543.000000	97.195536
3542.000000	97.182215
3541.000000	97.167847
3540.000000	97.153714
3539.000000	97.143146
3538.000000	97.136917
3537.000000	97.130990
3536.000000	97.120274
3535.000000	97.103523
3534.000000	97.083057
3533.000000	97.062081
3532.000000	97.043846
3531.000000	97.031300
3530.000000	97.024845
3529.000000	97.021137
3528.000000	97.016136
3527.000000	97.008740
3526.000000	96.999969
3525.000000	96.989922
3524.000000	96.977367
3523.000000	96.961426
3522.000000	96.942513
3521.000000	96.922385
3520.000000	96.903929
3519.000000	96.889540
3518.000000	96.878601
3517.000000	96.867603
3516.000000	96.853804
3515.000000	96.837815
3514.000000	96.821697
3513.000000	96.806157
3512.000000	96.790829
3511.000000	96.776161
3510.000000	96.763491
3509.000000	96.753726
3508.000000	96.746887
3507.000000	96.742303
3506.000000	96.738576
3505.000000	96.733949
3504.000000	96.727404
3503.000000	96.718654
3502.000000	96.706962
3501.000000	96.691642
3500.000000	96.673988
3499.000000	96.657059
3498.000000	96.643071
3497.000000	96.632119
3496.000000	96.623101
3495.000000	96.614217
3494.000000	96.602510
3493.000000	96.585499
3492.000000	96.564453
3491.000000	96.544212
3490.000000	96.528695
3489.000000	96.517721
3488.000000	96.508695
3487.000000	96.499373
3486.000000	96.488244
3485.000000	96.474438
3484.000000	96.458865
3483.000000	96.444120
3482.000000	96.431807
3481.000000	96.421073
3480.000000	96.410832
3479.000000	96.401606
3478.000000	96.393839
3477.000000	96.386101
3476.000000	96.376496
3475.000000	96.364794
3474.000000	96.352135
3473.000000	96.339624
3472.000000	96.327964
3471.000000	96.317186
3470.000000	96.305880
3469.000000	96.292111
3468.000000	96.276044
3467.000000	96.260432
3466.000000	96.247714
3465.000000	96.237966
3464.000000	96.230183
3463.000000	96.223829
3462.000000	96.218072
3461.000000	96.211259
3460.000000	96.202497
3459.000000	96.192588
3458.000000	96.182439
3457.000000	96.171789
3456.000000	96.160343
3455.000000	96.148952
3454.000000	96.138496
3453.000000	96.128912
3452.000000	96.120046
3451.000000	96.112405
3450.000000	96.106153
3449.000000	96.100406
3448.000000	96.094325
3447.000000	96.087883
3446.000000	96.080799
3445.000000	96.071988
3444.000000	96.060950
3443.000000	96.048737
3442.000000	96.037058
3441.000000	96.027167
3440.000000	96.019797
3439.000000	96.014892
3438.000000	96.010964
3437.000000	96.005924
3436.000000	95.998995
3435.000000	95.990785
3434.000000	95.981474
3433.000000	95.970654
3432.000000	95.958959
3431.000000	95.947933
3430.000000	95.937568
3429.000000	95.925817
3428.000000	95.911487
3427.000000	95.895937
3426.000000	95.881356
3425.000000	95.869015
3424.000000	95.859781
3423.000000	95.854244
3422.000000	95.851014
3421.000000	95.846638
3420.000000	95.838794
3419.000000	95.828500
3418.000000	95.817932
3417.000000	95.807416
3416.000000	95.795707
3415.000000	95.782198
3414.000000	95.768033
3413.000000	95.755625
3412.000000	95.747031
3411.000000	95.741610
3410.000000	95.735518
3409.000000	95.725350
3408.000000	95.712471
3407.000000	95.701563
3406.000000	95.694720
3405.000000	95.689310
3404.000000	95.682229
3403.000000	95.673646
3402.000000	95.665013
3401.000000	95.655833
3400.000000	95.644179
3399.000000	95.629078
3398.000000	95.611155
3397.000000	95.592173
3396.000000	95.574826
3395.000000	95.561492
3394.000000	95.552015
3393.000000	95.543841
3392.000000	95.535055
3391.000000	95.525969
3390.000000	95.517392
3389.000000	95.509344
3388.000000	95.502207
3387.000000	95.496990
3386.000000	95.493000
3385.000000	95.486803
3384.000000	95.475058
3383.000000	95.457472
3382.000000	95.436308
3381.000000	95.414524
3380.000000	95.395113
3379.000000	95.380233
3378.000000	95.369548
3377.000000	95.360415
3376.000000	95.350379
3375.000000	95.338478
3374.000000	95.324242
3373.000000	95.307611
3372.000000	95.290572
3371.000000	95.276660
3370.000000	95.267321
3369.000000	95.260099
3368.000000	95.251201
3367.000000	95.238407
3366.000000	95.221019
3365.000000	95.199417
3364.000000	95.176139
3363.000000	95.155341
3362.000000	95.139264
3361.000000	95.126160
3360.000000	95.112695
3359.000000	95.097063
3358.000000	95.078965
3357.000000	95.058388
3356.000000	95.036098
3355.000000	95.014203
3354.000000	94.994550
3353.000000	94.977019
3352.000000	94.960180
3351.000000	94.942827
3350.000000	94.924336
3349.000000	94.904741
3348.000000	94.885069
3347.000000	94.866512
3346.000000	94.848612
3345.000000	94.829324
3344.000000	94.807538
3343.000000	94.784630
3342.000000	94.763041
3341.000000	94.744266
3340.000000	94.728272
3339.000000	94.713538
3338.000000	94.697492
3337.000000	94.678443
3336.000000	94.657444
3335.000000	94.636997
3334.000000	94.617997
3333.000000	94.599519
3332.000000	94.581396
3331.000000	94.564736
3330.000000	94.549665
3329.000000	94.534748
3328.000000	94.519054
3327.000000	94.502883
3326.000000	94.486070
3325.000000	94.467757
3324.000000	94.448438
3323.000000	94.430210
3322.000000	94.414194
3321.000000	94.399721
3320.000000	94.386314
3319.000000	94.374193
3318.000000	94.362299
3317.000000	94.348362
3316.000000	94.332030
3315.000000	94.315782
3314.000000	94.301517
3313.000000	94.288316
3312.000000	94.274573
3311.000000	94.260244
3310.000000	94.245963
3309.000000	94.231904
3308.000000	94.218592
3307.000000	94.206663
3306.000000	94.194628
3305.000000	94.179183
3304.000000	94.159295
3303.000000	94.138331
3302.000000	94.120821
3301.000000	94.108546
3300.000000	94.100780
3299.000000	94.096185
3298.000000	94.092807
3297.000000	94.088086
3296.000000	94.080522
3295.000000	94.070359
3294.000000	94.057952
3293.000000	94.043464
3292.000000	94.029142
3291.000000	94.019368
3290.000000	94.016485
3289.000000	94.017970
3288.000000	94.019285
3287.000000	94.018206
3286.000000	94.015278
3285.000000	94.011991
3284.000000	94.009917
3283.000000	94.009908
3282.000000	94.010618
3281.000000	94.009354
3280.000000	94.006163
3279.000000	94.005318
3278.000000	94.011088
3277.000000	94.023199
3276.000000	94.037965
3275.000000	94.052777
3274.000000	94.067324
3273.000000	94.081721
3272.000000	94.095455
3271.000000	94.107866
3270.000000	94.118419
3269.000000	94.127036
3268.000000	94.135111
3267.000000	94.145159
3266.000000	94.158305
3265.000000	94.172864
3264.000000	94.186508
3263.000000	94.198797
3262.000000	94.210770
3261.000000	94.223292
3260.000000	94.237006
3259.000000	94.252758
3258.000000	94.270720
3257.000000	94.289912
3256.000000	94.309577
3255.000000	94.330163
3254.000000	94.351943
3253.000000	94.373818
3252.000000	94.394628
3251.000000	94.414611
3250.000000	94.434355
3249.000000	94.453261
3248.000000	94.470452
3247.000000	94.486364
3246.000000	94.502099
3245.000000	94.517575
3244.000000	94.531483
3243.000000	94.542950
3242.000000	94.552320
3241.000000	94.560662
3240.000000	94.569300
3239.000000	94.579575
3238.000000	94.592358
3237.000000	94.607631
3236.000000	94.624551
3235.000000	94.641792
3234.000000	94.658082
3233.000000	94.672982
3232.000000	94.686835
3231.000000	94.699403
3230.000000	94.709198
3229.000000	94.715203
3228.000000	94.718770
3227.000000	94.722562
3226.000000	94.728080
3225.000000	94.735605
3224.000000	94.745622
3223.000000	94.758227
3222.000000	94.771601
3221.000000	94.783515
3220.000000	94.794501
3219.000000	94.807178
3218.000000	94.821842
3217.000000	94.835266
3216.000000	94.844605
3215.000000	94.850554
3214.000000	94.855621
3213.000000	94.861013
3212.000000	94.866327
3211.000000	94.870928
3210.000000	94.874777
3209.000000	94.878861
3208.000000	94.885328
3207.000000	94.895903
3206.000000	94.909756
3205.000000	94.924185
3204.000000	94.937599
3203.000000	94.950544
3202.000000	94.963621
3201.000000	94.976001
3200.000000	94.986399
3199.000000	94.994372
3198.000000	95.000645
3197.000000	95.007414
3196.000000	95.017658
3195.000000	95.031988
3194.000000	95.046764
3193.000000	95.057798
3192.000000	95.066159
3191.000000	95.077666
3190.000000	95.096076
3189.000000	95.119167
3188.000000	95.141869
3187.000000	95.160703
3186.000000	95.174611
3185.000000	95.184606
3184.000000	95.193998
3183.000000	95.206452
3182.000000	95.222177
3181.000000	95.237754
3180.000000	95.250642
3179.000000	95.261574
3178.000000	95.271895
3177.000000	95.281506
3176.000000	95.291328
3175.000000	95.304799
3174.000000	95.324101
3173.000000	95.346561
3172.000000	95.367179
3171.000000	95.383881
3170.000000	95.398330
3169.000000	95.412788
3168.000000	95.428105
3167.000000	95.444083
3166.000000	95.459987
3165.000000	95.474882
3164.000000	95.488590
3163.000000	95.501953
3162.000000	95.515597
3161.000000	95.529310
3160.000000	95.543151
3159.000000	95.557885
3158.000000	95.573480
3157.000000	95.588425
3156.000000	95.601589
3155.000000	95.613834
3154.000000	95.626865
3153.000000	95.641247
3152.000000	95.655925
3151.000000	95.668778
3150.000000	95.677757
3149.000000	95.683242
3148.000000	95.689476
3147.000000	95.701584
3146.000000	95.720164
