PE IR       SUBTECH     SPECTRUM    ASCII       PEDS        4.00        
   -1
3C-XXX-C019_1.ASC
23/09/07
10:34:25.00
23/09/07
11:30:09.00
uco
Sample 019 By uco Date Thursday, September 07 2023
450.000000
#HDR
-1
-1
#GR
cm-1
%T
1.0
0.0
4000.000000
-1.000000
3551
8
98.877102
88.994659
#DATA
4000.000000	98.778716
3999.000000	98.780145
3998.000000	98.781657
3997.000000	98.783290
3996.000000	98.785091
3995.000000	98.787079
3994.000000	98.789326
3993.000000	98.789522
3992.000000	98.786678
3991.000000	98.781385
3990.000000	98.774557
3989.000000	98.768290
3988.000000	98.763518
3987.000000	98.760841
3986.000000	98.759848
3985.000000	98.759515
3984.000000	98.759285
3983.000000	98.759661
3982.000000	98.761432
3981.000000	98.764376
3980.000000	98.767052
3979.000000	98.767937
3978.000000	98.766631
3977.000000	98.764026
3976.000000	98.761543
3975.000000	98.760181
3974.000000	98.759887
3973.000000	98.759632
3972.000000	98.758346
3971.000000	98.756067
3970.000000	98.754134
3969.000000	98.754174
3968.000000	98.756826
3967.000000	98.761321
3966.000000	98.766057
3965.000000	98.769354
3964.000000	98.770134
3963.000000	98.768420
3962.000000	98.765365
3961.000000	98.762462
3960.000000	98.760275
3959.000000	98.758139
3958.000000	98.755177
3957.000000	98.751466
3956.000000	98.748084
3955.000000	98.746002
3954.000000	98.745267
3953.000000	98.745403
3952.000000	98.746321
3951.000000	98.748336
3950.000000	98.751222
3949.000000	98.753571
3948.000000	98.753508
3947.000000	98.750181
3946.000000	98.744440
3945.000000	98.738138
3944.000000	98.733080
3943.000000	98.730636
3942.000000	98.731703
3941.000000	98.736255
3940.000000	98.742671
3939.000000	98.747891
3938.000000	98.749193
3937.000000	98.746180
3936.000000	98.741073
3935.000000	98.736982
3934.000000	98.736159
3933.000000	98.739444
3932.000000	98.746079
3931.000000	98.753546
3930.000000	98.758499
3929.000000	98.758732
3928.000000	98.754381
3927.000000	98.747546
3926.000000	98.740818
3925.000000	98.736193
3924.000000	98.735011
3923.000000	98.737831
3922.000000	98.743474
3921.000000	98.748483
3920.000000	98.749073
3919.000000	98.744660
3918.000000	98.739118
3917.000000	98.737719
3916.000000	98.742303
3915.000000	98.749616
3914.000000	98.754140
3913.000000	98.752080
3912.000000	98.743742
3911.000000	98.733509
3910.000000	98.726912
3909.000000	98.726510
3908.000000	98.731067
3907.000000	98.737673
3906.000000	98.744094
3905.000000	98.749382
3904.000000	98.753443
3903.000000	98.756380
3902.000000	98.757940
3901.000000	98.757433
3900.000000	98.754305
3899.000000	98.749320
3898.000000	98.744591
3897.000000	98.741867
3896.000000	98.741003
3895.000000	98.740692
3894.000000	98.740613
3893.000000	98.741728
3892.000000	98.744359
3891.000000	98.746929
3890.000000	98.747467
3889.000000	98.745297
3888.000000	98.740863
3887.000000	98.734783
3886.000000	98.729012
3885.000000	98.726757
3884.000000	98.729283
3883.000000	98.734204
3882.000000	98.736935
3881.000000	98.734607
3880.000000	98.729323
3879.000000	98.725328
3878.000000	98.723988
3877.000000	98.723503
3876.000000	98.722194
3875.000000	98.721248
3874.000000	98.723247
3873.000000	98.728078
3872.000000	98.732535
3871.000000	98.733856
3870.000000	98.732716
3869.000000	98.732677
3868.000000	98.736232
3867.000000	98.741462
3866.000000	98.742553
3865.000000	98.736049
3864.000000	98.727003
3863.000000	98.723655
3862.000000	98.727244
3861.000000	98.731920
3860.000000	98.733120
3859.000000	98.732004
3858.000000	98.731716
3857.000000	98.732200
3856.000000	98.730849
3855.000000	98.726027
3854.000000	98.720529
3853.000000	98.720405
3852.000000	98.727226
3851.000000	98.736320
3850.000000	98.741746
3849.000000	98.740160
3848.000000	98.734533
3847.000000	98.730707
3846.000000	98.729542
3845.000000	98.727148
3844.000000	98.720899
3843.000000	98.712762
3842.000000	98.707416
3841.000000	98.708324
3840.000000	98.715705
3839.000000	98.726152
3838.000000	98.735037
3837.000000	98.740326
3836.000000	98.743484
3835.000000	98.745832
3834.000000	98.746623
3833.000000	98.744866
3832.000000	98.741390
3831.000000	98.738138
3830.000000	98.735870
3829.000000	98.733486
3828.000000	98.729746
3827.000000	98.725560
3826.000000	98.723552
3825.000000	98.724701
3824.000000	98.726831
3823.000000	98.726543
3822.000000	98.722890
3821.000000	98.719219
3820.000000	98.718915
3819.000000	98.720931
3818.000000	98.721397
3817.000000	98.717313
3816.000000	98.711185
3815.000000	98.709934
3814.000000	98.716849
3813.000000	98.728448
3812.000000	98.738070
3811.000000	98.742834
3810.000000	98.746543
3809.000000	98.752725
3808.000000	98.758398
3807.000000	98.758414
3806.000000	98.752759
3805.000000	98.746067
3804.000000	98.741460
3803.000000	98.738136
3802.000000	98.735322
3801.000000	98.734522
3800.000000	98.736552
3799.000000	98.739977
3798.000000	98.741566
3797.000000	98.738523
3796.000000	98.732776
3795.000000	98.728850
3794.000000	98.728092
3793.000000	98.728762
3792.000000	98.729408
3791.000000	98.730745
3790.000000	98.734102
3789.000000	98.738842
3788.000000	98.742881
3787.000000	98.745301
3786.000000	98.746951
3785.000000	98.748644
3784.000000	98.749722
3783.000000	98.748667
3782.000000	98.744314
3781.000000	98.736694
3780.000000	98.728259
3779.000000	98.723882
3778.000000	98.727069
3777.000000	98.736114
3776.000000	98.745636
3775.000000	98.751148
3774.000000	98.752130
3773.000000	98.751204
3772.000000	98.750816
3771.000000	98.751297
3770.000000	98.751685
3769.000000	98.751090
3768.000000	98.748993
3767.000000	98.744961
3766.000000	98.739263
3765.000000	98.733847
3764.000000	98.731078
3763.000000	98.731184
3762.000000	98.732168
3761.000000	98.732404
3760.000000	98.733091
3759.000000	98.736915
3758.000000	98.744060
3757.000000	98.751623
3756.000000	98.757157
3755.000000	98.761024
3754.000000	98.764846
3753.000000	98.768723
3752.000000	98.771227
3751.000000	98.770907
3750.000000	98.767551
3749.000000	98.762671
3748.000000	98.758762
3747.000000	98.758964
3746.000000	98.764931
3745.000000	98.773398
3744.000000	98.778649
3743.000000	98.779951
3742.000000	98.781252
3741.000000	98.781995
3740.000000	98.776960
3739.000000	98.768039
3738.000000	98.764129
3737.000000	98.768444
3736.000000	98.776306
3735.000000	98.782347
3734.000000	98.785158
3733.000000	98.785191
3732.000000	98.782052
3731.000000	98.776752
3730.000000	98.773169
3729.000000	98.774015
3728.000000	98.777270
3727.000000	98.778891
3726.000000	98.777061
3725.000000	98.772893
3724.000000	98.768397
3723.000000	98.764833
3722.000000	98.763289
3721.000000	98.765617
3720.000000	98.772484
3719.000000	98.781226
3718.000000	98.787567
3717.000000	98.789241
3716.000000	98.787538
3715.000000	98.785459
3714.000000	98.784536
3713.000000	98.783536
3712.000000	98.780510
3711.000000	98.775865
3710.000000	98.772096
3709.000000	98.769959
3708.000000	98.767419
3707.000000	98.762869
3706.000000	98.757142
3705.000000	98.752378
3704.000000	98.750347
3703.000000	98.751895
3702.000000	98.757407
3701.000000	98.766709
3700.000000	98.778160
3699.000000	98.788549
3698.000000	98.794497
3697.000000	98.794437
3696.000000	98.789656
3695.000000	98.783215
3694.000000	98.777268
3693.000000	98.772079
3692.000000	98.767688
3691.000000	98.764857
3690.000000	98.763295
3689.000000	98.761167
3688.000000	98.758037
3687.000000	98.755663
3686.000000	98.755111
3685.000000	98.754721
3684.000000	98.751839
3683.000000	98.746500
3682.000000	98.741620
3681.000000	98.738987
3680.000000	98.737186
3679.000000	98.733782
3678.000000	98.728393
3677.000000	98.723224
3676.000000	98.721094
3675.000000	98.722427
3674.000000	98.724811
3673.000000	98.726172
3672.000000	98.724212
3671.000000	98.717051
3670.000000	98.707472
3669.000000	98.700102
3668.000000	98.695726
3667.000000	98.691218
3666.000000	98.683671
3665.000000	98.675366
3664.000000	98.672024
3663.000000	98.675356
3662.000000	98.681467
3661.000000	98.685581
3660.000000	98.686033
3659.000000	98.683676
3658.000000	98.679096
3657.000000	98.672287
3656.000000	98.665107
3655.000000	98.661124
3654.000000	98.661377
3653.000000	98.662116
3652.000000	98.657088
3651.000000	98.642737
3650.000000	98.621795
3649.000000	98.602256
3648.000000	98.590698
3647.000000	98.585771
3646.000000	98.581623
3645.000000	98.575741
3644.000000	98.569719
3643.000000	98.565892
3642.000000	98.565645
3641.000000	98.568251
3640.000000	98.570974
3639.000000	98.571477
3638.000000	98.569767
3637.000000	98.567057
3636.000000	98.563302
3635.000000	98.556752
3634.000000	98.546515
3633.000000	98.534716
3632.000000	98.524184
3631.000000	98.514372
3630.000000	98.501166
3629.000000	98.482857
3628.000000	98.465122
3627.000000	98.454887
3626.000000	98.451972
3625.000000	98.450998
3624.000000	98.448966
3623.000000	98.447249
3622.000000	98.446068
3621.000000	98.441942
3620.000000	98.431738
3619.000000	98.417028
3618.000000	98.403005
3617.000000	98.393190
3616.000000	98.386946
3615.000000	98.381141
3614.000000	98.372589
3613.000000	98.360417
3612.000000	98.347234
3611.000000	98.336331
3610.000000	98.327719
3609.000000	98.318978
3608.000000	98.309707
3607.000000	98.302685
3606.000000	98.299678
3605.000000	98.298465
3604.000000	98.295439
3603.000000	98.289285
3602.000000	98.281060
3601.000000	98.271880
3600.000000	98.261648
3599.000000	98.249502
3598.000000	98.234664
3597.000000	98.217167
3596.000000	98.199019
3595.000000	98.184178
3594.000000	98.175317
3593.000000	98.170908
3592.000000	98.166620
3591.000000	98.158917
3590.000000	98.146558
3589.000000	98.130283
3588.000000	98.112537
3587.000000	98.097092
3586.000000	98.086655
3585.000000	98.080313
3584.000000	98.074625
3583.000000	98.066865
3582.000000	98.056743
3581.000000	98.045702
3580.000000	98.035247
3579.000000	98.025852
3578.000000	98.016825
3577.000000	98.006984
3576.000000	97.995407
3575.000000	97.981812
3574.000000	97.966641
3573.000000	97.951245
3572.000000	97.937748
3571.000000	97.927820
3570.000000	97.920934
3569.000000	97.913720
3568.000000	97.901758
3567.000000	97.883914
3566.000000	97.864293
3565.000000	97.847362
3564.000000	97.833313
3563.000000	97.819854
3562.000000	97.805716
3561.000000	97.791324
3560.000000	97.777405
3559.000000	97.763960
3558.000000	97.750623
3557.000000	97.737493
3556.000000	97.724989
3555.000000	97.712753
3554.000000	97.699132
3553.000000	97.682506
3552.000000	97.663636
3551.000000	97.645800
3550.000000	97.631814
3549.000000	97.621473
3548.000000	97.612153
3547.000000	97.601553
3546.000000	97.589822
3545.000000	97.578914
3544.000000	97.569755
3543.000000	97.560686
3542.000000	97.549003
3541.000000	97.533772
3540.000000	97.517067
3539.000000	97.502363
3538.000000	97.491296
3537.000000	97.481825
3536.000000	97.470041
3535.000000	97.454058
3534.000000	97.435737
3533.000000	97.418767
3532.000000	97.405724
3531.000000	97.396571
3530.000000	97.388838
3529.000000	97.379215
3528.000000	97.365883
3527.000000	97.349877
3526.000000	97.333812
3525.000000	97.319196
3524.000000	97.305334
3523.000000	97.290845
3522.000000	97.275532
3521.000000	97.260304
3520.000000	97.245964
3519.000000	97.232776
3518.000000	97.220728
3517.000000	97.209297
3516.000000	97.197192
3515.000000	97.183277
3514.000000	97.168033
3513.000000	97.153404
3512.000000	97.140783
3511.000000	97.129788
3510.000000	97.119599
3509.000000	97.110802
3508.000000	97.104665
3507.000000	97.100804
3506.000000	97.096761
3505.000000	97.089945
3504.000000	97.079479
3503.000000	97.066342
3502.000000	97.052177
3501.000000	97.038157
3500.000000	97.024655
3499.000000	97.011603
3498.000000	96.999056
3497.000000	96.987309
3496.000000	96.976184
3495.000000	96.964344
3494.000000	96.950102
3493.000000	96.933401
3492.000000	96.916495
3491.000000	96.902214
3490.000000	96.891681
3489.000000	96.883798
3488.000000	96.876533
3487.000000	96.868337
3486.000000	96.858634
3485.000000	96.847535
3484.000000	96.835507
3483.000000	96.823460
3482.000000	96.812901
3481.000000	96.805313
3480.000000	96.800878
3479.000000	96.798013
3478.000000	96.794620
3477.000000	96.789609
3476.000000	96.782881
3475.000000	96.774286
3474.000000	96.763368
3473.000000	96.750071
3472.000000	96.734874
3471.000000	96.718253
3470.000000	96.700945
3469.000000	96.684922
3468.000000	96.672933
3467.000000	96.666154
3466.000000	96.662896
3465.000000	96.660219
3464.000000	96.656182
3463.000000	96.650141
3462.000000	96.641860
3461.000000	96.631369
3460.000000	96.619362
3459.000000	96.606906
3458.000000	96.594912
3457.000000	96.584214
3456.000000	96.575566
3455.000000	96.568841
3454.000000	96.562698
3453.000000	96.555834
3452.000000	96.548326
3451.000000	96.541258
3450.000000	96.535332
3449.000000	96.530365
3448.000000	96.525695
3447.000000	96.520245
3446.000000	96.512364
3445.000000	96.500657
3444.000000	96.485417
3443.000000	96.469118
3442.000000	96.455317
3441.000000	96.446525
3440.000000	96.442498
3439.000000	96.440362
3438.000000	96.436762
3437.000000	96.430301
3436.000000	96.421877
3435.000000	96.412703
3434.000000	96.402720
3433.000000	96.391236
3432.000000	96.378370
3431.000000	96.365209
3430.000000	96.353026
3429.000000	96.342867
3428.000000	96.335230
3427.000000	96.329208
3426.000000	96.322348
3425.000000	96.312514
3424.000000	96.300035
3423.000000	96.287262
3422.000000	96.275934
3421.000000	96.265651
3420.000000	96.254987
3419.000000	96.243351
3418.000000	96.231341
3417.000000	96.219888
3416.000000	96.209597
3415.000000	96.200678
3414.000000	96.193131
3413.000000	96.186797
3412.000000	96.181072
3411.000000	96.174719
3410.000000	96.166676
3409.000000	96.157543
3408.000000	96.149638
3407.000000	96.144648
3406.000000	96.141218
3405.000000	96.135398
3404.000000	96.123657
3403.000000	96.105581
3402.000000	96.084253
3401.000000	96.064568
3400.000000	96.050466
3399.000000	96.042449
3398.000000	96.037354
3397.000000	96.031102
3396.000000	96.021898
3395.000000	96.010736
3394.000000	95.999455
3393.000000	95.989188
3392.000000	95.980201
3391.000000	95.972069
3390.000000	95.963821
3389.000000	95.954751
3388.000000	95.945320
3387.000000	95.936678
3386.000000	95.929153
3385.000000	95.921729
3384.000000	95.913078
3383.000000	95.902525
3382.000000	95.890023
3381.000000	95.875981
3380.000000	95.861396
3379.000000	95.847497
3378.000000	95.834857
3377.000000	95.823153
3376.000000	95.811844
3375.000000	95.800615
3374.000000	95.789098
3373.000000	95.776766
3372.000000	95.763417
3371.000000	95.749396
3370.000000	95.735083
3369.000000	95.720345
3368.000000	95.704653
3367.000000	95.687589
3366.000000	95.669302
3365.000000	95.650735
3364.000000	95.633316
3363.000000	95.617989
3362.000000	95.604393
3361.000000	95.591083
3360.000000	95.576598
3359.000000	95.560297
3358.000000	95.542387
3357.000000	95.523413
3356.000000	95.503616
3355.000000	95.482716
3354.000000	95.460569
3353.000000	95.438166
3352.000000	95.417400
3351.000000	95.399243
3350.000000	95.382450
3349.000000	95.364736
3348.000000	95.345187
3347.000000	95.325139
3346.000000	95.306762
3345.000000	95.291051
3344.000000	95.277028
3343.000000	95.262540
3342.000000	95.246004
3341.000000	95.227725
3340.000000	95.209404
3339.000000	95.192175
3338.000000	95.175452
3337.000000	95.157920
3336.000000	95.139135
3335.000000	95.119695
3334.000000	95.100269
3333.000000	95.081132
3332.000000	95.062351
3331.000000	95.043762
3330.000000	95.024997
3329.000000	95.006026
3328.000000	94.987339
3327.000000	94.969138
3326.000000	94.950877
3325.000000	94.932342
3324.000000	94.914748
3323.000000	94.899717
3322.000000	94.887263
3321.000000	94.875808
3320.000000	94.864044
3319.000000	94.851840
3318.000000	94.839355
3317.000000	94.826305
3316.000000	94.812674
3315.000000	94.799508
3314.000000	94.788306
3313.000000	94.779505
3312.000000	94.771519
3311.000000	94.761322
3310.000000	94.746774
3309.000000	94.729197
3308.000000	94.713170
3307.000000	94.702417
3306.000000	94.695626
3305.000000	94.687248
3304.000000	94.672948
3303.000000	94.654076
3302.000000	94.636734
3301.000000	94.626724
3300.000000	94.625248
3299.000000	94.628600
3298.000000	94.631369
3297.000000	94.630059
3296.000000	94.624267
3295.000000	94.615157
3294.000000	94.603762
3293.000000	94.591221
3292.000000	94.579591
3291.000000	94.571033
3290.000000	94.566056
3289.000000	94.563251
3288.000000	94.560838
3287.000000	94.557971
3286.000000	94.554741
3285.000000	94.551674
3284.000000	94.549228
3283.000000	94.547277
3282.000000	94.545300
3281.000000	94.543750
3280.000000	94.544925
3279.000000	94.551187
3278.000000	94.562228
3277.000000	94.575050
3276.000000	94.586958
3275.000000	94.597622
3274.000000	94.607543
3273.000000	94.615651
3272.000000	94.619549
3271.000000	94.617967
3270.000000	94.612357
3269.000000	94.606252
3268.000000	94.603437
3267.000000	94.606193
3266.000000	94.614406
3265.000000	94.626147
3264.000000	94.639400
3263.000000	94.653287
3262.000000	94.667630
3261.000000	94.681721
3260.000000	94.693980
3259.000000	94.702968
3258.000000	94.708889
3257.000000	94.714339
3256.000000	94.723281
3255.000000	94.738232
3254.000000	94.757639
3253.000000	94.776399
3252.000000	94.789841
3251.000000	94.797549
3250.000000	94.803255
3249.000000	94.811135
3248.000000	94.822510
3247.000000	94.835720
3246.000000	94.848169
3245.000000	94.858042
3244.000000	94.864723
3243.000000	94.868723
3242.000000	94.871585
3241.000000	94.875265
3240.000000	94.881054
3239.000000	94.889156
3238.000000	94.899429
3237.000000	94.911966
3236.000000	94.926432
3235.000000	94.941415
3234.000000	94.955431
3233.000000	94.968359
3232.000000	94.980802
3231.000000	94.991887
3230.000000	94.998988
3229.000000	95.000497
3228.000000	94.998265
3227.000000	94.996591
3226.000000	94.999122
3225.000000	95.007077
3224.000000	95.019463
3223.000000	95.033872
3222.000000	95.047568
3221.000000	95.059127
3220.000000	95.069294
3219.000000	95.079488
3218.000000	95.089415
3217.000000	95.097163
3216.000000	95.101739
3215.000000	95.104602
3214.000000	95.108140
3213.000000	95.113230
3212.000000	95.118984
3211.000000	95.124642
3210.000000	95.130975
3209.000000	95.139418
3208.000000	95.150076
3207.000000	95.161092
3206.000000	95.170376
3205.000000	95.177777
3204.000000	95.185055
3203.000000	95.193744
3202.000000	95.203810
3201.000000	95.214746
3200.000000	95.226944
3199.000000	95.240882
3198.000000	95.255303
3197.000000	95.267421
3196.000000	95.275265
3195.000000	95.279333
3194.000000	95.282038
3193.000000	95.286340
3192.000000	95.294621
3191.000000	95.307594
3190.000000	95.323711
3189.000000	95.340236
3188.000000	95.355481
3187.000000	95.369820
3186.000000	95.384752
3185.000000	95.401647
3184.000000	95.421286
3183.000000	95.443280
3182.000000	95.465207
3181.000000	95.483247
3180.000000	95.494901
3179.000000	95.501092
3178.000000	95.505243
3177.000000	95.510465
3176.000000	95.518153
3175.000000	95.528681
3174.000000	95.542253
3173.000000	95.558681
3172.000000	95.576882
3171.000000	95.595025
3170.000000	95.611272
3169.000000	95.624785
3168.000000	95.636417
3167.000000	95.648121
3166.000000	95.661190
3165.000000	95.675162
3164.000000	95.688835
3163.000000	95.701959
3162.000000	95.715217
3161.000000	95.728842
3160.000000	95.742416
3159.000000	95.756209
3158.000000	95.771389
3157.000000	95.787947
3156.000000	95.803320
3155.000000	95.814626
3154.000000	95.822295
3153.000000	95.830311
3152.000000	95.842139
3151.000000	95.857128
3150.000000	95.871649
3149.000000	95.883453
3148.000000	95.894025
3147.000000	95.906573
3146.000000	95.922423
