PE IR       SUBTECH     SPECTRUM    ASCII       PEDS        4.00        
   -1
3C-XXX-F003_1.ASC
23/09/07
10:38:24.00
23/09/07
11:30:09.00
uco
Sample 003 By uco Date Thursday, September 07 2023
450.000000
#HDR
-1
-1
#GR
cm-1
%T
1.0
0.0
4000.000000
-1.000000
3551
8
98.979584
90.409284
#DATA
4000.000000	98.904368
3999.000000	98.900141
3998.000000	98.895916
3997.000000	98.891680
3996.000000	98.890029
3995.000000	98.892230
3994.000000	98.895600
3993.000000	98.899519
3992.000000	98.900480
3991.000000	98.897379
3990.000000	98.890992
3989.000000	98.883385
3988.000000	98.877059
3987.000000	98.873868
3986.000000	98.874220
3985.000000	98.877137
3984.000000	98.881217
3983.000000	98.885661
3982.000000	98.890218
3981.000000	98.894298
3980.000000	98.896516
3979.000000	98.895317
3978.000000	98.890062
3977.000000	98.881631
3976.000000	98.872183
3975.000000	98.864348
3974.000000	98.860161
3973.000000	98.860207
3972.000000	98.863494
3971.000000	98.868095
3970.000000	98.872151
3969.000000	98.874519
3968.000000	98.874986
3967.000000	98.874202
3966.000000	98.873210
3965.000000	98.872608
3964.000000	98.871889
3963.000000	98.869873
3962.000000	98.866183
3961.000000	98.862283
3960.000000	98.860586
3959.000000	98.862226
3958.000000	98.865785
3957.000000	98.868299
3956.000000	98.867607
3955.000000	98.863786
3954.000000	98.858708
3953.000000	98.854580
3952.000000	98.852870
3951.000000	98.854105
3950.000000	98.857813
3949.000000	98.862255
3948.000000	98.864732
3947.000000	98.862963
3946.000000	98.856652
3945.000000	98.847811
3944.000000	98.839914
3943.000000	98.836287
3942.000000	98.837966
3941.000000	98.843319
3940.000000	98.849901
3939.000000	98.855773
3938.000000	98.859476
3937.000000	98.860073
3936.000000	98.857733
3935.000000	98.854176
3934.000000	98.852035
3933.000000	98.853326
3932.000000	98.857944
3931.000000	98.863595
3930.000000	98.867588
3929.000000	98.868463
3928.000000	98.866186
3927.000000	98.861874
3926.000000	98.857474
3925.000000	98.854925
3924.000000	98.854860
3923.000000	98.856410
3922.000000	98.858356
3921.000000	98.859516
3920.000000	98.858548
3919.000000	98.854629
3918.000000	98.848683
3917.000000	98.843389
3916.000000	98.841117
3915.000000	98.841801
3914.000000	98.843226
3913.000000	98.843300
3912.000000	98.841878
3911.000000	98.840560
3910.000000	98.840698
3909.000000	98.841805
3908.000000	98.841947
3907.000000	98.839598
3906.000000	98.835057
3905.000000	98.830267
3904.000000	98.826959
3903.000000	98.824985
3902.000000	98.823358
3901.000000	98.822342
3900.000000	98.823300
3899.000000	98.827004
3898.000000	98.832484
3897.000000	98.837477
3896.000000	98.839830
3895.000000	98.838554
3894.000000	98.834618
3893.000000	98.831147
3892.000000	98.831127
3891.000000	98.833986
3890.000000	98.836478
3889.000000	98.837466
3888.000000	98.838601
3887.000000	98.841478
3886.000000	98.845730
3885.000000	98.848488
3884.000000	98.847268
3883.000000	98.843613
3882.000000	98.840956
3881.000000	98.840064
3880.000000	98.838219
3879.000000	98.832867
3878.000000	98.825493
3877.000000	98.820476
3876.000000	98.820976
3875.000000	98.826543
3874.000000	98.832885
3873.000000	98.835270
3872.000000	98.833585
3871.000000	98.832275
3870.000000	98.834418
3869.000000	98.837332
3868.000000	98.837031
3867.000000	98.833743
3866.000000	98.830038
3865.000000	98.827830
3864.000000	98.827996
3863.000000	98.830149
3862.000000	98.833165
3861.000000	98.835831
3860.000000	98.836619
3859.000000	98.834226
3858.000000	98.828353
3857.000000	98.819241
3856.000000	98.807815
3855.000000	98.797469
3854.000000	98.793417
3853.000000	98.794110
3852.000000	98.791923
3851.000000	98.789254
3850.000000	98.795011
3849.000000	98.810372
3848.000000	98.828820
3847.000000	98.843482
3846.000000	98.850923
3845.000000	98.850988
3844.000000	98.845184
3843.000000	98.836009
3842.000000	98.826854
3841.000000	98.820929
3840.000000	98.819701
3839.000000	98.822462
3838.000000	98.826835
3837.000000	98.830568
3836.000000	98.833810
3835.000000	98.838466
3834.000000	98.845471
3833.000000	98.853425
3832.000000	98.859603
3831.000000	98.861694
3830.000000	98.859054
3829.000000	98.852872
3828.000000	98.845359
3827.000000	98.838316
3826.000000	98.831891
3825.000000	98.824860
3824.000000	98.816474
3823.000000	98.808401
3822.000000	98.804205
3821.000000	98.804693
3820.000000	98.805068
3819.000000	98.802382
3818.000000	98.800794
3817.000000	98.805334
3816.000000	98.815199
3815.000000	98.823745
3814.000000	98.826481
3813.000000	98.826365
3812.000000	98.828237
3811.000000	98.833001
3810.000000	98.838180
3809.000000	98.841658
3808.000000	98.843047
3807.000000	98.841702
3806.000000	98.835861
3805.000000	98.825741
3804.000000	98.815658
3803.000000	98.811927
3802.000000	98.818236
3801.000000	98.830153
3800.000000	98.838092
3799.000000	98.839813
3798.000000	98.840705
3797.000000	98.844191
3796.000000	98.848338
3795.000000	98.849686
3794.000000	98.847972
3793.000000	98.846185
3792.000000	98.847213
3791.000000	98.851257
3790.000000	98.856006
3789.000000	98.858761
3788.000000	98.858453
3787.000000	98.856122
3786.000000	98.853820
3785.000000	98.852692
3784.000000	98.852017
3783.000000	98.850583
3782.000000	98.848535
3781.000000	98.847596
3780.000000	98.849417
3779.000000	98.853531
3778.000000	98.857431
3777.000000	98.859533
3776.000000	98.860532
3775.000000	98.861628
3774.000000	98.862702
3773.000000	98.862382
3772.000000	98.859639
3771.000000	98.855308
3770.000000	98.851636
3769.000000	98.850037
3768.000000	98.850570
3767.000000	98.853515
3766.000000	98.859004
3765.000000	98.864695
3764.000000	98.866190
3763.000000	98.860626
3762.000000	98.849019
3761.000000	98.835414
3760.000000	98.824680
3759.000000	98.820045
3758.000000	98.821617
3757.000000	98.827794
3756.000000	98.836403
3755.000000	98.844311
3754.000000	98.848131
3753.000000	98.846432
3752.000000	98.840668
3751.000000	98.832069
3750.000000	98.819044
3749.000000	98.802172
3748.000000	98.787599
3747.000000	98.782324
3746.000000	98.790863
3745.000000	98.812337
3744.000000	98.834666
3743.000000	98.843773
3742.000000	98.841752
3741.000000	98.839106
3740.000000	98.838998
3739.000000	98.837672
3738.000000	98.833412
3737.000000	98.830841
3736.000000	98.835480
3735.000000	98.845464
3734.000000	98.854615
3733.000000	98.861547
3732.000000	98.868485
3731.000000	98.875218
3730.000000	98.879782
3729.000000	98.882069
3728.000000	98.883290
3727.000000	98.883323
3726.000000	98.880445
3725.000000	98.874394
3724.000000	98.868262
3723.000000	98.865527
3722.000000	98.866147
3721.000000	98.867308
3720.000000	98.867295
3719.000000	98.866761
3718.000000	98.866550
3717.000000	98.866267
3716.000000	98.865206
3715.000000	98.863528
3714.000000	98.862261
3713.000000	98.862739
3712.000000	98.865470
3711.000000	98.869163
3710.000000	98.871971
3709.000000	98.874124
3708.000000	98.876797
3707.000000	98.879964
3706.000000	98.883486
3705.000000	98.888179
3704.000000	98.895066
3703.000000	98.903436
3702.000000	98.910350
3701.000000	98.912770
3700.000000	98.910561
3699.000000	98.906123
3698.000000	98.901285
3697.000000	98.895691
3696.000000	98.888001
3695.000000	98.877673
3694.000000	98.865962
3693.000000	98.856021
3692.000000	98.851658
3691.000000	98.855522
3690.000000	98.866265
3689.000000	98.877134
3688.000000	98.880765
3687.000000	98.877106
3686.000000	98.872386
3685.000000	98.871203
3684.000000	98.873124
3683.000000	98.874582
3682.000000	98.872666
3681.000000	98.867098
3680.000000	98.859240
3679.000000	98.850106
3678.000000	98.840443
3677.000000	98.832103
3676.000000	98.826805
3675.000000	98.821262
3674.000000	98.810641
3673.000000	98.797573
3672.000000	98.788018
3671.000000	98.784792
3670.000000	98.787657
3669.000000	98.793136
3668.000000	98.797823
3667.000000	98.802390
3666.000000	98.807840
3665.000000	98.812956
3664.000000	98.816737
3663.000000	98.819356
3662.000000	98.820787
3661.000000	98.820487
3660.000000	98.818529
3659.000000	98.815938
3658.000000	98.813552
3657.000000	98.810611
3656.000000	98.804991
3655.000000	98.795594
3654.000000	98.784128
3653.000000	98.772857
3652.000000	98.761771
3651.000000	98.749441
3650.000000	98.735714
3649.000000	98.722407
3648.000000	98.711997
3647.000000	98.706443
3646.000000	98.705772
3645.000000	98.707882
3644.000000	98.711033
3643.000000	98.715349
3642.000000	98.721085
3641.000000	98.726973
3640.000000	98.731254
3639.000000	98.733432
3638.000000	98.733773
3637.000000	98.731746
3636.000000	98.726244
3635.000000	98.717103
3634.000000	98.705629
3633.000000	98.693303
3632.000000	98.680639
3631.000000	98.667736
3630.000000	98.655851
3629.000000	98.646788
3628.000000	98.639411
3627.000000	98.632272
3626.000000	98.627784
3625.000000	98.626720
3624.000000	98.625555
3623.000000	98.620670
3622.000000	98.611219
3621.000000	98.598917
3620.000000	98.586606
3619.000000	98.576407
3618.000000	98.568630
3617.000000	98.563011
3616.000000	98.559417
3615.000000	98.556490
3614.000000	98.551949
3613.000000	98.544410
3612.000000	98.534670
3611.000000	98.525154
3610.000000	98.517735
3609.000000	98.512681
3608.000000	98.509390
3607.000000	98.507284
3606.000000	98.506122
3605.000000	98.505312
3604.000000	98.503375
3603.000000	98.498901
3602.000000	98.492065
3601.000000	98.484290
3600.000000	98.476659
3599.000000	98.468883
3598.000000	98.459649
3597.000000	98.447949
3596.000000	98.434315
3595.000000	98.421022
3594.000000	98.410350
3593.000000	98.402336
3592.000000	98.394594
3591.000000	98.384388
3590.000000	98.370448
3589.000000	98.354130
3588.000000	98.338535
3587.000000	98.325563
3586.000000	98.315358
3585.000000	98.308492
3584.000000	98.304896
3583.000000	98.301963
3582.000000	98.296832
3581.000000	98.289184
3580.000000	98.281219
3579.000000	98.275306
3578.000000	98.271899
3577.000000	98.269517
3576.000000	98.265893
3575.000000	98.259096
3574.000000	98.248143
3573.000000	98.233728
3572.000000	98.218124
3571.000000	98.203960
3570.000000	98.192332
3569.000000	98.181830
3568.000000	98.168924
3567.000000	98.150384
3566.000000	98.127122
3565.000000	98.104900
3564.000000	98.089115
3563.000000	98.080412
3562.000000	98.076402
3561.000000	98.075074
3560.000000	98.075297
3559.000000	98.075661
3558.000000	98.074247
3557.000000	98.069431
3556.000000	98.060360
3555.000000	98.046825
3554.000000	98.029424
3553.000000	98.010245
3552.000000	97.992504
3551.000000	97.978358
3550.000000	97.967146
3549.000000	97.956270
3548.000000	97.943772
3547.000000	97.930014
3546.000000	97.916838
3545.000000	97.905469
3544.000000	97.895713
3543.000000	97.886616
3542.000000	97.877203
3541.000000	97.867060
3540.000000	97.856666
3539.000000	97.846957
3538.000000	97.838253
3537.000000	97.829608
3536.000000	97.819353
3535.000000	97.806435
3534.000000	97.791385
3533.000000	97.776114
3532.000000	97.762889
3531.000000	97.753105
3530.000000	97.746529
3529.000000	97.741747
3528.000000	97.737593
3527.000000	97.733683
3526.000000	97.729162
3525.000000	97.721569
3524.000000	97.708195
3523.000000	97.689232
3522.000000	97.668965
3521.000000	97.652968
3520.000000	97.643955
3519.000000	97.640204
3518.000000	97.637201
3517.000000	97.630584
3516.000000	97.618588
3515.000000	97.602845
3514.000000	97.587276
3513.000000	97.575399
3512.000000	97.567807
3511.000000	97.562052
3510.000000	97.555137
3509.000000	97.546062
3508.000000	97.535703
3507.000000	97.524867
3506.000000	97.513585
3505.000000	97.502187
3504.000000	97.491752
3503.000000	97.482703
3502.000000	97.473964
3501.000000	97.464555
3500.000000	97.455134
3499.000000	97.447090
3498.000000	97.440852
3497.000000	97.435686
3496.000000	97.430607
3495.000000	97.424791
3494.000000	97.417139
3493.000000	97.406411
3492.000000	97.392464
3491.000000	97.377239
3490.000000	97.364030
3489.000000	97.355192
3488.000000	97.350211
3487.000000	97.346025
3486.000000	97.339477
3485.000000	97.329498
3484.000000	97.317115
3483.000000	97.304146
3482.000000	97.292348
3481.000000	97.283175
3480.000000	97.277270
3479.000000	97.273808
3478.000000	97.270966
3477.000000	97.267437
3476.000000	97.263237
3475.000000	97.258840
3474.000000	97.253840
3473.000000	97.246785
3472.000000	97.236080
3471.000000	97.221171
3470.000000	97.203648
3469.000000	97.187442
3468.000000	97.176808
3467.000000	97.172873
3466.000000	97.172434
3465.000000	97.171030
3464.000000	97.166940
3463.000000	97.161495
3462.000000	97.155862
3461.000000	97.148902
3460.000000	97.138770
3459.000000	97.125733
3458.000000	97.112331
3457.000000	97.100822
3456.000000	97.091146
3455.000000	97.081745
3454.000000	97.072051
3453.000000	97.063431
3452.000000	97.057510
3451.000000	97.054199
3450.000000	97.052060
3449.000000	97.050107
3448.000000	97.048274
3447.000000	97.046106
3446.000000	97.042098
3445.000000	97.034955
3444.000000	97.024765
3443.000000	97.012727
3442.000000	97.000601
3441.000000	96.990465
3440.000000	96.983778
3439.000000	96.980002
3438.000000	96.976733
3437.000000	96.971845
3436.000000	96.965039
3435.000000	96.956875
3434.000000	96.947220
3433.000000	96.935748
3432.000000	96.923484
3431.000000	96.912501
3430.000000	96.904004
3429.000000	96.897474
3428.000000	96.891624
3427.000000	96.885355
3426.000000	96.877879
3425.000000	96.868893
3424.000000	96.858885
3423.000000	96.848608
3422.000000	96.838129
3421.000000	96.827133
3420.000000	96.816298
3419.000000	96.807372
3418.000000	96.801313
3417.000000	96.797058
3416.000000	96.792674
3415.000000	96.787168
3414.000000	96.780568
3413.000000	96.772602
3412.000000	96.762258
3411.000000	96.749107
3410.000000	96.734782
3409.000000	96.722654
3408.000000	96.715557
3407.000000	96.713453
3406.000000	96.713155
3405.000000	96.710577
3404.000000	96.703737
3403.000000	96.693994
3402.000000	96.684498
3401.000000	96.677337
3400.000000	96.671890
3399.000000	96.665627
3398.000000	96.656389
3397.000000	96.644001
3396.000000	96.629953
3395.000000	96.615875
3394.000000	96.602520
3393.000000	96.589964
3392.000000	96.578254
3391.000000	96.567627
3390.000000	96.558321
3389.000000	96.550432
3388.000000	96.543994
3387.000000	96.539184
3386.000000	96.536179
3385.000000	96.534293
3384.000000	96.531173
3383.000000	96.523700
3382.000000	96.510676
3381.000000	96.494478
3380.000000	96.479206
3379.000000	96.466891
3378.000000	96.456057
3377.000000	96.443892
3376.000000	96.429056
3375.000000	96.412307
3374.000000	96.395488
3373.000000	96.380640
3372.000000	96.369445
3371.000000	96.362473
3370.000000	96.358705
3369.000000	96.355901
3368.000000	96.351297
3367.000000	96.342300
3366.000000	96.327723
3365.000000	96.309103
3364.000000	96.290154
3363.000000	96.274139
3362.000000	96.261852
3361.000000	96.252179
3360.000000	96.243730
3359.000000	96.235144
3358.000000	96.224517
3357.000000	96.209931
3356.000000	96.190931
3355.000000	96.168987
3354.000000	96.146268
3353.000000	96.124286
3352.000000	96.103818
3351.000000	96.085715
3350.000000	96.071223
3349.000000	96.061063
3348.000000	96.053935
3347.000000	96.046336
3346.000000	96.034634
3345.000000	96.017581
3344.000000	95.996627
3343.000000	95.974167
3342.000000	95.952399
3341.000000	95.933652
3340.000000	95.919917
3339.000000	95.910826
3338.000000	95.902862
3337.000000	95.891864
3336.000000	95.876347
3335.000000	95.857882
3334.000000	95.838629
3333.000000	95.819407
3332.000000	95.800100
3331.000000	95.781049
3330.000000	95.763542
3329.000000	95.748830
3328.000000	95.736487
3327.000000	95.724021
3326.000000	95.708932
3325.000000	95.691441
3324.000000	95.674550
3323.000000	95.661164
3322.000000	95.651855
3321.000000	95.645375
3320.000000	95.639792
3319.000000	95.632429
3318.000000	95.620218
3317.000000	95.601964
3316.000000	95.580277
3315.000000	95.560335
3314.000000	95.546549
3313.000000	95.540177
3312.000000	95.538673
3311.000000	95.536564
3310.000000	95.528526
3309.000000	95.513681
3308.000000	95.496664
3307.000000	95.482937
3306.000000	95.473324
3305.000000	95.464354
3304.000000	95.453227
3303.000000	95.440641
3302.000000	95.428829
3301.000000	95.418678
3300.000000	95.409583
3299.000000	95.400831
3298.000000	95.392238
3297.000000	95.384151
3296.000000	95.377528
3295.000000	95.373487
3294.000000	95.372101
3293.000000	95.371756
3292.000000	95.369952
3291.000000	95.364772
3290.000000	95.355919
3289.000000	95.344872
3288.000000	95.333958
3287.000000	95.324799
3286.000000	95.317652
3285.000000	95.312407
3284.000000	95.309420
3283.000000	95.308621
3282.000000	95.308493
3281.000000	95.307575
3280.000000	95.307076
3279.000000	95.310309
3278.000000	95.318947
3277.000000	95.330761
3276.000000	95.341895
3275.000000	95.350833
3274.000000	95.359035
3273.000000	95.368032
3272.000000	95.376836
3271.000000	95.382503
3270.000000	95.383033
3269.000000	95.379633
3268.000000	95.376229
3267.000000	95.376753
3266.000000	95.382649
3265.000000	95.392691
3264.000000	95.404775
3263.000000	95.417492
3262.000000	95.430205
3261.000000	95.442262
3260.000000	95.452576
3259.000000	95.460210
3258.000000	95.465668
3257.000000	95.471530
3256.000000	95.481076
3255.000000	95.495555
3254.000000	95.512960
3253.000000	95.529954
3252.000000	95.544692
3251.000000	95.557305
3250.000000	95.568295
3249.000000	95.577687
3248.000000	95.585878
3247.000000	95.594165
3246.000000	95.603563
3245.000000	95.613197
3244.000000	95.620508
3243.000000	95.623451
3242.000000	95.622593
3241.000000	95.621202
3240.000000	95.623164
3239.000000	95.630547
3238.000000	95.642858
3237.000000	95.658007
3236.000000	95.673355
3235.000000	95.686274
3234.000000	95.695194
3233.000000	95.701037
3232.000000	95.706879
3231.000000	95.715059
3230.000000	95.724777
3229.000000	95.733185
3228.000000	95.738566
3227.000000	95.741894
3226.000000	95.745520
3225.000000	95.750987
3224.000000	95.757909
3223.000000	95.764421
3222.000000	95.769309
3221.000000	95.774232
3220.000000	95.783074
3219.000000	95.797550
3218.000000	95.813721
3217.000000	95.824671
3216.000000	95.827030
3215.000000	95.824106
3214.000000	95.822109
3213.000000	95.824206
3212.000000	95.828925
3211.000000	95.833472
3210.000000	95.837349
3209.000000	95.842341
3208.000000	95.849694
3207.000000	95.858155
3206.000000	95.865343
3205.000000	95.870775
3204.000000	95.876640
3203.000000	95.885134
3202.000000	95.895682
3201.000000	95.905503
3200.000000	95.912413
3199.000000	95.916557
3198.000000	95.920010
3197.000000	95.925675
3196.000000	95.935726
3195.000000	95.949562
3194.000000	95.963478
3193.000000	95.973799
3192.000000	95.980832
3191.000000	95.988611
3190.000000	96.000379
3189.000000	96.015410
3188.000000	96.030538
3187.000000	96.043566
3186.000000	96.054487
3185.000000	96.064621
3184.000000	96.075638
3183.000000	96.088755
3182.000000	96.103678
3181.000000	96.118304
3180.000000	96.130102
3179.000000	96.137847
3178.000000	96.142295
3177.000000	96.145897
3176.000000	96.152090
3175.000000	96.163671
3174.000000	96.180627
3173.000000	96.199698
3172.000000	96.216762
3171.000000	96.229767
3170.000000	96.239205
3169.000000	96.246628
3168.000000	96.253628
3167.000000	96.261732
3166.000000	96.271967
3165.000000	96.284119
3164.000000	96.297059
3163.000000	96.309988
3162.000000	96.322887
3161.000000	96.335711
3160.000000	96.347843
3159.000000	96.358685
3158.000000	96.368354
3157.000000	96.377400
3156.000000	96.386091
3155.000000	96.394361
3154.000000	96.402446
3153.000000	96.411260
3152.000000	96.421922
3151.000000	96.434863
3150.000000	96.449358
3149.000000	96.463937
3148.000000	96.477272
3147.000000	96.488832
3146.000000	96.499044
