PE IR       SUBTECH     SPECTRUM    ASCII       PEDS        4.00        
   -1
3C-XXX-C014_1.ASC
23/09/07
10:30:15.00
23/09/07
11:30:09.00
uco
Sample 014 By uco Date Thursday, September 07 2023
450.000000
#HDR
-1
-1
#GR
cm-1
%T
1.0
0.0
4000.000000
-1.000000
3551
8
99.109107
89.567866
#DATA
4000.000000	98.985174
3999.000000	98.980572
3998.000000	98.975974
3997.000000	98.971364
3996.000000	98.968598
3995.000000	98.967780
3994.000000	98.968160
3993.000000	98.968979
3992.000000	98.969800
3991.000000	98.970145
3990.000000	98.969246
3989.000000	98.966572
3988.000000	98.962566
3987.000000	98.958485
3986.000000	98.955451
3985.000000	98.953889
3984.000000	98.953961
3983.000000	98.956029
3982.000000	98.960173
3981.000000	98.965326
3980.000000	98.969352
3979.000000	98.970290
3978.000000	98.967538
3977.000000	98.961997
3976.000000	98.955516
3975.000000	98.950252
3974.000000	98.947967
3973.000000	98.949250
3972.000000	98.953117
3971.000000	98.957419
3970.000000	98.959972
3969.000000	98.959680
3968.000000	98.956999
3967.000000	98.953472
3966.000000	98.950634
3965.000000	98.949186
3964.000000	98.948821
3963.000000	98.948550
3962.000000	98.947268
3961.000000	98.944359
3960.000000	98.940271
3959.000000	98.936501
3958.000000	98.934631
3957.000000	98.935180
3956.000000	98.937140
3955.000000	98.938734
3954.000000	98.938799
3953.000000	98.937660
3952.000000	98.936756
3951.000000	98.937242
3950.000000	98.938861
3949.000000	98.940143
3948.000000	98.939851
3947.000000	98.938143
3946.000000	98.936320
3945.000000	98.935621
3944.000000	98.936462
3943.000000	98.938811
3942.000000	98.942646
3941.000000	98.947676
3940.000000	98.952634
3939.000000	98.955117
3938.000000	98.952924
3937.000000	98.946204
3936.000000	98.937681
3935.000000	98.930647
3934.000000	98.926874
3933.000000	98.926296
3932.000000	98.927968
3931.000000	98.930518
3930.000000	98.932432
3929.000000	98.932591
3928.000000	98.930953
3927.000000	98.928849
3926.000000	98.927909
3925.000000	98.928672
3924.000000	98.930767
3923.000000	98.934406
3922.000000	98.939934
3921.000000	98.945259
3920.000000	98.945968
3919.000000	98.939430
3918.000000	98.928200
3917.000000	98.918680
3916.000000	98.916113
3915.000000	98.920987
3914.000000	98.929482
3913.000000	98.936203
3912.000000	98.937223
3911.000000	98.932780
3910.000000	98.926596
3909.000000	98.922248
3908.000000	98.920433
3907.000000	98.919709
3906.000000	98.919056
3905.000000	98.919233
3904.000000	98.921743
3903.000000	98.926742
3902.000000	98.933003
3901.000000	98.938642
3900.000000	98.941373
3899.000000	98.939928
3898.000000	98.936045
3897.000000	98.933575
3896.000000	98.934597
3895.000000	98.937642
3894.000000	98.939961
3893.000000	98.940368
3892.000000	98.939261
3891.000000	98.937836
3890.000000	98.937841
3889.000000	98.941740
3888.000000	98.949740
3887.000000	98.956873
3886.000000	98.956808
3885.000000	98.948137
3884.000000	98.936498
3883.000000	98.929483
3882.000000	98.928133
3881.000000	98.927142
3880.000000	98.923063
3879.000000	98.917935
3878.000000	98.916683
3877.000000	98.921557
3876.000000	98.928861
3875.000000	98.933024
3874.000000	98.931838
3873.000000	98.927889
3872.000000	98.926798
3871.000000	98.931682
3870.000000	98.939383
3869.000000	98.944354
3868.000000	98.946378
3867.000000	98.950036
3866.000000	98.954698
3865.000000	98.954111
3864.000000	98.946163
3863.000000	98.935750
3862.000000	98.928500
3861.000000	98.925313
3860.000000	98.923765
3859.000000	98.922626
3858.000000	98.921973
3857.000000	98.921844
3856.000000	98.922240
3855.000000	98.923250
3854.000000	98.924934
3853.000000	98.927205
3852.000000	98.931128
3851.000000	98.941343
3850.000000	98.957156
3849.000000	98.968282
3848.000000	98.969181
3847.000000	98.963223
3846.000000	98.954365
3845.000000	98.943292
3844.000000	98.929844
3843.000000	98.916166
3842.000000	98.906415
3841.000000	98.904779
3840.000000	98.912538
3839.000000	98.926103
3838.000000	98.939098
3837.000000	98.947391
3836.000000	98.951162
3835.000000	98.952237
3834.000000	98.951724
3833.000000	98.950032
3832.000000	98.947093
3831.000000	98.941982
3830.000000	98.934435
3829.000000	98.926059
3828.000000	98.918874
3827.000000	98.913632
3826.000000	98.909226
3825.000000	98.904645
3824.000000	98.901139
3823.000000	98.900995
3822.000000	98.905131
3821.000000	98.911664
3820.000000	98.916424
3819.000000	98.920144
3818.000000	98.927135
3817.000000	98.934990
3816.000000	98.938532
3815.000000	98.937174
3814.000000	98.935383
3813.000000	98.937706
3812.000000	98.941591
3811.000000	98.941510
3810.000000	98.937789
3809.000000	98.934865
3808.000000	98.934745
3807.000000	98.935032
3806.000000	98.932664
3805.000000	98.929525
3804.000000	98.930733
3803.000000	98.937227
3802.000000	98.944876
3801.000000	98.948175
3800.000000	98.945357
3799.000000	98.942352
3798.000000	98.942944
3797.000000	98.942637
3796.000000	98.937771
3795.000000	98.930221
3794.000000	98.924424
3793.000000	98.922489
3792.000000	98.922498
3791.000000	98.921851
3790.000000	98.920023
3789.000000	98.917484
3788.000000	98.914683
3787.000000	98.912691
3786.000000	98.912943
3785.000000	98.915459
3784.000000	98.918360
3783.000000	98.920285
3782.000000	98.921905
3781.000000	98.923983
3780.000000	98.925126
3779.000000	98.923094
3778.000000	98.918033
3777.000000	98.913656
3776.000000	98.913477
3775.000000	98.917365
3774.000000	98.922874
3773.000000	98.928084
3772.000000	98.931747
3771.000000	98.932266
3770.000000	98.928991
3769.000000	98.924709
3768.000000	98.924587
3767.000000	98.930927
3766.000000	98.939620
3765.000000	98.943558
3764.000000	98.939724
3763.000000	98.931497
3762.000000	98.924004
3761.000000	98.919368
3760.000000	98.917431
3759.000000	98.918290
3758.000000	98.922001
3757.000000	98.927626
3756.000000	98.933654
3755.000000	98.940181
3754.000000	98.949280
3753.000000	98.962859
3752.000000	98.979866
3751.000000	98.993999
3750.000000	98.997511
3749.000000	98.989921
3748.000000	98.978483
3747.000000	98.971628
3746.000000	98.974231
3745.000000	98.984783
3744.000000	98.993401
3743.000000	98.991026
3742.000000	98.983222
3741.000000	98.975731
3740.000000	98.962714
3739.000000	98.944070
3738.000000	98.930410
3737.000000	98.929807
3736.000000	98.939463
3735.000000	98.949431
3734.000000	98.954622
3733.000000	98.958559
3732.000000	98.964714
3731.000000	98.971827
3730.000000	98.978405
3729.000000	98.984604
3728.000000	98.989747
3727.000000	98.991833
3726.000000	98.989319
3725.000000	98.983087
3724.000000	98.976187
3723.000000	98.970304
3722.000000	98.964747
3721.000000	98.959684
3720.000000	98.957267
3719.000000	98.959067
3718.000000	98.963709
3717.000000	98.967996
3716.000000	98.969910
3715.000000	98.969848
3714.000000	98.968465
3713.000000	98.965446
3712.000000	98.961420
3711.000000	98.959043
3710.000000	98.960602
3709.000000	98.965167
3708.000000	98.969238
3707.000000	98.970369
3706.000000	98.969473
3705.000000	98.969582
3704.000000	98.972623
3703.000000	98.977198
3702.000000	98.979760
3701.000000	98.978534
3700.000000	98.975710
3699.000000	98.974620
3698.000000	98.975508
3697.000000	98.975371
3696.000000	98.971803
3695.000000	98.965869
3694.000000	98.960726
3693.000000	98.958525
3692.000000	98.959903
3691.000000	98.964985
3690.000000	98.972117
3689.000000	98.977421
3688.000000	98.978887
3687.000000	98.979292
3686.000000	98.982156
3685.000000	98.986623
3684.000000	98.988612
3683.000000	98.985844
3682.000000	98.979450
3681.000000	98.971355
3680.000000	98.962311
3679.000000	98.952929
3678.000000	98.945962
3677.000000	98.944634
3676.000000	98.947743
3675.000000	98.948474
3674.000000	98.943629
3673.000000	98.940249
3672.000000	98.942729
3671.000000	98.945860
3670.000000	98.944574
3669.000000	98.938036
3668.000000	98.929248
3667.000000	98.922014
3666.000000	98.915154
3665.000000	98.906158
3664.000000	98.896049
3663.000000	98.886704
3662.000000	98.878104
3661.000000	98.869668
3660.000000	98.862774
3659.000000	98.860226
3658.000000	98.862732
3657.000000	98.866460
3656.000000	98.865943
3655.000000	98.860225
3654.000000	98.854127
3653.000000	98.850885
3652.000000	98.847755
3651.000000	98.840866
3650.000000	98.830125
3649.000000	98.818877
3648.000000	98.810741
3647.000000	98.805746
3646.000000	98.800617
3645.000000	98.794093
3644.000000	98.788378
3643.000000	98.785942
3642.000000	98.786944
3641.000000	98.789556
3640.000000	98.791831
3639.000000	98.792329
3638.000000	98.789419
3637.000000	98.782025
3636.000000	98.771538
3635.000000	98.761155
3634.000000	98.753335
3633.000000	98.748693
3632.000000	98.747182
3631.000000	98.747573
3630.000000	98.745398
3629.000000	98.734850
3628.000000	98.715506
3627.000000	98.696311
3626.000000	98.686103
3625.000000	98.681857
3624.000000	98.675901
3623.000000	98.667253
3622.000000	98.659149
3621.000000	98.652584
3620.000000	98.645075
3619.000000	98.634776
3618.000000	98.624342
3617.000000	98.618690
3616.000000	98.618763
3615.000000	98.619038
3614.000000	98.612270
3613.000000	98.596884
3612.000000	98.579628
3611.000000	98.569245
3610.000000	98.567446
3609.000000	98.567401
3608.000000	98.561351
3607.000000	98.548761
3606.000000	98.535402
3605.000000	98.525812
3604.000000	98.519660
3603.000000	98.514331
3602.000000	98.507767
3601.000000	98.498788
3600.000000	98.486925
3599.000000	98.472789
3598.000000	98.457765
3597.000000	98.442869
3596.000000	98.428950
3595.000000	98.417197
3594.000000	98.408237
3593.000000	98.401227
3592.000000	98.394580
3591.000000	98.386835
3590.000000	98.376930
3589.000000	98.364299
3588.000000	98.348890
3587.000000	98.331836
3586.000000	98.316643
3585.000000	98.307509
3584.000000	98.304656
3583.000000	98.303415
3582.000000	98.298637
3581.000000	98.288633
3580.000000	98.275404
3579.000000	98.261996
3578.000000	98.249959
3577.000000	98.239110
3576.000000	98.228777
3575.000000	98.218277
3574.000000	98.206600
3573.000000	98.193101
3572.000000	98.178650
3571.000000	98.165106
3570.000000	98.153092
3569.000000	98.140833
3568.000000	98.125699
3567.000000	98.107869
3566.000000	98.091605
3565.000000	98.081169
3564.000000	98.076110
3563.000000	98.071634
3562.000000	98.063290
3561.000000	98.050478
3560.000000	98.035694
3559.000000	98.021358
3558.000000	98.008012
3557.000000	97.995164
3556.000000	97.982536
3555.000000	97.969745
3554.000000	97.955304
3553.000000	97.937488
3552.000000	97.917049
3551.000000	97.897881
3550.000000	97.883648
3549.000000	97.874318
3548.000000	97.866536
3547.000000	97.856941
3546.000000	97.844787
3545.000000	97.831709
3544.000000	97.819478
3543.000000	97.808119
3542.000000	97.795986
3541.000000	97.781540
3540.000000	97.764913
3539.000000	97.747667
3538.000000	97.731130
3537.000000	97.715465
3536.000000	97.700597
3535.000000	97.687316
3534.000000	97.676709
3533.000000	97.668711
3532.000000	97.661911
3531.000000	97.654547
3530.000000	97.645479
3529.000000	97.634568
3528.000000	97.622850
3527.000000	97.611900
3526.000000	97.602010
3525.000000	97.591012
3524.000000	97.575980
3523.000000	97.556873
3522.000000	97.537674
3521.000000	97.522897
3520.000000	97.513171
3519.000000	97.504707
3518.000000	97.492905
3517.000000	97.476432
3516.000000	97.458133
3515.000000	97.442222
3514.000000	97.430825
3513.000000	97.422813
3512.000000	97.415275
3511.000000	97.405803
3510.000000	97.394057
3509.000000	97.381810
3508.000000	97.371462
3507.000000	97.364132
3506.000000	97.358768
3505.000000	97.352822
3504.000000	97.344048
3503.000000	97.332276
3502.000000	97.319568
3501.000000	97.308301
3500.000000	97.298953
3499.000000	97.290023
3498.000000	97.280093
3497.000000	97.269573
3496.000000	97.259871
3495.000000	97.250860
3494.000000	97.240173
3493.000000	97.225798
3492.000000	97.208842
3491.000000	97.192884
3490.000000	97.180773
3489.000000	97.172560
3488.000000	97.166371
3487.000000	97.160330
3486.000000	97.153279
3485.000000	97.144330
3484.000000	97.132790
3483.000000	97.118924
3482.000000	97.104484
3481.000000	97.092073
3480.000000	97.083757
3479.000000	97.080022
3478.000000	97.079566
3477.000000	97.079791
3476.000000	97.077809
3475.000000	97.071877
3474.000000	97.062360
3473.000000	97.050944
3472.000000	97.038523
3471.000000	97.024290
3470.000000	97.007515
3469.000000	96.989921
3468.000000	96.975202
3467.000000	96.965705
3466.000000	96.960384
3465.000000	96.956599
3464.000000	96.953044
3463.000000	96.950055
3462.000000	96.947679
3461.000000	96.944581
3460.000000	96.938950
3459.000000	96.929745
3458.000000	96.917098
3457.000000	96.902304
3456.000000	96.887595
3455.000000	96.875079
3454.000000	96.865382
3453.000000	96.857553
3452.000000	96.850508
3451.000000	96.844432
3450.000000	96.840534
3449.000000	96.839306
3448.000000	96.839127
3447.000000	96.836834
3446.000000	96.830050
3445.000000	96.818782
3444.000000	96.804521
3443.000000	96.788751
3442.000000	96.773106
3441.000000	96.760117
3440.000000	96.752013
3439.000000	96.748234
3438.000000	96.745073
3437.000000	96.738716
3436.000000	96.728393
3435.000000	96.716177
3434.000000	96.704484
3433.000000	96.694543
3432.000000	96.686587
3431.000000	96.680115
3430.000000	96.673790
3429.000000	96.666119
3428.000000	96.656788
3427.000000	96.646877
3426.000000	96.637592
3425.000000	96.629228
3424.000000	96.621355
3423.000000	96.613358
3422.000000	96.604577
3421.000000	96.594596
3420.000000	96.583838
3419.000000	96.573457
3418.000000	96.564344
3417.000000	96.556560
3416.000000	96.549739
3415.000000	96.543467
3414.000000	96.537021
3413.000000	96.529235
3412.000000	96.519121
3411.000000	96.506642
3410.000000	96.493066
3409.000000	96.480898
3408.000000	96.473049
3407.000000	96.470805
3406.000000	96.471898
3405.000000	96.471263
3404.000000	96.464800
3403.000000	96.452744
3402.000000	96.439092
3401.000000	96.427786
3400.000000	96.419551
3399.000000	96.411942
3398.000000	96.401901
3397.000000	96.388318
3396.000000	96.372598
3395.000000	96.357059
3394.000000	96.342916
3393.000000	96.329851
3392.000000	96.317354
3391.000000	96.306056
3390.000000	96.297469
3389.000000	96.292450
3388.000000	96.290038
3387.000000	96.287792
3386.000000	96.283354
3385.000000	96.275834
3384.000000	96.265804
3383.000000	96.254187
3382.000000	96.241560
3381.000000	96.228562
3380.000000	96.216280
3379.000000	96.205448
3378.000000	96.195459
3377.000000	96.184824
3376.000000	96.172735
3375.000000	96.159779
3374.000000	96.146995
3373.000000	96.134683
3372.000000	96.122357
3371.000000	96.109621
3370.000000	96.096756
3369.000000	96.084381
3368.000000	96.072560
3367.000000	96.060451
3366.000000	96.047168
3365.000000	96.033003
3364.000000	96.019159
3363.000000	96.005901
3362.000000	95.991515
3361.000000	95.973865
3360.000000	95.952960
3359.000000	95.931239
3358.000000	95.911083
3357.000000	95.892508
3356.000000	95.873627
3355.000000	95.853115
3354.000000	95.831792
3353.000000	95.811687
3352.000000	95.793799
3351.000000	95.777082
3350.000000	95.759712
3349.000000	95.741061
3348.000000	95.722080
3347.000000	95.703831
3346.000000	95.686208
3345.000000	95.668286
3344.000000	95.649489
3343.000000	95.630054
3342.000000	95.610618
3341.000000	95.591714
3340.000000	95.573569
3339.000000	95.556150
3338.000000	95.539407
3337.000000	95.523397
3336.000000	95.507890
3335.000000	95.491959
3334.000000	95.474651
3333.000000	95.456309
3332.000000	95.438663
3331.000000	95.423200
3330.000000	95.409722
3329.000000	95.396541
3328.000000	95.381631
3327.000000	95.363613
3326.000000	95.342552
3325.000000	95.320324
3324.000000	95.299620
3323.000000	95.281961
3322.000000	95.267035
3321.000000	95.254141
3320.000000	95.243324
3319.000000	95.234604
3318.000000	95.227033
3317.000000	95.219349
3316.000000	95.210931
3315.000000	95.201321
3314.000000	95.189566
3313.000000	95.175179
3312.000000	95.159124
3311.000000	95.142791
3310.000000	95.126641
3309.000000	95.111092
3308.000000	95.098059
3307.000000	95.089597
3306.000000	95.084781
3305.000000	95.079502
3304.000000	95.070040
3303.000000	95.056245
3302.000000	95.041135
3301.000000	95.028247
3300.000000	95.019549
3299.000000	95.014784
3298.000000	95.012204
3297.000000	95.010253
3296.000000	95.008679
3295.000000	95.007603
3294.000000	95.005888
3293.000000	95.001679
3292.000000	94.994700
3291.000000	94.986832
3290.000000	94.980000
3289.000000	94.974317
3288.000000	94.968738
3287.000000	94.962724
3286.000000	94.956801
3285.000000	94.952156
3284.000000	94.949950
3283.000000	94.950306
3282.000000	94.951640
3281.000000	94.951959
3280.000000	94.951321
3279.000000	94.951927
3278.000000	94.955384
3277.000000	94.960851
3276.000000	94.966824
3275.000000	94.973816
3274.000000	94.983595
3273.000000	94.996141
3272.000000	95.008724
3271.000000	95.018123
3270.000000	95.022831
3269.000000	95.023124
3268.000000	95.020437
3267.000000	95.017372
3266.000000	95.017262
3265.000000	95.022246
3264.000000	95.031468
3263.000000	95.041731
3262.000000	95.050244
3261.000000	95.056725
3260.000000	95.063022
3259.000000	95.071091
3258.000000	95.081738
3257.000000	95.094909
3256.000000	95.110235
3255.000000	95.126966
3254.000000	95.143866
3253.000000	95.159850
3252.000000	95.174550
3251.000000	95.187746
3250.000000	95.198449
3249.000000	95.205482
3248.000000	95.209256
3247.000000	95.212095
3246.000000	95.216035
3245.000000	95.220531
3244.000000	95.223358
3243.000000	95.223983
3242.000000	95.225037
3241.000000	95.229806
3240.000000	95.238675
3239.000000	95.249066
3238.000000	95.259005
3237.000000	95.269662
3236.000000	95.283408
3235.000000	95.299881
3234.000000	95.315418
3233.000000	95.326551
3232.000000	95.333102
3231.000000	95.337305
3230.000000	95.340842
3229.000000	95.343843
3228.000000	95.346319
3227.000000	95.349392
3226.000000	95.354710
3225.000000	95.363077
3224.000000	95.373779
3223.000000	95.384967
3222.000000	95.394877
3221.000000	95.403155
3220.000000	95.411002
3219.000000	95.419539
3218.000000	95.428051
3217.000000	95.434503
3216.000000	95.437850
3215.000000	95.439408
3214.000000	95.441669
3213.000000	95.446012
3212.000000	95.451835
3211.000000	95.457707
3210.000000	95.463066
3209.000000	95.468663
3208.000000	95.475567
3207.000000	95.484091
3206.000000	95.493855
3205.000000	95.504504
3204.000000	95.515770
3203.000000	95.526963
3202.000000	95.537205
3201.000000	95.546328
3200.000000	95.554752
3199.000000	95.562239
3198.000000	95.567875
3197.000000	95.572079
3196.000000	95.577550
3195.000000	95.586788
3194.000000	95.599252
3193.000000	95.612343
3192.000000	95.624940
3191.000000	95.638490
3190.000000	95.654381
3189.000000	95.671712
3188.000000	95.688291
3187.000000	95.702835
3186.000000	95.715556
3185.000000	95.727486
3184.000000	95.739822
3183.000000	95.753183
3182.000000	95.766703
3181.000000	95.778433
3180.000000	95.787381
3179.000000	95.794837
3178.000000	95.803246
3177.000000	95.814254
3176.000000	95.828370
3175.000000	95.845501
3174.000000	95.864477
3173.000000	95.882390
3172.000000	95.895980
3171.000000	95.904387
3170.000000	95.909901
3169.000000	95.915835
3168.000000	95.924225
3167.000000	95.935601
3166.000000	95.949869
3165.000000	95.966404
3164.000000	95.983614
3163.000000	95.999357
3162.000000	96.012260
3161.000000	96.022610
3160.000000	96.032063
3159.000000	96.042611
3158.000000	96.055437
3157.000000	96.070161
3156.000000	96.085095
3155.000000	96.098673
3154.000000	96.110984
3153.000000	96.123743
3152.000000	96.138535
3151.000000	96.155204
3150.000000	96.172041
3149.000000	96.187294
3148.000000	96.200232
3147.000000	96.211158
3146.000000	96.221145
