PE IR       SUBTECH     SPECTRUM    ASCII       PEDS        4.00        
   -1
3C-YYX-F013_1.ASC
23/09/07
11:03:02.00
23/09/07
11:30:09.00
uco
Sample 013 By uco Date Thursday, September 07 2023
450.000000
#HDR
-1
-1
#GR
cm-1
%T
1.0
0.0
4000.000000
-1.000000
3551
8
98.720107
82.705375
#DATA
4000.000000	98.665150
3999.000000	98.664566
3998.000000	98.662711
3997.000000	98.661133
3996.000000	98.661054
3995.000000	98.662388
3994.000000	98.663751
3993.000000	98.663824
3992.000000	98.662414
3991.000000	98.660118
3990.000000	98.657275
3989.000000	98.653682
3988.000000	98.649314
3987.000000	98.644795
3986.000000	98.640962
3985.000000	98.638374
3984.000000	98.637622
3983.000000	98.639617
3982.000000	98.644679
3981.000000	98.651195
3980.000000	98.655817
3979.000000	98.655659
3978.000000	98.650360
3977.000000	98.642128
3976.000000	98.634137
3975.000000	98.629078
3974.000000	98.628567
3973.000000	98.632809
3972.000000	98.640166
3971.000000	98.647308
3970.000000	98.650888
3969.000000	98.649620
3968.000000	98.645086
3967.000000	98.640457
3966.000000	98.638167
3965.000000	98.638641
3964.000000	98.640518
3963.000000	98.641688
3962.000000	98.640461
3961.000000	98.636384
3960.000000	98.630386
3959.000000	98.624118
3958.000000	98.619052
3957.000000	98.616022
3956.000000	98.615376
3955.000000	98.617121
3954.000000	98.620796
3953.000000	98.625576
3952.000000	98.630887
3951.000000	98.636883
3950.000000	98.643724
3949.000000	98.650085
3948.000000	98.653057
3947.000000	98.650364
3946.000000	98.642674
3945.000000	98.633276
3944.000000	98.625870
3943.000000	98.622765
3942.000000	98.624239
3941.000000	98.629274
3940.000000	98.636210
3939.000000	98.642466
3938.000000	98.644993
3937.000000	98.641814
3936.000000	98.633670
3935.000000	98.624011
3934.000000	98.617299
3933.000000	98.617068
3932.000000	98.623829
3931.000000	98.634268
3930.000000	98.643099
3929.000000	98.646487
3928.000000	98.644389
3927.000000	98.639926
3926.000000	98.636860
3925.000000	98.636889
3924.000000	98.638749
3923.000000	98.639997
3922.000000	98.639171
3921.000000	98.636005
3920.000000	98.631042
3919.000000	98.625724
3918.000000	98.622298
3917.000000	98.622548
3916.000000	98.626268
3915.000000	98.631270
3914.000000	98.634683
3913.000000	98.634414
3912.000000	98.630198
3911.000000	98.623965
3910.000000	98.618949
3909.000000	98.617435
3908.000000	98.619434
3907.000000	98.622993
3906.000000	98.625720
3905.000000	98.626561
3904.000000	98.626672
3903.000000	98.628427
3902.000000	98.632853
3901.000000	98.637871
3900.000000	98.639936
3899.000000	98.637487
3898.000000	98.632682
3897.000000	98.629469
3896.000000	98.630228
3895.000000	98.634594
3894.000000	98.640650
3893.000000	98.645899
3892.000000	98.648030
3891.000000	98.646015
3890.000000	98.641375
3889.000000	98.636621
3888.000000	98.632371
3887.000000	98.627447
3886.000000	98.621258
3885.000000	98.614827
3884.000000	98.610106
3883.000000	98.608343
3882.000000	98.609530
3881.000000	98.612938
3880.000000	98.617038
3879.000000	98.619968
3878.000000	98.621410
3877.000000	98.622203
3876.000000	98.622883
3875.000000	98.623286
3874.000000	98.622251
3873.000000	98.618519
3872.000000	98.612526
3871.000000	98.606519
3870.000000	98.602673
3869.000000	98.601617
3868.000000	98.603240
3867.000000	98.606951
3866.000000	98.611042
3865.000000	98.614259
3864.000000	98.617449
3863.000000	98.621763
3862.000000	98.625968
3861.000000	98.627263
3860.000000	98.624654
3859.000000	98.619436
3858.000000	98.613102
3857.000000	98.605350
3856.000000	98.595218
3855.000000	98.583727
3854.000000	98.574840
3853.000000	98.571800
3852.000000	98.574876
3851.000000	98.583532
3850.000000	98.595519
3849.000000	98.606852
3848.000000	98.614971
3847.000000	98.619280
3846.000000	98.620111
3845.000000	98.618003
3844.000000	98.614051
3843.000000	98.609964
3842.000000	98.607789
3841.000000	98.609285
3840.000000	98.614883
3839.000000	98.622465
3838.000000	98.628415
3837.000000	98.630839
3836.000000	98.631281
3835.000000	98.632173
3834.000000	98.634128
3833.000000	98.636152
3832.000000	98.637021
3831.000000	98.636090
3830.000000	98.633645
3829.000000	98.630340
3828.000000	98.626613
3827.000000	98.622459
3826.000000	98.617500
3825.000000	98.611438
3824.000000	98.604558
3823.000000	98.598053
3822.000000	98.593872
3821.000000	98.592551
3820.000000	98.591856
3819.000000	98.590916
3818.000000	98.591834
3817.000000	98.596371
3816.000000	98.603689
3815.000000	98.609810
3814.000000	98.612133
3813.000000	98.611834
3812.000000	98.610824
3811.000000	98.610478
3810.000000	98.611650
3809.000000	98.614450
3808.000000	98.618159
3807.000000	98.621357
3806.000000	98.622932
3805.000000	98.623286
3804.000000	98.623482
3803.000000	98.624191
3802.000000	98.625562
3801.000000	98.625745
3800.000000	98.623232
3799.000000	98.620508
3798.000000	98.620194
3797.000000	98.622100
3796.000000	98.624259
3795.000000	98.624966
3794.000000	98.624332
3793.000000	98.623394
3792.000000	98.622504
3791.000000	98.621522
3790.000000	98.620595
3789.000000	98.620200
3788.000000	98.620810
3787.000000	98.622348
3786.000000	98.623872
3785.000000	98.624061
3784.000000	98.622501
3783.000000	98.620485
3782.000000	98.620017
3781.000000	98.621742
3780.000000	98.624120
3779.000000	98.624666
3778.000000	98.622741
3777.000000	98.620400
3776.000000	98.619818
3775.000000	98.620911
3774.000000	98.621852
3773.000000	98.621078
3772.000000	98.618666
3771.000000	98.616389
3770.000000	98.616653
3769.000000	98.620665
3768.000000	98.627870
3767.000000	98.636289
3766.000000	98.642875
3765.000000	98.644648
3764.000000	98.640801
3763.000000	98.633247
3762.000000	98.624882
3761.000000	98.617795
3760.000000	98.613096
3759.000000	98.611123
3758.000000	98.611590
3757.000000	98.613820
3756.000000	98.616898
3755.000000	98.619931
3754.000000	98.622706
3753.000000	98.626146
3752.000000	98.631119
3751.000000	98.635425
3750.000000	98.634400
3749.000000	98.628062
3748.000000	98.622184
3747.000000	98.621555
3746.000000	98.627148
3745.000000	98.635766
3744.000000	98.640740
3743.000000	98.640862
3742.000000	98.641509
3741.000000	98.643486
3740.000000	98.642810
3739.000000	98.637917
3738.000000	98.632042
3737.000000	98.630696
3736.000000	98.636962
3735.000000	98.647601
3734.000000	98.655292
3733.000000	98.656884
3732.000000	98.655779
3731.000000	98.656634
3730.000000	98.660757
3729.000000	98.665892
3728.000000	98.669036
3727.000000	98.668928
3726.000000	98.666764
3725.000000	98.665257
3724.000000	98.666264
3723.000000	98.668688
3722.000000	98.668860
3721.000000	98.664300
3720.000000	98.656912
3719.000000	98.651214
3718.000000	98.649778
3717.000000	98.651252
3716.000000	98.653018
3715.000000	98.654109
3714.000000	98.654739
3713.000000	98.654926
3712.000000	98.654510
3711.000000	98.654025
3710.000000	98.654411
3709.000000	98.655629
3708.000000	98.656683
3707.000000	98.656723
3706.000000	98.656072
3705.000000	98.656114
3704.000000	98.658017
3703.000000	98.661130
3702.000000	98.662870
3701.000000	98.660872
3700.000000	98.655770
3699.000000	98.650439
3698.000000	98.646761
3697.000000	98.644296
3696.000000	98.641572
3695.000000	98.637944
3694.000000	98.634120
3693.000000	98.631712
3692.000000	98.632361
3691.000000	98.636598
3690.000000	98.642177
3689.000000	98.644502
3688.000000	98.641575
3687.000000	98.637165
3686.000000	98.635721
3685.000000	98.637339
3684.000000	98.639097
3683.000000	98.637996
3682.000000	98.632488
3681.000000	98.622327
3680.000000	98.608241
3679.000000	98.592085
3678.000000	98.576948
3677.000000	98.566905
3676.000000	98.564775
3675.000000	98.567496
3674.000000	98.569066
3673.000000	98.568209
3672.000000	98.565365
3671.000000	98.560473
3670.000000	98.554969
3669.000000	98.550400
3668.000000	98.547232
3667.000000	98.545350
3666.000000	98.543899
3665.000000	98.542343
3664.000000	98.540907
3663.000000	98.539604
3662.000000	98.537752
3661.000000	98.534926
3660.000000	98.531896
3659.000000	98.529791
3658.000000	98.528197
3657.000000	98.524934
3656.000000	98.518691
3655.000000	98.512045
3654.000000	98.508809
3653.000000	98.508813
3652.000000	98.507182
3651.000000	98.497973
3650.000000	98.479869
3649.000000	98.460008
3648.000000	98.447599
3647.000000	98.443557
3646.000000	98.442535
3645.000000	98.440311
3644.000000	98.436223
3643.000000	98.431940
3642.000000	98.429478
3641.000000	98.429390
3640.000000	98.430489
3639.000000	98.430916
3638.000000	98.428879
3637.000000	98.423127
3636.000000	98.413421
3635.000000	98.400910
3634.000000	98.387880
3633.000000	98.376471
3632.000000	98.367412
3631.000000	98.359986
3630.000000	98.352836
3629.000000	98.344187
3628.000000	98.332882
3627.000000	98.320811
3626.000000	98.310798
3625.000000	98.302809
3624.000000	98.296467
3623.000000	98.293094
3622.000000	98.293643
3621.000000	98.296173
3620.000000	98.295929
3619.000000	98.288962
3618.000000	98.275990
3617.000000	98.261194
3616.000000	98.247360
3615.000000	98.234125
3614.000000	98.220097
3613.000000	98.205084
3612.000000	98.190464
3611.000000	98.177613
3610.000000	98.166197
3609.000000	98.155338
3608.000000	98.146072
3607.000000	98.140708
3606.000000	98.139732
3605.000000	98.140549
3604.000000	98.139666
3603.000000	98.135240
3602.000000	98.127905
3601.000000	98.119466
3600.000000	98.110744
3599.000000	98.100869
3598.000000	98.088447
3597.000000	98.073666
3596.000000	98.059263
3595.000000	98.049260
3594.000000	98.045147
3593.000000	98.044170
3592.000000	98.041742
3591.000000	98.035102
3590.000000	98.023806
3589.000000	98.008280
3588.000000	97.988756
3587.000000	97.966382
3586.000000	97.944692
3585.000000	97.927816
3584.000000	97.916847
3583.000000	97.909065
3582.000000	97.900657
3581.000000	97.889838
3580.000000	97.877732
3579.000000	97.866829
3578.000000	97.858564
3577.000000	97.852505
3576.000000	97.846834
3575.000000	97.839107
3574.000000	97.827091
3573.000000	97.810327
3572.000000	97.791353
3571.000000	97.774624
3570.000000	97.763372
3569.000000	97.756772
3568.000000	97.749763
3567.000000	97.737402
3566.000000	97.720356
3565.000000	97.703693
3564.000000	97.690584
3563.000000	97.680087
3562.000000	97.669895
3561.000000	97.659012
3560.000000	97.647677
3559.000000	97.635668
3558.000000	97.621843
3557.000000	97.605347
3556.000000	97.586711
3555.000000	97.567641
3554.000000	97.550122
3553.000000	97.535522
3552.000000	97.524035
3551.000000	97.514739
3550.000000	97.506479
3549.000000	97.498584
3548.000000	97.490657
3547.000000	97.482118
3546.000000	97.472425
3545.000000	97.461830
3544.000000	97.451065
3543.000000	97.439791
3542.000000	97.426207
3541.000000	97.409213
3540.000000	97.390592
3539.000000	97.373994
3538.000000	97.361205
3537.000000	97.350040
3536.000000	97.336626
3535.000000	97.319721
3534.000000	97.301643
3533.000000	97.285408
3532.000000	97.272004
3531.000000	97.260496
3530.000000	97.249742
3529.000000	97.239666
3528.000000	97.231084
3527.000000	97.224522
3526.000000	97.219107
3525.000000	97.212554
3524.000000	97.202349
3523.000000	97.187522
3522.000000	97.169580
3521.000000	97.151473
3520.000000	97.135439
3519.000000	97.121582
3518.000000	97.108230
3517.000000	97.093693
3516.000000	97.077881
3515.000000	97.062420
3514.000000	97.049352
3513.000000	97.039755
3512.000000	97.033253
3511.000000	97.028338
3510.000000	97.022917
3509.000000	97.015047
3508.000000	97.003989
3507.000000	96.990941
3506.000000	96.978422
3505.000000	96.968306
3504.000000	96.960045
3503.000000	96.951114
3502.000000	96.940074
3501.000000	96.928688
3500.000000	96.919833
3499.000000	96.913740
3498.000000	96.907309
3497.000000	96.897067
3496.000000	96.882356
3495.000000	96.865354
3494.000000	96.848742
3493.000000	96.834013
3492.000000	96.821465
3491.000000	96.810696
3490.000000	96.800971
3489.000000	96.791659
3488.000000	96.782362
3487.000000	96.772369
3486.000000	96.760348
3485.000000	96.745312
3484.000000	96.728098
3483.000000	96.711704
3482.000000	96.699663
3481.000000	96.693377
3480.000000	96.690819
3479.000000	96.688066
3478.000000	96.682504
3477.000000	96.674561
3476.000000	96.666399
3475.000000	96.659101
3474.000000	96.651530
3473.000000	96.641870
3472.000000	96.629353
3471.000000	96.614399
3470.000000	96.598279
3469.000000	96.583225
3468.000000	96.571649
3467.000000	96.564002
3466.000000	96.557923
3465.000000	96.550663
3464.000000	96.541968
3463.000000	96.533763
3462.000000	96.527215
3461.000000	96.521001
3460.000000	96.512463
3459.000000	96.499936
3458.000000	96.484262
3457.000000	96.468638
3456.000000	96.456675
3455.000000	96.449671
3454.000000	96.445712
3453.000000	96.441958
3452.000000	96.437396
3451.000000	96.432944
3450.000000	96.429420
3449.000000	96.426321
3448.000000	96.422290
3447.000000	96.415908
3446.000000	96.406085
3445.000000	96.392554
3444.000000	96.376308
3443.000000	96.359515
3442.000000	96.345125
3441.000000	96.336098
3440.000000	96.333801
3439.000000	96.336274
3438.000000	96.338597
3437.000000	96.336184
3436.000000	96.327897
3435.000000	96.315701
3434.000000	96.302103
3433.000000	96.288995
3432.000000	96.278123
3431.000000	96.270572
3430.000000	96.265341
3429.000000	96.259809
3428.000000	96.252409
3427.000000	96.243904
3426.000000	96.235774
3425.000000	96.228383
3424.000000	96.221136
3423.000000	96.213224
3422.000000	96.203396
3421.000000	96.190107
3420.000000	96.173208
3419.000000	96.155221
3418.000000	96.139844
3417.000000	96.129101
3416.000000	96.122191
3415.000000	96.116702
3414.000000	96.110630
3413.000000	96.103516
3412.000000	96.096019
3411.000000	96.088551
3410.000000	96.080742
3409.000000	96.072679
3408.000000	96.066034
3407.000000	96.062549
3406.000000	96.061112
3405.000000	96.057577
3404.000000	96.048429
3403.000000	96.034218
3402.000000	96.018680
3401.000000	96.005077
3400.000000	95.993956
3399.000000	95.983778
3398.000000	95.972709
3397.000000	95.960019
3396.000000	95.946619
3395.000000	95.934366
3394.000000	95.924351
3393.000000	95.915779
3392.000000	95.906830
3391.000000	95.896619
3390.000000	95.886015
3389.000000	95.876675
3388.000000	95.869644
3387.000000	95.864606
3386.000000	95.859835
3385.000000	95.852712
3384.000000	95.840964
3383.000000	95.824261
3382.000000	95.805030
3381.000000	95.787463
3380.000000	95.774929
3379.000000	95.767510
3378.000000	95.761923
3377.000000	95.754212
3376.000000	95.742763
3375.000000	95.728979
3374.000000	95.715555
3373.000000	95.704429
3372.000000	95.695745
3371.000000	95.687861
3370.000000	95.678304
3369.000000	95.665510
3368.000000	95.650025
3367.000000	95.633757
3366.000000	95.618152
3365.000000	95.603745
3364.000000	95.591140
3363.000000	95.580974
3362.000000	95.572277
3361.000000	95.561949
3360.000000	95.547185
3359.000000	95.528146
3358.000000	95.507438
3357.000000	95.487221
3356.000000	95.467926
3355.000000	95.449789
3354.000000	95.434131
3353.000000	95.421917
3352.000000	95.411511
3351.000000	95.399226
3350.000000	95.382691
3349.000000	95.363201
3348.000000	95.344381
3347.000000	95.328765
3346.000000	95.315836
3345.000000	95.302892
3344.000000	95.287202
3343.000000	95.267739
3342.000000	95.245846
3341.000000	95.224565
3340.000000	95.206714
3339.000000	95.193048
3338.000000	95.182152
3337.000000	95.171895
3336.000000	95.160655
3335.000000	95.147394
3334.000000	95.131594
3333.000000	95.113700
3332.000000	95.095162
3331.000000	95.077518
3330.000000	95.061480
3329.000000	95.046827
3328.000000	95.032646
3327.000000	95.017651
3326.000000	95.001003
3325.000000	94.983219
3324.000000	94.965772
3323.000000	94.949589
3322.000000	94.934644
3321.000000	94.921128
3320.000000	94.909665
3319.000000	94.899613
3318.000000	94.888270
3317.000000	94.873226
3316.000000	94.855302
3315.000000	94.838198
3314.000000	94.825318
3313.000000	94.817513
3312.000000	94.813102
3311.000000	94.808908
3310.000000	94.801660
3309.000000	94.789902
3308.000000	94.775055
3307.000000	94.759932
3306.000000	94.746108
3305.000000	94.733224
3304.000000	94.720460
3303.000000	94.707695
3302.000000	94.695266
3301.000000	94.683580
3300.000000	94.673304
3299.000000	94.665255
3298.000000	94.659701
3297.000000	94.655886
3296.000000	94.652113
3295.000000	94.646217
3294.000000	94.636629
3293.000000	94.623936
3292.000000	94.611091
3291.000000	94.601160
3290.000000	94.594921
3289.000000	94.591191
3288.000000	94.589078
3287.000000	94.588766
3286.000000	94.590314
3285.000000	94.592860
3284.000000	94.594986
3283.000000	94.595032
3282.000000	94.591418
3281.000000	94.584289
3280.000000	94.577260
3279.000000	94.575822
3278.000000	94.582789
3277.000000	94.595603
3276.000000	94.608737
3275.000000	94.618630
3274.000000	94.625876
3273.000000	94.633390
3272.000000	94.643073
3271.000000	94.653954
3270.000000	94.663138
3269.000000	94.668681
3268.000000	94.671734
3267.000000	94.675726
3266.000000	94.683339
3265.000000	94.694482
3264.000000	94.707128
3263.000000	94.719389
3262.000000	94.730614
3261.000000	94.741165
3260.000000	94.751795
3259.000000	94.763143
3258.000000	94.775690
3257.000000	94.790285
3256.000000	94.808284
3255.000000	94.830530
3254.000000	94.856026
3253.000000	94.882239
3252.000000	94.906846
3251.000000	94.928701
3250.000000	94.947192
3249.000000	94.961640
3248.000000	94.971919
3247.000000	94.979127
3246.000000	94.985090
3245.000000	94.991202
3244.000000	94.997843
3243.000000	95.004624
3242.000000	95.011010
3241.000000	95.017129
3240.000000	95.024263
3239.000000	95.034216
3238.000000	95.047813
3237.000000	95.064064
3236.000000	95.080891
3235.000000	95.096664
3234.000000	95.110933
3233.000000	95.123835
3232.000000	95.134935
3231.000000	95.142893
3230.000000	95.146662
3229.000000	95.147135
3228.000000	95.147271
3227.000000	95.150140
3226.000000	95.156892
3225.000000	95.166611
3224.000000	95.177464
3223.000000	95.187727
3222.000000	95.196625
3221.000000	95.205167
3220.000000	95.215728
3219.000000	95.229539
3218.000000	95.244540
3217.000000	95.256867
3216.000000	95.264523
3215.000000	95.268934
3214.000000	95.272811
3213.000000	95.277497
3212.000000	95.282793
3211.000000	95.288342
3210.000000	95.294262
3209.000000	95.300607
3208.000000	95.307080
3207.000000	95.313515
3206.000000	95.320440
3205.000000	95.328856
3204.000000	95.339297
3203.000000	95.351040
3202.000000	95.362583
3201.000000	95.373008
3200.000000	95.382642
3199.000000	95.392327
3198.000000	95.402554
3197.000000	95.413518
3196.000000	95.425125
3195.000000	95.436387
3194.000000	95.445757
3193.000000	95.453170
3192.000000	95.461252
3191.000000	95.473107
3190.000000	95.488903
3189.000000	95.505632
3188.000000	95.520284
3187.000000	95.532318
3186.000000	95.543277
3185.000000	95.555196
3184.000000	95.569512
3183.000000	95.586231
3182.000000	95.603544
3181.000000	95.618984
3180.000000	95.631345
3179.000000	95.640984
3178.000000	95.648614
3177.000000	95.655026
3176.000000	95.662262
3175.000000	95.673386
3174.000000	95.689770
3173.000000	95.709094
3172.000000	95.726777
3171.000000	95.739458
3170.000000	95.747011
3169.000000	95.752127
3168.000000	95.758556
3167.000000	95.769074
3166.000000	95.784206
3165.000000	95.802470
3164.000000	95.821782
3163.000000	95.840327
3162.000000	95.856558
3161.000000	95.869586
3160.000000	95.880082
3159.000000	95.890147
3158.000000	95.901580
3157.000000	95.914582
3156.000000	95.928233
3155.000000	95.941686
3154.000000	95.954619
3153.000000	95.967182
3152.000000	95.979822
3151.000000	95.992625
3150.000000	96.004700
3149.000000	96.015080
3148.000000	96.024418
3147.000000	96.034722
3146.000000	96.046756
