PE IR       SUBTECH     SPECTRUM    ASCII       PEDS        4.00        
   -1
3C-YYX-F006_1.ASC
23/09/07
10:57:52.00
23/09/07
11:30:09.00
uco
Sample 006 By uco Date Thursday, September 07 2023
450.000000
#HDR
-1
-1
#GR
cm-1
%T
1.0
0.0
4000.000000
-1.000000
3551
8
98.834680
84.906833
#DATA
4000.000000	98.727082
3999.000000	98.727763
3998.000000	98.726895
3997.000000	98.725258
3996.000000	98.723994
3995.000000	98.723775
3994.000000	98.724213
3993.000000	98.724120
3992.000000	98.722331
3991.000000	98.718476
3990.000000	98.713239
3989.000000	98.708049
3988.000000	98.704481
3987.000000	98.703382
3986.000000	98.704241
3985.000000	98.705595
3984.000000	98.706439
3983.000000	98.707353
3982.000000	98.709815
3981.000000	98.714164
3980.000000	98.718532
3979.000000	98.720046
3978.000000	98.717296
3977.000000	98.711713
3976.000000	98.706619
3975.000000	98.704814
3974.000000	98.706648
3973.000000	98.710018
3972.000000	98.712143
3971.000000	98.711492
3970.000000	98.708410
3969.000000	98.704352
3968.000000	98.700733
3967.000000	98.698430
3966.000000	98.697806
3965.000000	98.698832
3964.000000	98.701111
3963.000000	98.703915
3962.000000	98.706359
3961.000000	98.707601
3960.000000	98.707090
3959.000000	98.704938
3958.000000	98.701946
3957.000000	98.699072
3956.000000	98.696729
3955.000000	98.694790
3954.000000	98.693187
3953.000000	98.692279
3952.000000	98.692611
3951.000000	98.694347
3950.000000	98.696879
3949.000000	98.698932
3948.000000	98.699178
3947.000000	98.696664
3946.000000	98.690966
3945.000000	98.682706
3944.000000	98.674326
3943.000000	98.669555
3942.000000	98.670817
3941.000000	98.677194
3940.000000	98.685181
3939.000000	98.691163
3938.000000	98.693109
3937.000000	98.690579
3936.000000	98.684370
3935.000000	98.676874
3934.000000	98.672251
3933.000000	98.674764
3932.000000	98.685254
3931.000000	98.699220
3930.000000	98.709562
3929.000000	98.711456
3928.000000	98.704855
3927.000000	98.693870
3926.000000	98.684622
3925.000000	98.682082
3924.000000	98.686653
3923.000000	98.693956
3922.000000	98.698704
3921.000000	98.698046
3920.000000	98.691797
3919.000000	98.681517
3918.000000	98.670640
3917.000000	98.664177
3916.000000	98.665482
3915.000000	98.672968
3914.000000	98.681214
3913.000000	98.685715
3912.000000	98.685573
3911.000000	98.683011
3910.000000	98.680571
3909.000000	98.678974
3908.000000	98.676859
3907.000000	98.672471
3906.000000	98.666056
3905.000000	98.661227
3904.000000	98.662925
3903.000000	98.672248
3902.000000	98.684273
3901.000000	98.692335
3900.000000	98.694211
3899.000000	98.692778
3898.000000	98.691388
3897.000000	98.690536
3896.000000	98.688872
3895.000000	98.685757
3894.000000	98.681858
3893.000000	98.678983
3892.000000	98.679585
3891.000000	98.685653
3890.000000	98.695845
3889.000000	98.704877
3888.000000	98.707146
3887.000000	98.701759
3886.000000	98.693748
3885.000000	98.688535
3884.000000	98.685454
3883.000000	98.679822
3882.000000	98.670379
3881.000000	98.661695
3880.000000	98.659082
3879.000000	98.662653
3878.000000	98.667666
3877.000000	98.669983
3876.000000	98.670285
3875.000000	98.673392
3874.000000	98.682364
3873.000000	98.693557
3872.000000	98.700011
3871.000000	98.700001
3870.000000	98.699625
3869.000000	98.704722
3868.000000	98.712694
3867.000000	98.716733
3866.000000	98.714924
3865.000000	98.711520
3864.000000	98.710300
3863.000000	98.710098
3862.000000	98.707327
3861.000000	98.700806
3860.000000	98.692343
3859.000000	98.685251
3858.000000	98.682004
3857.000000	98.682050
3856.000000	98.681495
3855.000000	98.676911
3854.000000	98.671268
3853.000000	98.671232
3852.000000	98.676215
3851.000000	98.679387
3850.000000	98.677876
3849.000000	98.674476
3848.000000	98.672592
3847.000000	98.672800
3846.000000	98.673569
3845.000000	98.673596
3844.000000	98.673014
3843.000000	98.673473
3842.000000	98.676321
3841.000000	98.681622
3840.000000	98.688778
3839.000000	98.697277
3838.000000	98.706093
3837.000000	98.713974
3836.000000	98.720055
3835.000000	98.723631
3834.000000	98.723526
3833.000000	98.718883
3832.000000	98.710779
3831.000000	98.702073
3830.000000	98.695087
3829.000000	98.690217
3828.000000	98.686947
3827.000000	98.685803
3826.000000	98.687614
3825.000000	98.691032
3824.000000	98.692406
3823.000000	98.690158
3822.000000	98.688157
3821.000000	98.692064
3820.000000	98.700736
3819.000000	98.706743
3818.000000	98.705204
3817.000000	98.698066
3816.000000	98.692040
3815.000000	98.690242
3814.000000	98.688741
3813.000000	98.683655
3812.000000	98.676666
3811.000000	98.671889
3810.000000	98.670649
3809.000000	98.670892
3808.000000	98.671226
3807.000000	98.673661
3806.000000	98.680217
3805.000000	98.689192
3804.000000	98.697463
3803.000000	98.704957
3802.000000	98.713841
3801.000000	98.722772
3800.000000	98.725669
3799.000000	98.719364
3798.000000	98.707343
3797.000000	98.696193
3796.000000	98.689924
3795.000000	98.686861
3794.000000	98.683074
3793.000000	98.677419
3792.000000	98.672207
3791.000000	98.669866
3790.000000	98.670641
3789.000000	98.673053
3788.000000	98.675669
3787.000000	98.677801
3786.000000	98.679439
3785.000000	98.681147
3784.000000	98.683608
3783.000000	98.686893
3782.000000	98.690549
3781.000000	98.694340
3780.000000	98.697577
3779.000000	98.697991
3778.000000	98.693103
3777.000000	98.683769
3776.000000	98.674664
3775.000000	98.671129
3774.000000	98.674490
3773.000000	98.680325
3772.000000	98.682535
3771.000000	98.680014
3770.000000	98.677654
3769.000000	98.679434
3768.000000	98.683326
3767.000000	98.685009
3766.000000	98.683678
3765.000000	98.681827
3764.000000	98.680771
3763.000000	98.678959
3762.000000	98.675659
3761.000000	98.673931
3760.000000	98.676940
3759.000000	98.682652
3758.000000	98.685863
3757.000000	98.685362
3756.000000	98.684198
3755.000000	98.685271
3754.000000	98.689854
3753.000000	98.698118
3752.000000	98.707851
3751.000000	98.713898
3750.000000	98.714326
3749.000000	98.714728
3748.000000	98.719733
3747.000000	98.726469
3746.000000	98.729346
3745.000000	98.726435
3744.000000	98.720795
3743.000000	98.715619
3742.000000	98.710097
3741.000000	98.703924
3740.000000	98.699856
3739.000000	98.699723
3738.000000	98.702304
3737.000000	98.706789
3736.000000	98.714538
3735.000000	98.724624
3734.000000	98.732570
3733.000000	98.736108
3732.000000	98.737381
3731.000000	98.738133
3730.000000	98.736443
3729.000000	98.729244
3728.000000	98.716669
3727.000000	98.703152
3726.000000	98.694103
3725.000000	98.691616
3724.000000	98.694461
3723.000000	98.700378
3722.000000	98.706660
3721.000000	98.710916
3720.000000	98.712355
3719.000000	98.711848
3718.000000	98.711080
3717.000000	98.711798
3716.000000	98.714728
3715.000000	98.719031
3714.000000	98.722867
3713.000000	98.725031
3712.000000	98.726386
3711.000000	98.728834
3710.000000	98.732068
3709.000000	98.733609
3708.000000	98.732184
3707.000000	98.728633
3706.000000	98.724049
3705.000000	98.718577
3704.000000	98.712452
3703.000000	98.707237
3702.000000	98.705583
3701.000000	98.708825
3700.000000	98.715411
3699.000000	98.721742
3698.000000	98.724761
3697.000000	98.723759
3696.000000	98.719579
3695.000000	98.713238
3694.000000	98.706587
3693.000000	98.703310
3692.000000	98.706336
3691.000000	98.713659
3690.000000	98.718129
3689.000000	98.714951
3688.000000	98.707690
3687.000000	98.702173
3686.000000	98.698802
3685.000000	98.695298
3684.000000	98.691565
3683.000000	98.688623
3682.000000	98.686088
3681.000000	98.682460
3680.000000	98.677761
3679.000000	98.672695
3678.000000	98.666706
3677.000000	98.660476
3676.000000	98.659292
3675.000000	98.665673
3674.000000	98.672822
3673.000000	98.673308
3672.000000	98.666503
3671.000000	98.658315
3670.000000	98.654364
3669.000000	98.651677
3668.000000	98.643822
3667.000000	98.630633
3666.000000	98.616518
3665.000000	98.605561
3664.000000	98.599110
3663.000000	98.595659
3662.000000	98.592896
3661.000000	98.589894
3660.000000	98.587268
3659.000000	98.585342
3658.000000	98.583710
3657.000000	98.582627
3656.000000	98.583780
3655.000000	98.587566
3654.000000	98.590755
3653.000000	98.588503
3652.000000	98.578330
3651.000000	98.561768
3650.000000	98.543725
3649.000000	98.530366
3648.000000	98.525181
3647.000000	98.525899
3646.000000	98.527049
3645.000000	98.524693
3644.000000	98.518424
3643.000000	98.510717
3642.000000	98.504021
3641.000000	98.498466
3640.000000	98.493163
3639.000000	98.489039
3638.000000	98.487710
3637.000000	98.487520
3636.000000	98.483759
3635.000000	98.474262
3634.000000	98.463040
3633.000000	98.455786
3632.000000	98.453240
3631.000000	98.451775
3630.000000	98.449227
3629.000000	98.446808
3628.000000	98.444797
3627.000000	98.440405
3626.000000	98.430774
3625.000000	98.416561
3624.000000	98.402369
3623.000000	98.392984
3622.000000	98.389374
3621.000000	98.388324
3620.000000	98.384773
3619.000000	98.375397
3618.000000	98.361612
3617.000000	98.347320
3616.000000	98.334076
3615.000000	98.320889
3614.000000	98.307046
3613.000000	98.292994
3612.000000	98.279012
3611.000000	98.263775
3610.000000	98.245578
3609.000000	98.226571
3608.000000	98.213734
3607.000000	98.212386
3606.000000	98.219908
3605.000000	98.228203
3604.000000	98.230765
3603.000000	98.226025
3602.000000	98.216755
3601.000000	98.207331
3600.000000	98.200562
3599.000000	98.195458
3598.000000	98.188352
3597.000000	98.176032
3596.000000	98.158587
3595.000000	98.139814
3594.000000	98.124216
3593.000000	98.112991
3592.000000	98.103481
3591.000000	98.092281
3590.000000	98.078149
3589.000000	98.063210
3588.000000	98.051372
3587.000000	98.044942
3586.000000	98.043016
3585.000000	98.042749
3584.000000	98.041081
3583.000000	98.035557
3582.000000	98.024841
3581.000000	98.009225
3580.000000	97.990982
3579.000000	97.973431
3578.000000	97.958864
3577.000000	97.947259
3576.000000	97.936596
3575.000000	97.924508
3574.000000	97.909716
3573.000000	97.892905
3572.000000	97.876375
3571.000000	97.862702
3570.000000	97.853197
3569.000000	97.847523
3568.000000	97.843518
3567.000000	97.837841
3566.000000	97.828813
3565.000000	97.817913
3564.000000	97.806891
3563.000000	97.795892
3562.000000	97.784355
3561.000000	97.772162
3560.000000	97.759692
3559.000000	97.747141
3558.000000	97.734097
3557.000000	97.720277
3556.000000	97.706116
3555.000000	97.692213
3554.000000	97.678437
3553.000000	97.664335
3552.000000	97.650437
3551.000000	97.638034
3550.000000	97.627310
3549.000000	97.617001
3548.000000	97.606225
3547.000000	97.595701
3546.000000	97.586523
3545.000000	97.578348
3544.000000	97.569546
3543.000000	97.558990
3542.000000	97.546993
3541.000000	97.534692
3540.000000	97.522917
3539.000000	97.511461
3538.000000	97.499240
3537.000000	97.485152
3536.000000	97.468974
3535.000000	97.451581
3534.000000	97.434634
3533.000000	97.420293
3532.000000	97.410643
3531.000000	97.406041
3530.000000	97.403640
3529.000000	97.398697
3528.000000	97.388428
3527.000000	97.374229
3526.000000	97.359551
3525.000000	97.346475
3524.000000	97.334914
3523.000000	97.324042
3522.000000	97.313350
3521.000000	97.302601
3520.000000	97.291719
3519.000000	97.280821
3518.000000	97.269804
3517.000000	97.257860
3516.000000	97.244133
3515.000000	97.228965
3514.000000	97.213801
3513.000000	97.199539
3512.000000	97.185688
3511.000000	97.171644
3510.000000	97.158357
3509.000000	97.148009
3508.000000	97.141799
3507.000000	97.138419
3506.000000	97.134906
3505.000000	97.128529
3504.000000	97.118129
3503.000000	97.104702
3502.000000	97.091126
3501.000000	97.080446
3500.000000	97.073404
3499.000000	97.067634
3498.000000	97.059769
3497.000000	97.048596
3496.000000	97.035820
3495.000000	97.023324
3494.000000	97.010628
3493.000000	96.996251
3492.000000	96.981039
3491.000000	96.968400
3490.000000	96.960726
3489.000000	96.956583
3488.000000	96.952381
3487.000000	96.946073
3486.000000	96.938067
3485.000000	96.928728
3484.000000	96.916707
3483.000000	96.900659
3482.000000	96.882138
3481.000000	96.865679
3480.000000	96.855431
3479.000000	96.851968
3478.000000	96.852372
3477.000000	96.852677
3476.000000	96.849916
3475.000000	96.842809
3474.000000	96.831730
3473.000000	96.818317
3472.000000	96.804578
3471.000000	96.791804
3470.000000	96.780179
3469.000000	96.769362
3468.000000	96.759191
3467.000000	96.749795
3466.000000	96.741446
3465.000000	96.734569
3464.000000	96.729444
3463.000000	96.725349
3462.000000	96.720158
3461.000000	96.711385
3460.000000	96.697947
3459.000000	96.680949
3458.000000	96.663105
3457.000000	96.647487
3456.000000	96.636211
3455.000000	96.629473
3454.000000	96.625887
3453.000000	96.624219
3452.000000	96.624435
3451.000000	96.626541
3450.000000	96.628834
3449.000000	96.628359
3448.000000	96.623354
3447.000000	96.614650
3446.000000	96.604199
3445.000000	96.592884
3444.000000	96.580732
3443.000000	96.568816
3442.000000	96.559661
3441.000000	96.555013
3440.000000	96.553517
3439.000000	96.551220
3438.000000	96.544616
3437.000000	96.533277
3436.000000	96.519680
3435.000000	96.506817
3434.000000	96.496204
3433.000000	96.487858
3432.000000	96.481239
3431.000000	96.475569
3430.000000	96.469742
3429.000000	96.462718
3428.000000	96.454321
3427.000000	96.445319
3426.000000	96.436538
3425.000000	96.427877
3424.000000	96.418188
3423.000000	96.406290
3422.000000	96.392341
3421.000000	96.378187
3420.000000	96.365999
3419.000000	96.356584
3418.000000	96.349353
3417.000000	96.343596
3416.000000	96.338909
3415.000000	96.334457
3414.000000	96.328789
3413.000000	96.320798
3412.000000	96.310247
3411.000000	96.297236
3410.000000	96.282327
3409.000000	96.267782
3408.000000	96.257299
3407.000000	96.252914
3406.000000	96.252433
3405.000000	96.251024
3404.000000	96.245375
3403.000000	96.235755
3402.000000	96.224522
3401.000000	96.213747
3400.000000	96.204098
3399.000000	96.194739
3398.000000	96.183946
3397.000000	96.170730
3396.000000	96.156280
3395.000000	96.143236
3394.000000	96.133335
3393.000000	96.126297
3392.000000	96.121070
3391.000000	96.117173
3390.000000	96.114166
3389.000000	96.110539
3388.000000	96.104291
3387.000000	96.094841
3386.000000	96.083823
3385.000000	96.073472
3384.000000	96.064279
3383.000000	96.054633
3382.000000	96.042893
3381.000000	96.029357
3380.000000	96.015857
3379.000000	96.003729
3378.000000	95.992935
3377.000000	95.983065
3376.000000	95.974163
3375.000000	95.965972
3374.000000	95.957209
3373.000000	95.946572
3372.000000	95.934325
3371.000000	95.922129
3370.000000	95.911325
3369.000000	95.901812
3368.000000	95.892405
3367.000000	95.881669
3366.000000	95.868560
3365.000000	95.853078
3364.000000	95.836592
3363.000000	95.821109
3362.000000	95.807952
3361.000000	95.797065
3360.000000	95.787242
3359.000000	95.776590
3358.000000	95.763096
3357.000000	95.745603
3356.000000	95.724810
3355.000000	95.703277
3354.000000	95.684119
3353.000000	95.669206
3352.000000	95.658021
3351.000000	95.647998
3350.000000	95.636415
3349.000000	95.622417
3348.000000	95.607187
3347.000000	95.592167
3346.000000	95.577547
3345.000000	95.562616
3344.000000	95.546989
3343.000000	95.531103
3342.000000	95.515928
3341.000000	95.502514
3340.000000	95.491308
3339.000000	95.481445
3338.000000	95.471041
3337.000000	95.458506
3336.000000	95.443194
3335.000000	95.424822
3334.000000	95.403381
3333.000000	95.380334
3332.000000	95.359006
3331.000000	95.342537
3330.000000	95.331516
3329.000000	95.323926
3328.000000	95.316737
3327.000000	95.307077
3326.000000	95.293087
3325.000000	95.275158
3324.000000	95.256108
3323.000000	95.238967
3322.000000	95.224558
3321.000000	95.211950
3320.000000	95.200512
3319.000000	95.190260
3318.000000	95.180419
3317.000000	95.169146
3316.000000	95.155314
3315.000000	95.139920
3314.000000	95.125388
3313.000000	95.113692
3312.000000	95.104795
3311.000000	95.096336
3310.000000	95.085320
3309.000000	95.071007
3308.000000	95.055949
3307.000000	95.043317
3306.000000	95.033536
3305.000000	95.024370
3304.000000	95.013790
3303.000000	95.001781
3302.000000	94.989745
3301.000000	94.979428
3300.000000	94.972285
3299.000000	94.968406
3298.000000	94.965671
3297.000000	94.960962
3296.000000	94.952640
3295.000000	94.941379
3294.000000	94.928794
3293.000000	94.916306
3292.000000	94.905183
3291.000000	94.896301
3290.000000	94.889511
3289.000000	94.884085
3288.000000	94.879924
3287.000000	94.877446
3286.000000	94.876425
3285.000000	94.876163
3284.000000	94.876600
3283.000000	94.877936
3282.000000	94.879147
3281.000000	94.878694
3280.000000	94.877399
3279.000000	94.878600
3278.000000	94.884350
3277.000000	94.892740
3276.000000	94.900499
3275.000000	94.907390
3274.000000	94.915987
3273.000000	94.927509
3272.000000	94.939423
3271.000000	94.947547
3270.000000	94.949810
3269.000000	94.947961
3268.000000	94.946517
3267.000000	94.949875
3266.000000	94.959246
3265.000000	94.971824
3264.000000	94.983480
3263.000000	94.992615
3262.000000	95.001148
3261.000000	95.011801
3260.000000	95.025039
3259.000000	95.039075
3258.000000	95.052392
3257.000000	95.065490
3256.000000	95.079979
3255.000000	95.096473
3254.000000	95.113835
3253.000000	95.130466
3252.000000	95.145759
3251.000000	95.160151
3250.000000	95.174156
3249.000000	95.187764
3248.000000	95.200538
3247.000000	95.211678
3246.000000	95.220003
3245.000000	95.224458
3244.000000	95.225254
3243.000000	95.224554
3242.000000	95.225645
3241.000000	95.231034
3240.000000	95.241159
3239.000000	95.254979
3238.000000	95.271597
3237.000000	95.290502
3236.000000	95.309876
3235.000000	95.325983
3234.000000	95.336143
3233.000000	95.342189
3232.000000	95.349162
3231.000000	95.359681
3230.000000	95.371086
3229.000000	95.379057
3228.000000	95.382594
3227.000000	95.384161
3226.000000	95.386205
3225.000000	95.389705
3224.000000	95.395331
3223.000000	95.403707
3222.000000	95.414362
3221.000000	95.426200
3220.000000	95.439185
3219.000000	95.453721
3218.000000	95.467889
3217.000000	95.477520
3216.000000	95.480333
3215.000000	95.478931
3214.000000	95.478311
3213.000000	95.481033
3212.000000	95.485969
3211.000000	95.491038
3210.000000	95.495742
3209.000000	95.500794
3208.000000	95.506605
3207.000000	95.512930
3206.000000	95.519836
3205.000000	95.528251
3204.000000	95.539049
3203.000000	95.551528
3202.000000	95.563405
3201.000000	95.572714
3200.000000	95.579434
3199.000000	95.585009
3198.000000	95.590873
3197.000000	95.598103
3196.000000	95.607671
3195.000000	95.619693
3194.000000	95.632697
3193.000000	95.644936
3192.000000	95.656636
3191.000000	95.669779
3190.000000	95.685355
3189.000000	95.701878
3188.000000	95.716884
3187.000000	95.729081
3186.000000	95.738976
3185.000000	95.748669
3184.000000	95.761166
3183.000000	95.778260
3182.000000	95.798007
3181.000000	95.815448
3180.000000	95.827063
3179.000000	95.833962
3178.000000	95.840190
3177.000000	95.848640
3176.000000	95.859734
3175.000000	95.872981
3174.000000	95.887924
3173.000000	95.903371
3172.000000	95.917134
3171.000000	95.927421
3170.000000	95.934334
3169.000000	95.939994
3168.000000	95.947280
3167.000000	95.957977
3166.000000	95.971597
3165.000000	95.986037
3164.000000	95.999687
3163.000000	96.012498
3162.000000	96.024854
3161.000000	96.036350
3160.000000	96.046657
3159.000000	96.057010
3158.000000	96.069346
3157.000000	96.083716
3156.000000	96.097686
3155.000000	96.109103
3154.000000	96.118843
3153.000000	96.130008
3152.000000	96.144308
3151.000000	96.159808
3150.000000	96.172572
3149.000000	96.180540
3148.000000	96.185524
3147.000000	96.191466
3146.000000	96.200970
