PE IR       SUBTECH     SPECTRUM    ASCII       PEDS        4.00        
   -1
3C-YYX-F005_1.ASC
23/09/07
10:57:03.00
23/09/07
11:30:09.00
uco
Sample 005 By uco Date Thursday, September 07 2023
450.000000
#HDR
-1
-1
#GR
cm-1
%T
1.0
0.0
4000.000000
-1.000000
3551
8
98.750557
85.271891
#DATA
4000.000000	98.697379
3999.000000	98.695606
3998.000000	98.694192
3997.000000	98.693085
3996.000000	98.692979
3995.000000	98.692675
3994.000000	98.691322
3993.000000	98.689199
3992.000000	98.687011
3991.000000	98.684598
3990.000000	98.680867
3989.000000	98.675295
3988.000000	98.669189
3987.000000	98.664883
3986.000000	98.663664
3985.000000	98.664801
3984.000000	98.666760
3983.000000	98.668970
3982.000000	98.671858
3981.000000	98.675408
3980.000000	98.678361
3979.000000	98.679137
3978.000000	98.677250
3977.000000	98.673583
3976.000000	98.669545
3975.000000	98.666276
3974.000000	98.664402
3973.000000	98.663941
3972.000000	98.664161
3971.000000	98.663719
3970.000000	98.661472
3969.000000	98.657488
3968.000000	98.653436
3967.000000	98.651771
3966.000000	98.654129
3965.000000	98.660198
3964.000000	98.667714
3963.000000	98.673464
3962.000000	98.674864
3961.000000	98.671172
3960.000000	98.663786
3959.000000	98.655372
3958.000000	98.648253
3957.000000	98.643417
3956.000000	98.640799
3955.000000	98.640275
3954.000000	98.642057
3953.000000	98.646192
3952.000000	98.652038
3951.000000	98.658441
3950.000000	98.664353
3949.000000	98.669105
3948.000000	98.672058
3947.000000	98.672191
3946.000000	98.668689
3945.000000	98.662129
3944.000000	98.654936
3943.000000	98.650248
3942.000000	98.649692
3941.000000	98.652321
3940.000000	98.655856
3939.000000	98.658309
3938.000000	98.658325
3937.000000	98.654909
3936.000000	98.648089
3935.000000	98.640027
3934.000000	98.634732
3933.000000	98.636005
3932.000000	98.644587
3931.000000	98.657073
3930.000000	98.668009
3929.000000	98.673042
3928.000000	98.670684
3927.000000	98.662443
3926.000000	98.652225
3925.000000	98.644366
3924.000000	98.640900
3923.000000	98.641000
3922.000000	98.643088
3921.000000	98.646065
3920.000000	98.648510
3919.000000	98.648533
3918.000000	98.645905
3917.000000	98.643271
3916.000000	98.643620
3915.000000	98.646747
3914.000000	98.649553
3913.000000	98.649171
3912.000000	98.645318
3911.000000	98.640316
3910.000000	98.637241
3909.000000	98.637587
3908.000000	98.640546
3907.000000	98.644175
3906.000000	98.647211
3905.000000	98.650265
3904.000000	98.654936
3903.000000	98.661568
3902.000000	98.668421
3901.000000	98.673562
3900.000000	98.676519
3899.000000	98.677238
3898.000000	98.675154
3897.000000	98.669936
3896.000000	98.662462
3895.000000	98.654233
3894.000000	98.646612
3893.000000	98.641227
3892.000000	98.640645
3891.000000	98.645848
3890.000000	98.653115
3889.000000	98.657074
3888.000000	98.655876
3887.000000	98.652436
3886.000000	98.651274
3885.000000	98.653199
3884.000000	98.654535
3883.000000	98.652493
3882.000000	98.648625
3881.000000	98.646602
3880.000000	98.647709
3879.000000	98.648908
3878.000000	98.646755
3877.000000	98.641839
3876.000000	98.638406
3875.000000	98.640533
3874.000000	98.647456
3873.000000	98.653633
3872.000000	98.655428
3871.000000	98.656396
3870.000000	98.662731
3869.000000	98.673061
3868.000000	98.679091
3867.000000	98.676499
3866.000000	98.668720
3865.000000	98.661353
3864.000000	98.657413
3863.000000	98.656943
3862.000000	98.658716
3861.000000	98.661284
3860.000000	98.663966
3859.000000	98.667035
3858.000000	98.670898
3857.000000	98.674557
3856.000000	98.675284
3855.000000	98.671382
3854.000000	98.665998
3853.000000	98.665405
3852.000000	98.667885
3851.000000	98.667069
3850.000000	98.663370
3849.000000	98.660597
3848.000000	98.659906
3847.000000	98.659925
3846.000000	98.659436
3845.000000	98.658496
3844.000000	98.658207
3843.000000	98.659219
3842.000000	98.660877
3841.000000	98.662657
3840.000000	98.665541
3839.000000	98.670657
3838.000000	98.677250
3837.000000	98.682967
3836.000000	98.686206
3835.000000	98.686977
3834.000000	98.685702
3833.000000	98.682824
3832.000000	98.679125
3831.000000	98.675043
3830.000000	98.669976
3829.000000	98.662770
3828.000000	98.653876
3827.000000	98.646321
3826.000000	98.642804
3825.000000	98.642169
3824.000000	98.641126
3823.000000	98.639227
3822.000000	98.640808
3821.000000	98.649698
3820.000000	98.660753
3819.000000	98.664688
3818.000000	98.659949
3817.000000	98.653039
3816.000000	98.649974
3815.000000	98.648604
3814.000000	98.643232
3813.000000	98.634550
3812.000000	98.628601
3811.000000	98.629371
3810.000000	98.635483
3809.000000	98.643045
3808.000000	98.650178
3807.000000	98.657203
3806.000000	98.662998
3805.000000	98.664915
3804.000000	98.662810
3803.000000	98.660704
3802.000000	98.663724
3801.000000	98.670687
3800.000000	98.672868
3799.000000	98.665453
3798.000000	98.652778
3797.000000	98.642583
3796.000000	98.638583
3795.000000	98.638062
3794.000000	98.636464
3793.000000	98.632582
3792.000000	98.628477
3791.000000	98.626634
3790.000000	98.628329
3789.000000	98.633072
3788.000000	98.638713
3787.000000	98.642418
3786.000000	98.642702
3785.000000	98.640818
3784.000000	98.639551
3783.000000	98.640515
3782.000000	98.643388
3781.000000	98.646871
3780.000000	98.649604
3779.000000	98.650392
3778.000000	98.648356
3777.000000	98.643803
3776.000000	98.639123
3775.000000	98.637430
3774.000000	98.639521
3773.000000	98.642900
3772.000000	98.644619
3771.000000	98.644824
3770.000000	98.646556
3769.000000	98.651663
3768.000000	98.658403
3767.000000	98.663880
3766.000000	98.666944
3765.000000	98.667359
3764.000000	98.664187
3763.000000	98.656708
3762.000000	98.646679
3761.000000	98.637930
3760.000000	98.633778
3759.000000	98.635459
3758.000000	98.642183
3757.000000	98.651502
3756.000000	98.660243
3755.000000	98.666549
3754.000000	98.671131
3753.000000	98.676427
3752.000000	98.683823
3751.000000	98.691917
3750.000000	98.697367
3749.000000	98.697473
3748.000000	98.692395
3747.000000	98.684770
3746.000000	98.679660
3745.000000	98.682973
3744.000000	98.692471
3743.000000	98.696322
3742.000000	98.689292
3741.000000	98.677326
3740.000000	98.667798
3739.000000	98.663821
3738.000000	98.665667
3737.000000	98.672949
3736.000000	98.682532
3735.000000	98.687749
3734.000000	98.685341
3733.000000	98.680687
3732.000000	98.680971
3731.000000	98.686253
3730.000000	98.690730
3729.000000	98.690230
3728.000000	98.685842
3727.000000	98.681271
3726.000000	98.677926
3725.000000	98.674211
3724.000000	98.669384
3723.000000	98.665405
3722.000000	98.664464
3721.000000	98.666486
3720.000000	98.669604
3719.000000	98.672524
3718.000000	98.675727
3717.000000	98.680117
3716.000000	98.685963
3715.000000	98.693509
3714.000000	98.702805
3713.000000	98.711862
3712.000000	98.715840
3711.000000	98.710570
3710.000000	98.696930
3709.000000	98.680517
3708.000000	98.667621
3707.000000	98.661656
3706.000000	98.662221
3705.000000	98.666683
3704.000000	98.672068
3703.000000	98.676427
3702.000000	98.679369
3701.000000	98.681413
3700.000000	98.682253
3699.000000	98.680977
3698.000000	98.677960
3697.000000	98.674491
3696.000000	98.670483
3695.000000	98.664378
3694.000000	98.656268
3693.000000	98.649584
3692.000000	98.649160
3691.000000	98.657416
3690.000000	98.671725
3689.000000	98.685013
3688.000000	98.690121
3687.000000	98.684785
3686.000000	98.672429
3685.000000	98.658771
3684.000000	98.647942
3683.000000	98.640596
3682.000000	98.634964
3681.000000	98.630325
3680.000000	98.627860
3679.000000	98.627952
3678.000000	98.628973
3677.000000	98.630430
3676.000000	98.634377
3675.000000	98.639780
3674.000000	98.639677
3673.000000	98.630271
3672.000000	98.615628
3671.000000	98.602937
3670.000000	98.596082
3669.000000	98.592393
3668.000000	98.587134
3667.000000	98.579773
3666.000000	98.572854
3665.000000	98.567991
3664.000000	98.564706
3663.000000	98.562065
3662.000000	98.560397
3661.000000	98.561106
3660.000000	98.564683
3659.000000	98.569381
3658.000000	98.572195
3657.000000	98.571963
3656.000000	98.571029
3655.000000	98.572389
3654.000000	98.576304
3653.000000	98.580865
3652.000000	98.582892
3651.000000	98.577139
3650.000000	98.559236
3649.000000	98.533821
3648.000000	98.512564
3647.000000	98.500562
3646.000000	98.493888
3645.000000	98.487534
3644.000000	98.480174
3643.000000	98.473609
3642.000000	98.469520
3641.000000	98.467134
3640.000000	98.464416
3639.000000	98.460797
3638.000000	98.457140
3637.000000	98.453869
3636.000000	98.450821
3635.000000	98.448737
3634.000000	98.448655
3633.000000	98.449527
3632.000000	98.448278
3631.000000	98.442719
3630.000000	98.434370
3629.000000	98.427716
3628.000000	98.423827
3627.000000	98.418016
3626.000000	98.408210
3625.000000	98.397330
3624.000000	98.388400
3623.000000	98.381589
3622.000000	98.375304
3621.000000	98.368447
3620.000000	98.361100
3619.000000	98.354122
3618.000000	98.348377
3617.000000	98.344031
3616.000000	98.340617
3615.000000	98.336790
3614.000000	98.330108
3613.000000	98.318582
3612.000000	98.302962
3611.000000	98.286043
3610.000000	98.270254
3609.000000	98.256999
3608.000000	98.247120
3607.000000	98.240507
3606.000000	98.235373
3605.000000	98.229270
3604.000000	98.220834
3603.000000	98.210555
3602.000000	98.200671
3601.000000	98.194017
3600.000000	98.191384
3599.000000	98.190086
3598.000000	98.185419
3597.000000	98.173653
3596.000000	98.154780
3595.000000	98.133319
3594.000000	98.115299
3593.000000	98.103517
3592.000000	98.096215
3591.000000	98.089927
3590.000000	98.082467
3589.000000	98.073898
3588.000000	98.066119
3587.000000	98.061182
3586.000000	98.058585
3585.000000	98.055495
3584.000000	98.049383
3583.000000	98.039135
3582.000000	98.025069
3581.000000	98.009155
3580.000000	97.994386
3579.000000	97.983104
3578.000000	97.975767
3577.000000	97.971149
3576.000000	97.967156
3575.000000	97.961357
3574.000000	97.951681
3573.000000	97.937887
3572.000000	97.922573
3571.000000	97.909717
3570.000000	97.901795
3569.000000	97.897861
3568.000000	97.893726
3567.000000	97.884962
3566.000000	97.870474
3565.000000	97.852249
3564.000000	97.833035
3563.000000	97.815242
3562.000000	97.800383
3561.000000	97.788196
3560.000000	97.776491
3559.000000	97.762945
3558.000000	97.747702
3557.000000	97.733462
3556.000000	97.722405
3555.000000	97.713449
3554.000000	97.703206
3553.000000	97.689852
3552.000000	97.675387
3551.000000	97.663220
3550.000000	97.654523
3549.000000	97.648240
3548.000000	97.643285
3547.000000	97.639336
3546.000000	97.635763
3545.000000	97.630664
3544.000000	97.621588
3543.000000	97.607130
3542.000000	97.587843
3541.000000	97.566250
3540.000000	97.545793
3539.000000	97.528855
3538.000000	97.515197
3537.000000	97.502705
3536.000000	97.489933
3535.000000	97.477432
3534.000000	97.466333
3533.000000	97.456688
3532.000000	97.447850
3531.000000	97.439779
3530.000000	97.433175
3529.000000	97.428276
3528.000000	97.424104
3527.000000	97.419082
3526.000000	97.412066
3525.000000	97.402539
3524.000000	97.390377
3523.000000	97.376147
3522.000000	97.361441
3521.000000	97.348155
3520.000000	97.337099
3519.000000	97.327260
3518.000000	97.316452
3517.000000	97.302872
3516.000000	97.286440
3515.000000	97.268851
3514.000000	97.252395
3513.000000	97.238591
3512.000000	97.227667
3511.000000	97.218967
3510.000000	97.211636
3509.000000	97.204961
3508.000000	97.198311
3507.000000	97.191138
3506.000000	97.183236
3505.000000	97.174699
3504.000000	97.165573
3503.000000	97.155903
3502.000000	97.146271
3501.000000	97.137695
3500.000000	97.130460
3499.000000	97.123472
3498.000000	97.115377
3497.000000	97.106102
3496.000000	97.096415
3495.000000	97.085926
3494.000000	97.072818
3493.000000	97.056381
3492.000000	97.038947
3491.000000	97.024332
3490.000000	97.014637
3489.000000	97.008944
3488.000000	97.004487
3487.000000	96.998266
3486.000000	96.988137
3485.000000	96.973767
3484.000000	96.957235
3483.000000	96.942221
3482.000000	96.931684
3481.000000	96.925782
3480.000000	96.922087
3479.000000	96.917735
3478.000000	96.911441
3477.000000	96.903757
3476.000000	96.895835
3475.000000	96.888075
3474.000000	96.879996
3473.000000	96.871109
3472.000000	96.861363
3471.000000	96.850721
3470.000000	96.839070
3469.000000	96.827047
3468.000000	96.816265
3467.000000	96.808004
3466.000000	96.802028
3465.000000	96.797373
3464.000000	96.793753
3463.000000	96.791219
3462.000000	96.788665
3461.000000	96.783710
3460.000000	96.774406
3459.000000	96.760596
3458.000000	96.743731
3457.000000	96.726181
3456.000000	96.710858
3455.000000	96.700375
3454.000000	96.695624
3453.000000	96.695097
3452.000000	96.695801
3451.000000	96.695153
3450.000000	96.692410
3449.000000	96.688454
3448.000000	96.684075
3447.000000	96.678359
3446.000000	96.669268
3445.000000	96.656067
3444.000000	96.640536
3443.000000	96.625691
3442.000000	96.614000
3441.000000	96.606833
3440.000000	96.604325
3439.000000	96.604620
3438.000000	96.603903
3437.000000	96.598872
3436.000000	96.589694
3435.000000	96.579705
3434.000000	96.572081
3433.000000	96.567304
3432.000000	96.563597
3431.000000	96.558708
3430.000000	96.551106
3429.000000	96.540529
3428.000000	96.528233
3427.000000	96.516301
3426.000000	96.506228
3425.000000	96.498034
3424.000000	96.490571
3423.000000	96.482364
3422.000000	96.472419
3421.000000	96.461011
3420.000000	96.449825
3419.000000	96.440579
3418.000000	96.433184
3417.000000	96.425763
3416.000000	96.416673
3415.000000	96.406323
3414.000000	96.396958
3413.000000	96.390637
3412.000000	96.387175
3411.000000	96.383733
3410.000000	96.376872
3409.000000	96.365831
3408.000000	96.353810
3407.000000	96.345133
3406.000000	96.340801
3405.000000	96.337287
3404.000000	96.330008
3403.000000	96.317696
3402.000000	96.303303
3401.000000	96.291187
3400.000000	96.283757
3399.000000	96.280122
3398.000000	96.277019
3397.000000	96.270985
3396.000000	96.260374
3395.000000	96.246001
3394.000000	96.230328
3393.000000	96.216207
3392.000000	96.205821
3391.000000	96.199862
3390.000000	96.197176
3389.000000	96.195307
3388.000000	96.191718
3387.000000	96.184998
3386.000000	96.175448
3385.000000	96.164710
3384.000000	96.154398
3383.000000	96.144608
3382.000000	96.133878
3381.000000	96.121005
3380.000000	96.106811
3379.000000	96.093611
3378.000000	96.082942
3377.000000	96.074280
3376.000000	96.066025
3375.000000	96.057146
3374.000000	96.047559
3373.000000	96.037383
3372.000000	96.026482
3371.000000	96.014799
3370.000000	96.002782
3369.000000	95.991195
3368.000000	95.980348
3367.000000	95.969503
3366.000000	95.957286
3365.000000	95.943040
3364.000000	95.927715
3363.000000	95.913089
3362.000000	95.899978
3361.000000	95.887311
3360.000000	95.873054
3359.000000	95.855935
3358.000000	95.836302
3357.000000	95.815554
3356.000000	95.795077
3355.000000	95.775935
3354.000000	95.759255
3353.000000	95.746076
3352.000000	95.736096
3351.000000	95.726885
3350.000000	95.715388
3349.000000	95.700726
3348.000000	95.685034
3347.000000	95.671083
3346.000000	95.659328
3345.000000	95.647457
3344.000000	95.632397
3343.000000	95.612602
3342.000000	95.589113
3341.000000	95.565109
3340.000000	95.544119
3339.000000	95.527854
3338.000000	95.515427
3337.000000	95.504549
3336.000000	95.493161
3335.000000	95.479984
3334.000000	95.464539
3333.000000	95.447573
3332.000000	95.431082
3331.000000	95.416964
3330.000000	95.405470
3329.000000	95.395167
3328.000000	95.384131
3327.000000	95.370833
3326.000000	95.354588
3325.000000	95.336094
3324.000000	95.317452
3323.000000	95.300805
3322.000000	95.286767
3321.000000	95.274606
3320.000000	95.263602
3319.000000	95.253498
3318.000000	95.243815
3317.000000	95.233668
3316.000000	95.222693
3315.000000	95.211687
3314.000000	95.202039
3313.000000	95.194596
3312.000000	95.188739
3311.000000	95.182086
3310.000000	95.171592
3309.000000	95.156074
3308.000000	95.137991
3307.000000	95.121884
3306.000000	95.110435
3305.000000	95.102229
3304.000000	95.093424
3303.000000	95.081399
3302.000000	95.066987
3301.000000	95.053726
3300.000000	95.045077
3299.000000	95.041826
3298.000000	95.041602
3297.000000	95.040611
3296.000000	95.035870
3295.000000	95.026341
3294.000000	95.013047
3293.000000	94.998905
3292.000000	94.987652
3291.000000	94.981435
3290.000000	94.979081
3289.000000	94.977304
3288.000000	94.973797
3287.000000	94.968761
3286.000000	94.963687
3285.000000	94.959621
3284.000000	94.956632
3283.000000	94.954048
3282.000000	94.950844
3281.000000	94.946651
3280.000000	94.943151
3279.000000	94.943709
3278.000000	94.950677
3277.000000	94.963010
3276.000000	94.977216
3275.000000	94.990794
3274.000000	95.003826
3273.000000	95.016947
3272.000000	95.028684
3271.000000	95.035969
3270.000000	95.037561
3269.000000	95.036138
3268.000000	95.036355
3267.000000	95.041146
3266.000000	95.050258
3265.000000	95.061954
3264.000000	95.075008
3263.000000	95.088671
3262.000000	95.101742
3261.000000	95.112851
3260.000000	95.121873
3259.000000	95.130532
3258.000000	95.141366
3257.000000	95.156056
3256.000000	95.174234
3255.000000	95.193428
3254.000000	95.210441
3253.000000	95.223481
3252.000000	95.233260
3251.000000	95.242034
3250.000000	95.251677
3249.000000	95.262705
3248.000000	95.274666
3247.000000	95.286709
3246.000000	95.297735
3245.000000	95.306624
3244.000000	95.313002
3243.000000	95.317940
3242.000000	95.323575
3241.000000	95.331691
3240.000000	95.342498
3239.000000	95.354898
3238.000000	95.367910
3237.000000	95.381449
3236.000000	95.395463
3235.000000	95.408823
3234.000000	95.419880
3233.000000	95.428046
3232.000000	95.434227
3231.000000	95.439737
3230.000000	95.445346
3229.000000	95.451328
3228.000000	95.457614
3227.000000	95.463713
3226.000000	95.469222
3225.000000	95.474594
3224.000000	95.480788
3223.000000	95.488217
3222.000000	95.497033
3221.000000	95.508340
3220.000000	95.523422
3219.000000	95.540775
3218.000000	95.555460
3217.000000	95.563224
3216.000000	95.564812
3215.000000	95.564983
3214.000000	95.567201
3213.000000	95.570550
3212.000000	95.572051
3211.000000	95.571077
3210.000000	95.570868
3209.000000	95.575713
3208.000000	95.586925
3207.000000	95.601655
3206.000000	95.615819
3205.000000	95.627634
3204.000000	95.637661
3203.000000	95.646083
3202.000000	95.651801
3201.000000	95.654853
3200.000000	95.657999
3199.000000	95.664417
3198.000000	95.674553
3197.000000	95.686318
3196.000000	95.697423
3195.000000	95.706341
3194.000000	95.712228
3193.000000	95.716055
3192.000000	95.721431
3191.000000	95.731999
3190.000000	95.747535
3189.000000	95.763950
3188.000000	95.777430
3187.000000	95.787465
3186.000000	95.796082
3185.000000	95.805887
3184.000000	95.819041
3183.000000	95.836165
3182.000000	95.855060
3181.000000	95.871681
3180.000000	95.883502
3179.000000	95.891516
3178.000000	95.898666
3177.000000	95.907153
3176.000000	95.917839
3175.000000	95.930996
3174.000000	95.946390
3173.000000	95.962903
3172.000000	95.978849
3171.000000	95.992608
3170.000000	96.002866
3169.000000	96.009220
3168.000000	96.013309
3167.000000	96.018561
3166.000000	96.027729
3165.000000	96.040615
3164.000000	96.054783
3163.000000	96.068263
3162.000000	96.081065
3161.000000	96.094305
3160.000000	96.108554
3159.000000	96.123155
3158.000000	96.136692
3157.000000	96.147918
3156.000000	96.156559
3155.000000	96.163704
3154.000000	96.171661
3153.000000	96.183087
3152.000000	96.199207
3151.000000	96.218163
3150.000000	96.235571
3149.000000	96.247857
3148.000000	96.255294
3147.000000	96.261354
3146.000000	96.269135
