PE IR       SUBTECH     SPECTRUM    ASCII       PEDS        4.00        
   -1
3C-XXX-F009_1.ASC
23/09/07
10:43:39.00
23/09/07
11:30:09.00
uco
Sample 009 By uco Date Thursday, September 07 2023
450.000000
#HDR
-1
-1
#GR
cm-1
%T
1.0
0.0
4000.000000
-1.000000
3551
8
98.830022
88.043740
#DATA
4000.000000	98.774787
3999.000000	98.775447
3998.000000	98.773595
3997.000000	98.769775
3996.000000	98.765284
3995.000000	98.761807
3994.000000	98.761327
3993.000000	98.761779
3992.000000	98.762708
3991.000000	98.762553
3990.000000	98.760687
3989.000000	98.757780
3988.000000	98.755290
3987.000000	98.754388
3986.000000	98.755199
3985.000000	98.756998
3984.000000	98.759097
3983.000000	98.761411
3982.000000	98.763965
3981.000000	98.766048
3980.000000	98.766292
3979.000000	98.763762
3978.000000	98.758793
3977.000000	98.752747
3976.000000	98.747241
3975.000000	98.743662
3974.000000	98.742890
3973.000000	98.744718
3972.000000	98.747424
3971.000000	98.748443
3970.000000	98.746210
3969.000000	98.741613
3968.000000	98.737525
3967.000000	98.736618
3966.000000	98.739307
3965.000000	98.743727
3964.000000	98.747502
3963.000000	98.749371
3962.000000	98.749235
3961.000000	98.746901
3960.000000	98.741539
3959.000000	98.732787
3958.000000	98.722046
3957.000000	98.712266
3956.000000	98.706039
3955.000000	98.704019
3954.000000	98.704993
3953.000000	98.707291
3952.000000	98.710096
3951.000000	98.713620
3950.000000	98.718445
3949.000000	98.724654
3948.000000	98.731201
3947.000000	98.735889
3946.000000	98.736412
3945.000000	98.731972
3944.000000	98.724469
3943.000000	98.718166
3942.000000	98.717129
3941.000000	98.722323
3940.000000	98.731217
3939.000000	98.739816
3938.000000	98.744800
3937.000000	98.744519
3936.000000	98.739487
3935.000000	98.732559
3934.000000	98.728077
3933.000000	98.729638
3932.000000	98.737074
3931.000000	98.745595
3930.000000	98.749275
3929.000000	98.745549
3928.000000	98.736437
3927.000000	98.726738
3926.000000	98.720984
3925.000000	98.720616
3924.000000	98.723106
3923.000000	98.724367
3922.000000	98.722196
3921.000000	98.716957
3920.000000	98.710192
3919.000000	98.703912
3918.000000	98.701017
3917.000000	98.704413
3916.000000	98.714167
3915.000000	98.726209
3914.000000	98.734882
3913.000000	98.736740
3912.000000	98.732390
3911.000000	98.725674
3910.000000	98.720771
3909.000000	98.719157
3908.000000	98.718867
3907.000000	98.716758
3906.000000	98.711968
3905.000000	98.707754
3904.000000	98.708966
3903.000000	98.716497
3902.000000	98.725624
3901.000000	98.731004
3900.000000	98.731654
3899.000000	98.730346
3898.000000	98.730071
3897.000000	98.731899
3896.000000	98.735341
3895.000000	98.738932
3894.000000	98.740572
3893.000000	98.738896
3892.000000	98.735422
3891.000000	98.733683
3890.000000	98.734517
3889.000000	98.734698
3888.000000	98.730993
3887.000000	98.724318
3886.000000	98.719526
3885.000000	98.719913
3884.000000	98.723124
3883.000000	98.724368
3882.000000	98.721646
3881.000000	98.717121
3880.000000	98.714439
3879.000000	98.714540
3878.000000	98.715091
3877.000000	98.714161
3876.000000	98.713171
3875.000000	98.715956
3874.000000	98.723864
3873.000000	98.732720
3872.000000	98.736973
3871.000000	98.736332
3870.000000	98.736004
3869.000000	98.739137
3868.000000	98.742540
3867.000000	98.742131
3866.000000	98.738398
3865.000000	98.735004
3864.000000	98.734594
3863.000000	98.736249
3862.000000	98.737326
3861.000000	98.736718
3860.000000	98.735576
3859.000000	98.735462
3858.000000	98.736118
3857.000000	98.734862
3856.000000	98.728567
3855.000000	98.718230
3854.000000	98.711686
3853.000000	98.715221
3852.000000	98.722376
3851.000000	98.724521
3850.000000	98.722043
3849.000000	98.719684
3848.000000	98.720414
3847.000000	98.724068
3846.000000	98.728379
3845.000000	98.730826
3844.000000	98.730547
3843.000000	98.728629
3842.000000	98.726920
3841.000000	98.727072
3840.000000	98.730086
3839.000000	98.735838
3838.000000	98.742582
3837.000000	98.747604
3836.000000	98.749222
3835.000000	98.747452
3834.000000	98.743230
3833.000000	98.737896
3832.000000	98.732825
3831.000000	98.728535
3830.000000	98.724375
3829.000000	98.719209
3828.000000	98.713132
3827.000000	98.708157
3826.000000	98.706217
3825.000000	98.706789
3824.000000	98.707565
3823.000000	98.707473
3822.000000	98.708372
3821.000000	98.712599
3820.000000	98.718562
3819.000000	98.722501
3818.000000	98.723632
3817.000000	98.725024
3816.000000	98.729193
3815.000000	98.732976
3814.000000	98.731178
3813.000000	98.724161
3812.000000	98.717254
3811.000000	98.715030
3810.000000	98.717277
3809.000000	98.720068
3808.000000	98.720843
3807.000000	98.721469
3806.000000	98.724857
3805.000000	98.729981
3804.000000	98.733102
3803.000000	98.732595
3802.000000	98.730915
3801.000000	98.730702
3800.000000	98.729966
3799.000000	98.725569
3798.000000	98.718163
3797.000000	98.711694
3796.000000	98.709122
3795.000000	98.709196
3794.000000	98.708585
3793.000000	98.705899
3792.000000	98.702465
3791.000000	98.700238
3790.000000	98.699925
3789.000000	98.700655
3788.000000	98.701181
3787.000000	98.701252
3786.000000	98.702183
3785.000000	98.705720
3784.000000	98.711953
3783.000000	98.718669
3782.000000	98.722958
3781.000000	98.722992
3780.000000	98.719030
3779.000000	98.713482
3778.000000	98.709340
3777.000000	98.708265
3776.000000	98.710448
3775.000000	98.715158
3774.000000	98.720487
3773.000000	98.723714
3772.000000	98.723337
3771.000000	98.720897
3770.000000	98.719901
3769.000000	98.722387
3768.000000	98.727325
3767.000000	98.732626
3766.000000	98.736811
3765.000000	98.738031
3764.000000	98.733890
3763.000000	98.723805
3762.000000	98.711007
3761.000000	98.700969
3760.000000	98.697052
3759.000000	98.698349
3758.000000	98.702244
3757.000000	98.707961
3756.000000	98.715794
3755.000000	98.725237
3754.000000	98.735289
3753.000000	98.745192
3752.000000	98.753696
3751.000000	98.758863
3750.000000	98.759918
3749.000000	98.758225
3748.000000	98.755121
3747.000000	98.750726
3746.000000	98.746502
3745.000000	98.746592
3744.000000	98.751620
3743.000000	98.755185
3742.000000	98.753679
3741.000000	98.750336
3740.000000	98.749942
3739.000000	98.754935
3738.000000	98.764979
3737.000000	98.777764
3736.000000	98.788240
3735.000000	98.789946
3734.000000	98.782169
3733.000000	98.772223
3732.000000	98.767669
3731.000000	98.768949
3730.000000	98.770569
3729.000000	98.767804
3728.000000	98.760806
3727.000000	98.753459
3726.000000	98.748953
3725.000000	98.747099
3724.000000	98.746091
3723.000000	98.745003
3722.000000	98.744369
3721.000000	98.745352
3720.000000	98.748387
3719.000000	98.752639
3718.000000	98.756631
3717.000000	98.759330
3716.000000	98.760940
3715.000000	98.762577
3714.000000	98.764907
3713.000000	98.766987
3712.000000	98.766784
3711.000000	98.763626
3710.000000	98.759072
3709.000000	98.755517
3708.000000	98.754754
3707.000000	98.757160
3706.000000	98.761537
3705.000000	98.765533
3704.000000	98.766584
3703.000000	98.763120
3702.000000	98.756371
3701.000000	98.750571
3700.000000	98.749258
3699.000000	98.751980
3698.000000	98.755798
3697.000000	98.758134
3696.000000	98.757847
3695.000000	98.755130
3694.000000	98.751594
3693.000000	98.750175
3692.000000	98.753825
3691.000000	98.763274
3690.000000	98.774943
3689.000000	98.782609
3688.000000	98.782632
3687.000000	98.776421
3686.000000	98.767317
3685.000000	98.757886
3684.000000	98.749749
3683.000000	98.743762
3682.000000	98.740067
3681.000000	98.738689
3680.000000	98.739098
3679.000000	98.738448
3678.000000	98.732418
3677.000000	98.719887
3676.000000	98.707208
3675.000000	98.702723
3674.000000	98.705579
3673.000000	98.709323
3672.000000	98.711746
3671.000000	98.714878
3670.000000	98.718065
3669.000000	98.715654
3668.000000	98.705142
3667.000000	98.691220
3666.000000	98.679861
3665.000000	98.673437
3664.000000	98.670307
3663.000000	98.667581
3662.000000	98.664170
3661.000000	98.661443
3660.000000	98.660990
3659.000000	98.662428
3658.000000	98.663793
3657.000000	98.664108
3656.000000	98.665043
3655.000000	98.668754
3654.000000	98.674593
3653.000000	98.679096
3652.000000	98.678052
3651.000000	98.668503
3650.000000	98.652015
3649.000000	98.636361
3648.000000	98.627821
3647.000000	98.623755
3646.000000	98.618107
3645.000000	98.608340
3644.000000	98.596012
3643.000000	98.584861
3642.000000	98.578059
3641.000000	98.576207
3640.000000	98.577562
3639.000000	98.579668
3638.000000	98.580028
3637.000000	98.576490
3636.000000	98.569092
3635.000000	98.561468
3634.000000	98.558444
3633.000000	98.560881
3632.000000	98.564172
3631.000000	98.561748
3630.000000	98.549733
3629.000000	98.530508
3628.000000	98.512094
3627.000000	98.500239
3626.000000	98.494264
3625.000000	98.490837
3624.000000	98.486738
3623.000000	98.479627
3622.000000	98.469197
3621.000000	98.457663
3620.000000	98.447800
3619.000000	98.440112
3618.000000	98.432971
3617.000000	98.425553
3616.000000	98.418801
3615.000000	98.413539
3614.000000	98.408816
3613.000000	98.402487
3612.000000	98.393759
3611.000000	98.384031
3610.000000	98.375004
3609.000000	98.367164
3608.000000	98.359863
3607.000000	98.352449
3606.000000	98.344886
3605.000000	98.337418
3604.000000	98.330225
3603.000000	98.323207
3602.000000	98.316167
3601.000000	98.309115
3600.000000	98.301905
3599.000000	98.293793
3598.000000	98.283565
3597.000000	98.270629
3596.000000	98.256409
3595.000000	98.243973
3594.000000	98.235249
3593.000000	98.228928
3592.000000	98.221868
3591.000000	98.212187
3590.000000	98.200382
3589.000000	98.188353
3588.000000	98.177420
3587.000000	98.167288
3586.000000	98.157050
3585.000000	98.146632
3584.000000	98.136786
3583.000000	98.128032
3582.000000	98.119773
3581.000000	98.110327
3580.000000	98.098433
3579.000000	98.084919
3578.000000	98.072371
3577.000000	98.062627
3576.000000	98.054758
3575.000000	98.045766
3574.000000	98.033091
3573.000000	98.016655
3572.000000	97.998584
3571.000000	97.981527
3570.000000	97.967504
3569.000000	97.957804
3568.000000	97.952431
3567.000000	97.949013
3566.000000	97.943480
3565.000000	97.932635
3564.000000	97.915701
3563.000000	97.894131
3562.000000	97.871146
3561.000000	97.850626
3560.000000	97.835091
3559.000000	97.824286
3558.000000	97.816101
3557.000000	97.808410
3556.000000	97.799562
3555.000000	97.787911
3554.000000	97.772267
3553.000000	97.753444
3552.000000	97.734531
3551.000000	97.718569
3550.000000	97.706415
3549.000000	97.697404
3548.000000	97.690758
3547.000000	97.685508
3546.000000	97.679999
3545.000000	97.672718
3544.000000	97.663277
3543.000000	97.651733
3542.000000	97.637749
3541.000000	97.621447
3540.000000	97.604353
3539.000000	97.588522
3538.000000	97.574586
3537.000000	97.561407
3536.000000	97.547804
3535.000000	97.533898
3534.000000	97.520471
3533.000000	97.507978
3532.000000	97.496732
3531.000000	97.487256
3530.000000	97.479803
3529.000000	97.473773
3528.000000	97.468103
3527.000000	97.462065
3526.000000	97.455357
3525.000000	97.447540
3524.000000	97.437721
3523.000000	97.424953
3522.000000	97.409016
3521.000000	97.390929
3520.000000	97.372597
3519.000000	97.355527
3518.000000	97.339613
3517.000000	97.323469
3516.000000	97.306477
3515.000000	97.290111
3514.000000	97.276771
3513.000000	97.267506
3512.000000	97.261370
3511.000000	97.256686
3510.000000	97.252296
3509.000000	97.247650
3508.000000	97.242473
3507.000000	97.236826
3506.000000	97.230962
3505.000000	97.224414
3504.000000	97.215324
3503.000000	97.201715
3502.000000	97.184120
3501.000000	97.166072
3500.000000	97.151235
3499.000000	97.140447
3498.000000	97.131724
3497.000000	97.122467
3496.000000	97.111312
3495.000000	97.098164
3494.000000	97.083508
3493.000000	97.068410
3492.000000	97.054674
3491.000000	97.043983
3490.000000	97.036651
3489.000000	97.031459
3488.000000	97.026677
3487.000000	97.020866
3486.000000	97.012814
3485.000000	97.001473
3484.000000	96.986665
3483.000000	96.970010
3482.000000	96.954777
3481.000000	96.944105
3480.000000	96.938892
3479.000000	96.937222
3478.000000	96.935787
3477.000000	96.931851
3476.000000	96.924495
3475.000000	96.914822
3474.000000	96.905070
3473.000000	96.896643
3472.000000	96.888333
3471.000000	96.876858
3470.000000	96.860231
3469.000000	96.840794
3468.000000	96.824041
3467.000000	96.813758
3466.000000	96.808822
3465.000000	96.805332
3464.000000	96.800913
3463.000000	96.795990
3462.000000	96.791415
3461.000000	96.786369
3460.000000	96.779001
3459.000000	96.768311
3458.000000	96.754861
3457.000000	96.740258
3456.000000	96.726535
3455.000000	96.715601
3454.000000	96.708454
3453.000000	96.704449
3452.000000	96.701476
3451.000000	96.697354
3450.000000	96.691510
3449.000000	96.685186
3448.000000	96.679776
3447.000000	96.674898
3446.000000	96.668487
3445.000000	96.658759
3444.000000	96.645542
3443.000000	96.630152
3442.000000	96.615067
3441.000000	96.603567
3440.000000	96.598133
3439.000000	96.598218
3438.000000	96.599923
3437.000000	96.598633
3436.000000	96.592108
3435.000000	96.581191
3434.000000	96.568596
3433.000000	96.557540
3432.000000	96.550319
3431.000000	96.546534
3430.000000	96.542707
3429.000000	96.534843
3428.000000	96.521953
3427.000000	96.506687
3426.000000	96.492721
3425.000000	96.481971
3424.000000	96.473941
3423.000000	96.466679
3422.000000	96.458011
3421.000000	96.446732
3420.000000	96.433480
3419.000000	96.420399
3418.000000	96.409483
3417.000000	96.401008
3416.000000	96.393376
3415.000000	96.384582
3414.000000	96.374192
3413.000000	96.363839
3412.000000	96.355272
3411.000000	96.348005
3410.000000	96.339723
3409.000000	96.329272
3408.000000	96.318241
3407.000000	96.308791
3406.000000	96.300699
3405.000000	96.291662
3404.000000	96.280378
3403.000000	96.268405
3402.000000	96.258744
3401.000000	96.253045
3400.000000	96.250051
3399.000000	96.246106
3398.000000	96.237325
3397.000000	96.222322
3396.000000	96.203464
3395.000000	96.185309
3394.000000	96.171403
3393.000000	96.162166
3392.000000	96.155283
3391.000000	96.147935
3390.000000	96.139020
3389.000000	96.129647
3388.000000	96.121644
3387.000000	96.115574
3386.000000	96.110221
3385.000000	96.103744
3384.000000	96.094928
3383.000000	96.083451
3382.000000	96.069965
3381.000000	96.056265
3380.000000	96.044365
3379.000000	96.034355
3378.000000	96.023708
3377.000000	96.009745
3376.000000	95.992685
3375.000000	95.975593
3374.000000	95.961501
3373.000000	95.951216
3372.000000	95.943563
3371.000000	95.936628
3370.000000	95.928432
3369.000000	95.917380
3368.000000	95.902990
3367.000000	95.886285
3366.000000	95.869266
3365.000000	95.853858
3364.000000	95.840995
3363.000000	95.830172
3362.000000	95.819676
3361.000000	95.807599
3360.000000	95.793058
3359.000000	95.776670
3358.000000	95.759879
3357.000000	95.743679
3356.000000	95.727804
3355.000000	95.711251
3354.000000	95.693669
3353.000000	95.675945
3352.000000	95.659144
3351.000000	95.643358
3350.000000	95.628235
3349.000000	95.614050
3348.000000	95.601144
3347.000000	95.588442
3346.000000	95.573790
3345.000000	95.556055
3344.000000	95.536022
3343.000000	95.515193
3342.000000	95.494929
3341.000000	95.476899
3340.000000	95.462471
3339.000000	95.450694
3338.000000	95.438201
3337.000000	95.422436
3336.000000	95.404258
3335.000000	95.386474
3334.000000	95.370661
3333.000000	95.356375
3332.000000	95.342428
3331.000000	95.327634
3330.000000	95.311227
3329.000000	95.293776
3328.000000	95.276966
3327.000000	95.261361
3326.000000	95.245297
3325.000000	95.227293
3324.000000	95.208672
3323.000000	95.192109
3322.000000	95.178258
3321.000000	95.165682
3320.000000	95.153426
3319.000000	95.141663
3318.000000	95.130003
3317.000000	95.117203
3316.000000	95.103119
3315.000000	95.089310
3314.000000	95.076990
3313.000000	95.065548
3312.000000	95.053542
3311.000000	95.040192
3310.000000	95.025645
3309.000000	95.010714
3308.000000	94.996684
3307.000000	94.984467
3306.000000	94.973576
3305.000000	94.962472
3304.000000	94.949870
3303.000000	94.935303
3302.000000	94.919069
3301.000000	94.902798
3300.000000	94.889592
3299.000000	94.881766
3298.000000	94.878116
3297.000000	94.874638
3296.000000	94.868304
3295.000000	94.859302
3294.000000	94.849589
3293.000000	94.840768
3292.000000	94.833653
3291.000000	94.828339
3290.000000	94.823992
3289.000000	94.819468
3288.000000	94.814656
3287.000000	94.810409
3286.000000	94.807052
3285.000000	94.804166
3284.000000	94.801805
3283.000000	94.800392
3282.000000	94.798977
3281.000000	94.795569
3280.000000	94.790645
3279.000000	94.788628
3278.000000	94.794052
3277.000000	94.806619
3276.000000	94.821460
3275.000000	94.834239
3274.000000	94.844443
3273.000000	94.853777
3272.000000	94.862840
3271.000000	94.870136
3270.000000	94.873840
3269.000000	94.873936
3268.000000	94.872751
3267.000000	94.873543
3266.000000	94.878299
3265.000000	94.886632
3264.000000	94.896715
3263.000000	94.906996
3262.000000	94.916898
3261.000000	94.926369
3260.000000	94.935411
3259.000000	94.944140
3258.000000	94.952997
3257.000000	94.962664
3256.000000	94.973778
3255.000000	94.986790
3254.000000	95.002036
3253.000000	95.019642
3252.000000	95.038975
3251.000000	95.058110
3250.000000	95.074432
3249.000000	95.086564
3248.000000	95.095737
3247.000000	95.104720
3246.000000	95.115070
3245.000000	95.125471
3244.000000	95.133031
3243.000000	95.136197
3242.000000	95.136337
3241.000000	95.136735
3240.000000	95.140130
3239.000000	95.147244
3238.000000	95.157514
3237.000000	95.170697
3236.000000	95.186990
3235.000000	95.205644
3234.000000	95.224476
3233.000000	95.241214
3232.000000	95.254603
3231.000000	95.263725
3230.000000	95.267364
3229.000000	95.265457
3228.000000	95.260920
3227.000000	95.258553
3226.000000	95.261509
3225.000000	95.269293
3224.000000	95.279115
3223.000000	95.288666
3222.000000	95.297629
3221.000000	95.307188
3220.000000	95.318366
3219.000000	95.330501
3218.000000	95.341463
3217.000000	95.349779
3216.000000	95.356234
3215.000000	95.362962
3214.000000	95.371095
3213.000000	95.379892
3212.000000	95.387816
3211.000000	95.393820
3210.000000	95.397780
3209.000000	95.400492
3208.000000	95.403392
3207.000000	95.407857
3206.000000	95.414764
3205.000000	95.424712
3204.000000	95.437844
3203.000000	95.452851
3202.000000	95.467045
3201.000000	95.478488
3200.000000	95.487647
3199.000000	95.496105
3198.000000	95.504318
3197.000000	95.511873
3196.000000	95.519180
3195.000000	95.527231
3194.000000	95.535992
3193.000000	95.544960
3192.000000	95.555313
3191.000000	95.569440
3190.000000	95.587532
3189.000000	95.606167
3188.000000	95.621311
3187.000000	95.631992
3186.000000	95.640630
3185.000000	95.650737
3184.000000	95.664458
3183.000000	95.680995
3182.000000	95.696728
3181.000000	95.708087
3180.000000	95.715131
3179.000000	95.721514
3178.000000	95.730512
3177.000000	95.742183
3176.000000	95.755016
3175.000000	95.768589
3174.000000	95.783239
3173.000000	95.798272
3172.000000	95.812148
3171.000000	95.824071
3170.000000	95.834337
3169.000000	95.843662
3168.000000	95.853107
3167.000000	95.863949
3166.000000	95.876489
3165.000000	95.889432
3164.000000	95.901564
3163.000000	95.913531
3162.000000	95.926818
3161.000000	95.941437
3160.000000	95.956031
3159.000000	95.970072
3158.000000	95.984446
3157.000000	95.999486
3156.000000	96.013729
3155.000000	96.025490
3154.000000	96.035102
3153.000000	96.044866
3152.000000	96.056772
3151.000000	96.070494
3150.000000	96.083694
3149.000000	96.094417
3148.000000	96.103167
3147.000000	96.112381
3146.000000	96.123822
