PE IR       SUBTECH     SPECTRUM    ASCII       PEDS        4.00        
   -1
3C-YYX-C002_1.ASC
23/09/07
11:10:46.00
23/09/07
11:30:09.00
uco
Sample 002 By uco Date Thursday, September 07 2023
450.000000
#HDR
-1
-1
#GR
cm-1
%T
1.0
0.0
4000.000000
-1.000000
3551
8
98.637771
81.254849
#DATA
4000.000000	98.575491
3999.000000	98.575646
3998.000000	98.577224
3997.000000	98.579566
3996.000000	98.580035
3995.000000	98.576530
3994.000000	98.569767
3993.000000	98.562697
3992.000000	98.557931
3991.000000	98.555934
3990.000000	98.555526
3989.000000	98.555773
3988.000000	98.556913
3987.000000	98.559439
3986.000000	98.562723
3985.000000	98.565227
3984.000000	98.566321
3983.000000	98.567346
3982.000000	98.570064
3981.000000	98.573935
3980.000000	98.575708
3979.000000	98.572135
3978.000000	98.563085
3977.000000	98.551957
3976.000000	98.543299
3975.000000	98.540034
3974.000000	98.542417
3973.000000	98.548717
3972.000000	98.556310
3971.000000	98.562306
3970.000000	98.564273
3969.000000	98.561359
3968.000000	98.555158
3967.000000	98.549042
3966.000000	98.545920
3965.000000	98.546513
3964.000000	98.549286
3963.000000	98.551633
3962.000000	98.551341
3961.000000	98.547631
3960.000000	98.541592
3959.000000	98.535755
3958.000000	98.532726
3957.000000	98.533659
3956.000000	98.537649
3955.000000	98.542379
3954.000000	98.545585
3953.000000	98.546403
3952.000000	98.545835
3951.000000	98.545959
3950.000000	98.548063
3949.000000	98.551370
3948.000000	98.553740
3947.000000	98.553532
3946.000000	98.550762
3945.000000	98.546831
3944.000000	98.543899
3943.000000	98.544155
3942.000000	98.548476
3941.000000	98.555750
3940.000000	98.563340
3939.000000	98.568009
3938.000000	98.567079
3937.000000	98.559666
3936.000000	98.547817
3935.000000	98.536249
3934.000000	98.530193
3933.000000	98.532527
3932.000000	98.541613
3931.000000	98.552086
3930.000000	98.558428
3929.000000	98.558166
3928.000000	98.552556
3927.000000	98.545077
3926.000000	98.539438
3925.000000	98.537810
3924.000000	98.539887
3923.000000	98.543529
3922.000000	98.546212
3921.000000	98.545892
3920.000000	98.541698
3919.000000	98.534690
3918.000000	98.528238
3917.000000	98.526542
3916.000000	98.531360
3915.000000	98.539979
3914.000000	98.546666
3913.000000	98.546782
3912.000000	98.539905
3911.000000	98.530045
3910.000000	98.522415
3909.000000	98.519353
3908.000000	98.519386
3907.000000	98.519190
3906.000000	98.516332
3905.000000	98.511126
3904.000000	98.506727
3903.000000	98.506939
3902.000000	98.513101
3901.000000	98.523077
3900.000000	98.533601
3899.000000	98.542266
3898.000000	98.547893
3897.000000	98.550242
3896.000000	98.549530
3895.000000	98.546631
3894.000000	98.543359
3893.000000	98.542101
3892.000000	98.544181
3891.000000	98.548256
3890.000000	98.551417
3889.000000	98.551696
3888.000000	98.548869
3887.000000	98.544841
3886.000000	98.542896
3885.000000	98.544591
3884.000000	98.548505
3883.000000	98.551688
3882.000000	98.551372
3881.000000	98.546513
3880.000000	98.538784
3879.000000	98.531836
3878.000000	98.528522
3877.000000	98.529172
3876.000000	98.533244
3875.000000	98.540159
3874.000000	98.547261
3873.000000	98.549891
3872.000000	98.545547
3871.000000	98.537177
3870.000000	98.531203
3869.000000	98.531766
3868.000000	98.537834
3867.000000	98.545096
3866.000000	98.549239
3865.000000	98.548305
3864.000000	98.543622
3863.000000	98.538748
3862.000000	98.535912
3861.000000	98.534571
3860.000000	98.533638
3859.000000	98.532746
3858.000000	98.531226
3857.000000	98.527047
3856.000000	98.518617
3855.000000	98.507320
3854.000000	98.497338
3853.000000	98.493201
3852.000000	98.497844
3851.000000	98.509790
3850.000000	98.523273
3849.000000	98.533436
3848.000000	98.539214
3847.000000	98.541756
3846.000000	98.541620
3845.000000	98.538127
3844.000000	98.531394
3843.000000	98.524161
3842.000000	98.520218
3841.000000	98.521703
3840.000000	98.528002
3839.000000	98.536049
3838.000000	98.542332
3837.000000	98.546231
3836.000000	98.550803
3835.000000	98.558439
3834.000000	98.567404
3833.000000	98.573639
3832.000000	98.574753
3831.000000	98.571687
3830.000000	98.566884
3829.000000	98.561398
3828.000000	98.554824
3827.000000	98.547206
3826.000000	98.539587
3825.000000	98.533163
3824.000000	98.528766
3823.000000	98.527688
3822.000000	98.530724
3821.000000	98.535273
3820.000000	98.537174
3819.000000	98.536112
3818.000000	98.534364
3817.000000	98.533517
3816.000000	98.534342
3815.000000	98.536398
3814.000000	98.538987
3813.000000	98.541322
3812.000000	98.542522
3811.000000	98.542748
3810.000000	98.542763
3809.000000	98.542949
3808.000000	98.543104
3807.000000	98.542430
3806.000000	98.540103
3805.000000	98.536661
3804.000000	98.533880
3803.000000	98.534792
3802.000000	98.541065
3801.000000	98.548430
3800.000000	98.551410
3799.000000	98.550834
3798.000000	98.549141
3797.000000	98.546336
3796.000000	98.541678
3795.000000	98.536166
3794.000000	98.532635
3793.000000	98.533290
3792.000000	98.538088
3791.000000	98.545075
3790.000000	98.551427
3789.000000	98.555185
3788.000000	98.556922
3787.000000	98.558801
3786.000000	98.561710
3785.000000	98.564081
3784.000000	98.564202
3783.000000	98.562887
3782.000000	98.562478
3781.000000	98.563760
3780.000000	98.564774
3779.000000	98.562799
3778.000000	98.557826
3777.000000	98.553311
3776.000000	98.552994
3775.000000	98.557588
3774.000000	98.563855
3773.000000	98.566766
3772.000000	98.563468
3771.000000	98.555881
3770.000000	98.549202
3769.000000	98.547426
3768.000000	98.551477
3767.000000	98.559997
3766.000000	98.569922
3765.000000	98.577042
3764.000000	98.578486
3763.000000	98.574608
3762.000000	98.567842
3761.000000	98.560878
3760.000000	98.555807
3759.000000	98.553604
3758.000000	98.553771
3757.000000	98.554921
3756.000000	98.556044
3755.000000	98.557055
3754.000000	98.558428
3753.000000	98.560002
3752.000000	98.559467
3751.000000	98.553071
3750.000000	98.540463
3749.000000	98.527634
3748.000000	98.520993
3747.000000	98.522166
3746.000000	98.530161
3745.000000	98.541772
3744.000000	98.550554
3743.000000	98.555092
3742.000000	98.559317
3741.000000	98.562781
3740.000000	98.562743
3739.000000	98.559320
3738.000000	98.555304
3737.000000	98.554017
3736.000000	98.557908
3735.000000	98.566171
3734.000000	98.573584
3733.000000	98.575240
3732.000000	98.571687
3731.000000	98.567236
3730.000000	98.564958
3729.000000	98.565098
3728.000000	98.567697
3727.000000	98.573173
3726.000000	98.579708
3725.000000	98.583484
3724.000000	98.583089
3723.000000	98.580809
3722.000000	98.578503
3721.000000	98.575857
3720.000000	98.572687
3719.000000	98.570315
3718.000000	98.569682
3717.000000	98.569810
3716.000000	98.569174
3715.000000	98.567233
3714.000000	98.563897
3713.000000	98.559431
3712.000000	98.555999
3711.000000	98.556959
3710.000000	98.562312
3709.000000	98.567885
3708.000000	98.571165
3707.000000	98.573340
3706.000000	98.576113
3705.000000	98.579495
3704.000000	98.582176
3703.000000	98.582618
3702.000000	98.579797
3701.000000	98.574508
3700.000000	98.570095
3699.000000	98.569591
3698.000000	98.572156
3697.000000	98.573587
3696.000000	98.570000
3695.000000	98.560869
3694.000000	98.548865
3693.000000	98.538228
3692.000000	98.533502
3691.000000	98.537571
3690.000000	98.547635
3689.000000	98.554974
3688.000000	98.554536
3687.000000	98.551125
3686.000000	98.550308
3685.000000	98.551212
3684.000000	98.549827
3683.000000	98.543524
3682.000000	98.532204
3681.000000	98.517795
3680.000000	98.503808
3679.000000	98.493465
3678.000000	98.487358
3677.000000	98.483838
3676.000000	98.480729
3675.000000	98.476025
3674.000000	98.469649
3673.000000	98.463402
3672.000000	98.459075
3671.000000	98.459586
3670.000000	98.465561
3669.000000	98.470758
3668.000000	98.469916
3667.000000	98.464665
3666.000000	98.458151
3665.000000	98.452205
3664.000000	98.448052
3663.000000	98.446326
3662.000000	98.445992
3661.000000	98.444710
3660.000000	98.441499
3659.000000	98.437609
3658.000000	98.434105
3657.000000	98.429646
3656.000000	98.422340
3655.000000	98.413617
3654.000000	98.406183
3653.000000	98.399545
3652.000000	98.391318
3651.000000	98.380773
3650.000000	98.369349
3649.000000	98.358883
3648.000000	98.350097
3647.000000	98.342326
3646.000000	98.334238
3645.000000	98.325243
3644.000000	98.316513
3643.000000	98.310314
3642.000000	98.307759
3641.000000	98.307508
3640.000000	98.307533
3639.000000	98.306879
3638.000000	98.304443
3637.000000	98.298046
3636.000000	98.286528
3635.000000	98.272083
3634.000000	98.258975
3633.000000	98.249595
3632.000000	98.242723
3631.000000	98.235351
3630.000000	98.224684
3629.000000	98.209843
3628.000000	98.194829
3627.000000	98.185771
3626.000000	98.182362
3625.000000	98.178339
3624.000000	98.169917
3623.000000	98.158863
3622.000000	98.149162
3621.000000	98.142815
3620.000000	98.138118
3619.000000	98.130845
3618.000000	98.118347
3617.000000	98.102336
3616.000000	98.086462
3615.000000	98.072617
3614.000000	98.059487
3613.000000	98.044366
3612.000000	98.027293
3611.000000	98.011659
3610.000000	97.999609
3609.000000	97.990144
3608.000000	97.981902
3607.000000	97.975355
3606.000000	97.971312
3605.000000	97.969121
3604.000000	97.967747
3603.000000	97.966152
3602.000000	97.962233
3601.000000	97.953770
3600.000000	97.941560
3599.000000	97.929500
3598.000000	97.919952
3597.000000	97.910764
3596.000000	97.898332
3595.000000	97.882165
3594.000000	97.864675
3593.000000	97.847830
3592.000000	97.831588
3591.000000	97.815258
3590.000000	97.798836
3589.000000	97.783652
3588.000000	97.771866
3587.000000	97.764487
3586.000000	97.759843
3585.000000	97.755538
3584.000000	97.750430
3583.000000	97.743659
3582.000000	97.733368
3581.000000	97.717936
3580.000000	97.698551
3579.000000	97.679397
3578.000000	97.664019
3577.000000	97.652743
3576.000000	97.643706
3575.000000	97.634690
3574.000000	97.623422
3573.000000	97.608245
3572.000000	97.589976
3571.000000	97.571506
3570.000000	97.554964
3569.000000	97.540075
3568.000000	97.525635
3567.000000	97.511411
3566.000000	97.497717
3565.000000	97.484511
3564.000000	97.472328
3563.000000	97.461975
3562.000000	97.453010
3561.000000	97.443800
3560.000000	97.433463
3559.000000	97.422425
3558.000000	97.410508
3557.000000	97.396170
3556.000000	97.378526
3555.000000	97.358524
3554.000000	97.337629
3553.000000	97.316876
3552.000000	97.298174
3551.000000	97.284079
3550.000000	97.274573
3549.000000	97.266124
3548.000000	97.255182
3547.000000	97.241719
3546.000000	97.228314
3545.000000	97.216585
3544.000000	97.205811
3543.000000	97.194228
3542.000000	97.179948
3541.000000	97.162021
3540.000000	97.142163
3539.000000	97.124439
3538.000000	97.111843
3537.000000	97.103312
3536.000000	97.094732
3535.000000	97.082500
3534.000000	97.065705
3533.000000	97.046516
3532.000000	97.029494
3531.000000	97.018860
3530.000000	97.014394
3529.000000	97.010796
3528.000000	97.002810
3527.000000	96.990113
3526.000000	96.975814
3525.000000	96.961796
3524.000000	96.947421
3523.000000	96.931439
3522.000000	96.913563
3521.000000	96.894850
3520.000000	96.877548
3519.000000	96.863799
3518.000000	96.853530
3517.000000	96.844314
3516.000000	96.833934
3515.000000	96.822061
3514.000000	96.808964
3513.000000	96.794453
3512.000000	96.779164
3511.000000	96.765406
3510.000000	96.755102
3509.000000	96.747587
3508.000000	96.740753
3507.000000	96.733489
3506.000000	96.725862
3505.000000	96.717895
3504.000000	96.709273
3503.000000	96.699353
3502.000000	96.686959
3501.000000	96.671333
3500.000000	96.653700
3499.000000	96.636803
3498.000000	96.622513
3497.000000	96.610637
3496.000000	96.599834
3495.000000	96.588434
3494.000000	96.574301
3493.000000	96.555992
3492.000000	96.535041
3491.000000	96.515542
3490.000000	96.500450
3489.000000	96.489193
3488.000000	96.479348
3487.000000	96.468998
3486.000000	96.456899
3485.000000	96.442272
3484.000000	96.425942
3483.000000	96.410663
3482.000000	96.398959
3481.000000	96.390985
3480.000000	96.385136
3479.000000	96.379511
3478.000000	96.372398
3477.000000	96.362880
3476.000000	96.351953
3475.000000	96.341894
3474.000000	96.333802
3473.000000	96.326849
3472.000000	96.319982
3471.000000	96.312572
3470.000000	96.303231
3469.000000	96.290270
3468.000000	96.274192
3467.000000	96.257783
3466.000000	96.242896
3465.000000	96.229092
3464.000000	96.216210
3463.000000	96.205860
3462.000000	96.198620
3461.000000	96.191682
3460.000000	96.181388
3459.000000	96.167119
3458.000000	96.151361
3457.000000	96.137036
3456.000000	96.125912
3455.000000	96.118274
3454.000000	96.112583
3453.000000	96.106412
3452.000000	96.098796
3451.000000	96.091142
3450.000000	96.085097
3449.000000	96.080476
3448.000000	96.075870
3447.000000	96.070033
3446.000000	96.061780
3445.000000	96.049873
3444.000000	96.034439
3443.000000	96.018032
3442.000000	96.004334
3441.000000	95.995659
3440.000000	95.991576
3439.000000	95.989023
3438.000000	95.983617
3437.000000	95.972464
3436.000000	95.956706
3435.000000	95.940476
3434.000000	95.926861
3433.000000	95.915767
3432.000000	95.905725
3431.000000	95.896276
3430.000000	95.887882
3429.000000	95.880736
3428.000000	95.874406
3427.000000	95.867803
3426.000000	95.859500
3425.000000	95.849332
3424.000000	95.839664
3423.000000	95.833196
3422.000000	95.829038
3421.000000	95.822858
3420.000000	95.811870
3419.000000	95.797993
3418.000000	95.785062
3417.000000	95.774739
3416.000000	95.766104
3415.000000	95.757335
3414.000000	95.746664
3413.000000	95.733125
3412.000000	95.717580
3411.000000	95.702181
3410.000000	95.688405
3409.000000	95.676588
3408.000000	95.667346
3407.000000	95.661383
3406.000000	95.657322
3405.000000	95.651789
3404.000000	95.642838
3403.000000	95.631869
3402.000000	95.621175
3401.000000	95.611289
3400.000000	95.601454
3399.000000	95.590973
3398.000000	95.579021
3397.000000	95.564910
3396.000000	95.549936
3395.000000	95.537488
3394.000000	95.529650
3393.000000	95.524518
3392.000000	95.518032
3391.000000	95.507844
3390.000000	95.494637
3389.000000	95.480641
3388.000000	95.467936
3387.000000	95.457369
3386.000000	95.448086
3385.000000	95.438557
3384.000000	95.428388
3383.000000	95.418337
3382.000000	95.408566
3381.000000	95.398323
3380.000000	95.387503
3379.000000	95.376836
3378.000000	95.365949
3377.000000	95.352849
3376.000000	95.336262
3375.000000	95.317422
3374.000000	95.298949
3373.000000	95.282921
3372.000000	95.270280
3371.000000	95.260598
3370.000000	95.251662
3369.000000	95.240550
3368.000000	95.225913
3367.000000	95.208436
3366.000000	95.189051
3365.000000	95.168278
3364.000000	95.147551
3363.000000	95.129107
3362.000000	95.113386
3361.000000	95.097880
3360.000000	95.079693
3359.000000	95.058400
3358.000000	95.035857
3357.000000	95.014205
3356.000000	94.994631
3355.000000	94.977067
3354.000000	94.960268
3353.000000	94.942733
3352.000000	94.923886
3351.000000	94.903907
3350.000000	94.882851
3349.000000	94.860923
3348.000000	94.839116
3347.000000	94.818209
3346.000000	94.797400
3345.000000	94.775450
3344.000000	94.753051
3343.000000	94.732461
3342.000000	94.714676
3341.000000	94.698598
3340.000000	94.682880
3339.000000	94.666994
3338.000000	94.650647
3337.000000	94.633877
3336.000000	94.617651
3335.000000	94.602648
3334.000000	94.587675
3333.000000	94.571217
3332.000000	94.554326
3331.000000	94.539514
3330.000000	94.526763
3329.000000	94.513010
3328.000000	94.495934
3327.000000	94.476126
3326.000000	94.455258
3325.000000	94.434537
3324.000000	94.415652
3323.000000	94.400657
3322.000000	94.389375
3321.000000	94.378645
3320.000000	94.365223
3319.000000	94.348407
3318.000000	94.329684
3317.000000	94.311442
3316.000000	94.296165
3315.000000	94.284765
3314.000000	94.274926
3313.000000	94.262952
3312.000000	94.247884
3311.000000	94.232284
3310.000000	94.218816
3309.000000	94.207843
3308.000000	94.198537
3307.000000	94.189865
3306.000000	94.179884
3305.000000	94.166514
3304.000000	94.150045
3303.000000	94.133257
3302.000000	94.118550
3301.000000	94.106607
3300.000000	94.097891
3299.000000	94.092601
3298.000000	94.088394
3297.000000	94.081102
3296.000000	94.069173
3295.000000	94.055499
3294.000000	94.043633
3293.000000	94.034320
3292.000000	94.026751
3291.000000	94.020681
3290.000000	94.015784
3289.000000	94.010848
3288.000000	94.005476
3287.000000	94.001238
3286.000000	93.999757
3285.000000	94.000931
3284.000000	94.003618
3283.000000	94.006452
3282.000000	94.007381
3281.000000	94.004705
3280.000000	94.000128
3279.000000	93.998603
3278.000000	94.003563
3277.000000	94.013637
3276.000000	94.025391
3275.000000	94.037670
3274.000000	94.051050
3273.000000	94.064681
3272.000000	94.076017
3271.000000	94.083528
3270.000000	94.088391
3269.000000	94.093614
3268.000000	94.102117
3267.000000	94.114872
3266.000000	94.130207
3265.000000	94.145531
3264.000000	94.160003
3263.000000	94.174473
3262.000000	94.189083
3261.000000	94.202682
3260.000000	94.215056
3259.000000	94.227901
3258.000000	94.242867
3257.000000	94.260282
3256.000000	94.280272
3255.000000	94.303235
3254.000000	94.328172
3253.000000	94.352371
3252.000000	94.373917
3251.000000	94.393149
3250.000000	94.410871
3249.000000	94.426845
3248.000000	94.441086
3247.000000	94.454601
3246.000000	94.467454
3245.000000	94.477635
3244.000000	94.483741
3243.000000	94.487817
3242.000000	94.493812
3241.000000	94.503932
3240.000000	94.517685
3239.000000	94.533789
3238.000000	94.551523
3237.000000	94.570294
3236.000000	94.588820
3235.000000	94.605251
3234.000000	94.618299
3233.000000	94.628435
3232.000000	94.637450
3231.000000	94.646193
3230.000000	94.653508
3229.000000	94.658537
3228.000000	94.663390
3227.000000	94.671745
3226.000000	94.684937
3225.000000	94.701082
3224.000000	94.717506
3223.000000	94.732255
3222.000000	94.743755
3221.000000	94.751691
3220.000000	94.758532
3219.000000	94.767621
3218.000000	94.778899
3217.000000	94.788768
3216.000000	94.794787
3215.000000	94.798496
3214.000000	94.802740
3213.000000	94.808380
3212.000000	94.814790
3211.000000	94.821645
3210.000000	94.828836
3209.000000	94.835893
3208.000000	94.842861
3207.000000	94.850867
3206.000000	94.861114
3205.000000	94.873978
3204.000000	94.889025
3203.000000	94.904573
3202.000000	94.917585
3201.000000	94.926069
3200.000000	94.932082
3199.000000	94.940459
3198.000000	94.953788
3197.000000	94.970064
3196.000000	94.985255
3195.000000	94.996517
3194.000000	95.002987
3193.000000	95.006314
3192.000000	95.011155
3191.000000	95.022334
3190.000000	95.040083
3189.000000	95.059696
3188.000000	95.076776
3187.000000	95.090915
3186.000000	95.103952
3185.000000	95.117360
3184.000000	95.132576
3183.000000	95.151046
3182.000000	95.171834
3181.000000	95.191073
3180.000000	95.205783
3179.000000	95.216954
3178.000000	95.227705
3177.000000	95.239855
3176.000000	95.253764
3175.000000	95.269487
3174.000000	95.286074
3173.000000	95.301137
3172.000000	95.313164
3171.000000	95.323529
3170.000000	95.334725
3169.000000	95.347709
3168.000000	95.362228
3167.000000	95.378467
3166.000000	95.396492
3165.000000	95.414883
3164.000000	95.431754
3163.000000	95.446749
3162.000000	95.460866
3161.000000	95.474902
3160.000000	95.489235
3159.000000	95.504422
3158.000000	95.520481
3157.000000	95.535820
3156.000000	95.548116
3155.000000	95.556678
3154.000000	95.563511
3153.000000	95.572179
3152.000000	95.585339
3151.000000	95.602546
3150.000000	95.620232
3149.000000	95.634830
3148.000000	95.646239
3147.000000	95.657508
3146.000000	95.671174
