PE IR       SUBTECH     SPECTRUM    ASCII       PEDS        4.00        
   -1
3C-XXX-F001_1.ASC
23/09/07
10:36:30.00
23/09/07
11:30:09.00
uco
Sample 001 By uco Date Thursday, September 07 2023
450.000000
#HDR
-1
-1
#GR
cm-1
%T
1.0
0.0
4000.000000
-1.000000
3551
8
98.516351
86.188018
#DATA
4000.000000	98.471208
3999.000000	98.465060
3998.000000	98.458920
3997.000000	98.452755
3996.000000	98.450292
3995.000000	98.450187
3994.000000	98.450193
3993.000000	98.449519
3992.000000	98.448713
3991.000000	98.448010
3990.000000	98.446662
3989.000000	98.444157
3988.000000	98.441392
3987.000000	98.439971
3986.000000	98.440390
3985.000000	98.441380
3984.000000	98.441265
3983.000000	98.439758
3982.000000	98.438117
3981.000000	98.437668
3980.000000	98.438520
3979.000000	98.439607
3978.000000	98.439684
3977.000000	98.438233
3976.000000	98.435860
3975.000000	98.434085
3974.000000	98.434363
3973.000000	98.436829
3972.000000	98.439934
3971.000000	98.441518
3970.000000	98.440484
3969.000000	98.437525
3968.000000	98.434246
3967.000000	98.431734
3966.000000	98.429953
3965.000000	98.428373
3964.000000	98.426801
3963.000000	98.425432
3962.000000	98.424312
3961.000000	98.423132
3960.000000	98.421721
3959.000000	98.420401
3958.000000	98.419519
3957.000000	98.418896
3956.000000	98.418026
3955.000000	98.416953
3954.000000	98.416676
3953.000000	98.418420
3952.000000	98.422289
3951.000000	98.426642
3950.000000	98.429115
3949.000000	98.428378
3948.000000	98.425061
3947.000000	98.421047
3946.000000	98.418132
3945.000000	98.417228
3944.000000	98.418232
3943.000000	98.420495
3942.000000	98.423396
3941.000000	98.426529
3940.000000	98.429458
3939.000000	98.431227
3938.000000	98.430442
3937.000000	98.426387
3936.000000	98.419768
3935.000000	98.412374
3934.000000	98.406241
3933.000000	98.403431
3932.000000	98.405562
3931.000000	98.412299
3930.000000	98.420723
3929.000000	98.426852
3928.000000	98.428382
3927.000000	98.426075
3926.000000	98.422520
3925.000000	98.419880
3924.000000	98.418871
3923.000000	98.419422
3922.000000	98.420888
3921.000000	98.421355
3920.000000	98.418460
3919.000000	98.411884
3918.000000	98.404473
3917.000000	98.400216
3916.000000	98.400855
3915.000000	98.404892
3914.000000	98.409078
3913.000000	98.410370
3912.000000	98.407408
3911.000000	98.401479
3910.000000	98.395177
3909.000000	98.390225
3908.000000	98.386280
3907.000000	98.382180
3906.000000	98.377808
3905.000000	98.375349
3904.000000	98.378158
3903.000000	98.387398
3902.000000	98.400226
3901.000000	98.411428
3900.000000	98.416968
3899.000000	98.416798
3898.000000	98.414707
3897.000000	98.414598
3896.000000	98.416888
3895.000000	98.419017
3894.000000	98.419010
3893.000000	98.418047
3892.000000	98.418741
3891.000000	98.421649
3890.000000	98.424624
3889.000000	98.426746
3888.000000	98.427911
3887.000000	98.426031
3886.000000	98.419388
3885.000000	98.410414
3884.000000	98.405092
3883.000000	98.407737
3882.000000	98.415453
3881.000000	98.420531
3880.000000	98.417909
3879.000000	98.409030
3878.000000	98.400048
3877.000000	98.395991
3876.000000	98.396387
3875.000000	98.397455
3874.000000	98.396513
3873.000000	98.394503
3872.000000	98.394941
3871.000000	98.399772
3870.000000	98.407475
3869.000000	98.415259
3868.000000	98.423028
3867.000000	98.432261
3866.000000	98.439454
3865.000000	98.438825
3864.000000	98.431227
3863.000000	98.423584
3862.000000	98.419597
3861.000000	98.416380
3860.000000	98.410177
3859.000000	98.401543
3858.000000	98.393380
3857.000000	98.388400
3856.000000	98.388550
3855.000000	98.395402
3854.000000	98.408124
3853.000000	98.420371
3852.000000	98.427457
3851.000000	98.433674
3850.000000	98.440879
3849.000000	98.444245
3848.000000	98.441115
3847.000000	98.433790
3846.000000	98.424842
3845.000000	98.414400
3844.000000	98.401620
3843.000000	98.387489
3842.000000	98.376054
3841.000000	98.373452
3840.000000	98.383521
3839.000000	98.403558
3838.000000	98.424568
3837.000000	98.438256
3836.000000	98.443617
3835.000000	98.445244
3834.000000	98.446800
3833.000000	98.447827
3832.000000	98.445335
3831.000000	98.437479
3830.000000	98.426012
3829.000000	98.414933
3828.000000	98.407113
3827.000000	98.402991
3826.000000	98.401108
3825.000000	98.400205
3824.000000	98.400192
3823.000000	98.401127
3822.000000	98.402843
3821.000000	98.405528
3820.000000	98.408626
3819.000000	98.412471
3818.000000	98.417079
3817.000000	98.419544
3816.000000	98.418306
3815.000000	98.415185
3814.000000	98.413620
3813.000000	98.414977
3812.000000	98.415458
3811.000000	98.411495
3810.000000	98.405789
3809.000000	98.403993
3808.000000	98.408112
3807.000000	98.414318
3806.000000	98.417594
3805.000000	98.418596
3804.000000	98.421822
3803.000000	98.428660
3802.000000	98.436497
3801.000000	98.440715
3800.000000	98.438497
3799.000000	98.433560
3798.000000	98.429912
3797.000000	98.427060
3796.000000	98.423332
3795.000000	98.417575
3794.000000	98.409939
3793.000000	98.401342
3792.000000	98.392920
3791.000000	98.386359
3790.000000	98.383196
3789.000000	98.382684
3788.000000	98.382488
3787.000000	98.381594
3786.000000	98.381544
3785.000000	98.384189
3784.000000	98.389051
3783.000000	98.393898
3782.000000	98.397259
3781.000000	98.399258
3780.000000	98.400793
3779.000000	98.402679
3778.000000	98.404899
3777.000000	98.407240
3776.000000	98.409450
3775.000000	98.410947
3774.000000	98.411082
3773.000000	98.409924
3772.000000	98.407715
3771.000000	98.404522
3770.000000	98.401566
3769.000000	98.401944
3768.000000	98.408090
3767.000000	98.418419
3766.000000	98.427080
3765.000000	98.428467
3764.000000	98.422529
3763.000000	98.414433
3762.000000	98.408582
3761.000000	98.405007
3760.000000	98.402431
3759.000000	98.402184
3758.000000	98.406370
3757.000000	98.414192
3756.000000	98.422556
3755.000000	98.429826
3754.000000	98.436367
3753.000000	98.443511
3752.000000	98.452837
3751.000000	98.463291
3750.000000	98.469539
3749.000000	98.467587
3748.000000	98.461257
3747.000000	98.459574
3746.000000	98.467026
3745.000000	98.478270
3744.000000	98.481263
3743.000000	98.471565
3742.000000	98.461117
3741.000000	98.457122
3740.000000	98.452693
3739.000000	98.445015
3738.000000	98.439722
3737.000000	98.440357
3736.000000	98.443230
3735.000000	98.443782
3734.000000	98.444032
3733.000000	98.447893
3732.000000	98.453731
3731.000000	98.457488
3730.000000	98.459013
3729.000000	98.460550
3728.000000	98.461707
3727.000000	98.459246
3726.000000	98.451310
3725.000000	98.441008
3724.000000	98.434374
3723.000000	98.433968
3722.000000	98.437194
3721.000000	98.440467
3720.000000	98.442831
3719.000000	98.445597
3718.000000	98.449319
3717.000000	98.452498
3716.000000	98.453254
3715.000000	98.451127
3714.000000	98.446780
3713.000000	98.442117
3712.000000	98.440823
3711.000000	98.445670
3710.000000	98.454776
3709.000000	98.462735
3708.000000	98.465497
3707.000000	98.463207
3706.000000	98.458332
3705.000000	98.453447
3704.000000	98.449777
3703.000000	98.447132
3702.000000	98.445089
3701.000000	98.444158
3700.000000	98.445359
3699.000000	98.448563
3698.000000	98.451337
3697.000000	98.449905
3696.000000	98.442989
3695.000000	98.434072
3694.000000	98.428708
3693.000000	98.430132
3692.000000	98.438709
3691.000000	98.452957
3690.000000	98.468839
3689.000000	98.480048
3688.000000	98.482197
3687.000000	98.477074
3686.000000	98.470511
3685.000000	98.465723
3684.000000	98.460556
3683.000000	98.452529
3682.000000	98.442307
3681.000000	98.432007
3680.000000	98.422588
3679.000000	98.413794
3678.000000	98.406139
3677.000000	98.400897
3676.000000	98.399572
3675.000000	98.401804
3674.000000	98.405627
3673.000000	98.411622
3672.000000	98.419039
3671.000000	98.421543
3670.000000	98.412804
3669.000000	98.393183
3668.000000	98.370448
3667.000000	98.351926
3666.000000	98.339122
3665.000000	98.330950
3664.000000	98.326390
3663.000000	98.323765
3662.000000	98.320147
3661.000000	98.313347
3660.000000	98.304397
3659.000000	98.296704
3658.000000	98.292118
3657.000000	98.288610
3656.000000	98.283186
3655.000000	98.276655
3654.000000	98.273413
3653.000000	98.274541
3652.000000	98.275012
3651.000000	98.269327
3650.000000	98.257865
3649.000000	98.246810
3648.000000	98.240355
3647.000000	98.234279
3646.000000	98.222776
3645.000000	98.206984
3644.000000	98.192072
3643.000000	98.181785
3642.000000	98.176431
3641.000000	98.173784
3640.000000	98.171292
3639.000000	98.167591
3638.000000	98.161923
3637.000000	98.153413
3636.000000	98.141505
3635.000000	98.126841
3634.000000	98.112102
3633.000000	98.101377
3632.000000	98.097512
3631.000000	98.098423
3630.000000	98.096535
3629.000000	98.083980
3628.000000	98.061272
3627.000000	98.038306
3626.000000	98.022315
3625.000000	98.010901
3624.000000	97.999332
3623.000000	97.987960
3622.000000	97.979903
3621.000000	97.975274
3620.000000	97.969906
3619.000000	97.960012
3618.000000	97.946903
3617.000000	97.935299
3616.000000	97.927615
3615.000000	97.921082
3614.000000	97.909819
3613.000000	97.890216
3612.000000	97.864782
3611.000000	97.839452
3610.000000	97.818048
3609.000000	97.800915
3608.000000	97.787704
3607.000000	97.778884
3606.000000	97.773947
3605.000000	97.770271
3604.000000	97.764859
3603.000000	97.756379
3602.000000	97.744960
3601.000000	97.731062
3600.000000	97.715682
3599.000000	97.700619
3598.000000	97.687038
3597.000000	97.673945
3596.000000	97.659886
3595.000000	97.645131
3594.000000	97.631399
3593.000000	97.619220
3592.000000	97.607150
3591.000000	97.593364
3590.000000	97.577538
3589.000000	97.561200
3588.000000	97.546301
3587.000000	97.532940
3586.000000	97.519521
3585.000000	97.505153
3584.000000	97.490000
3583.000000	97.474093
3582.000000	97.457227
3581.000000	97.439983
3580.000000	97.424062
3579.000000	97.410945
3578.000000	97.400251
3577.000000	97.389398
3576.000000	97.375440
3575.000000	97.357204
3574.000000	97.336156
3573.000000	97.315630
3572.000000	97.298943
3571.000000	97.287291
3570.000000	97.278365
3569.000000	97.267024
3568.000000	97.248767
3567.000000	97.224778
3566.000000	97.201638
3565.000000	97.183960
3564.000000	97.170326
3563.000000	97.156789
3562.000000	97.140871
3561.000000	97.122540
3560.000000	97.102835
3559.000000	97.082138
3558.000000	97.060175
3557.000000	97.037238
3556.000000	97.014522
3555.000000	96.993002
3554.000000	96.972214
3553.000000	96.950922
3552.000000	96.929337
3551.000000	96.909824
3550.000000	96.894510
3549.000000	96.882731
3548.000000	96.871293
3547.000000	96.857267
3546.000000	96.840453
3545.000000	96.822909
3544.000000	96.806227
3543.000000	96.789903
3542.000000	96.772276
3541.000000	96.752513
3540.000000	96.731585
3539.000000	96.711529
3538.000000	96.693558
3537.000000	96.676660
3536.000000	96.658147
3535.000000	96.635971
3534.000000	96.610794
3533.000000	96.585908
3532.000000	96.565274
3531.000000	96.551127
3530.000000	96.542680
3529.000000	96.536694
3528.000000	96.529680
3527.000000	96.519674
3526.000000	96.506159
3525.000000	96.488797
3524.000000	96.466991
3523.000000	96.440929
3522.000000	96.412678
3521.000000	96.385813
3520.000000	96.363709
3519.000000	96.347743
3518.000000	96.336310
3517.000000	96.325385
3516.000000	96.310875
3515.000000	96.291231
3514.000000	96.268385
3513.000000	96.246199
3512.000000	96.227665
3511.000000	96.213307
3510.000000	96.202022
3509.000000	96.192888
3508.000000	96.185552
3507.000000	96.179059
3506.000000	96.171104
3505.000000	96.158851
3504.000000	96.140803
3503.000000	96.118170
3502.000000	96.094336
3501.000000	96.072713
3500.000000	96.054762
3499.000000	96.039592
3498.000000	96.025193
3497.000000	96.010272
3496.000000	95.995033
3495.000000	95.980090
3494.000000	95.965227
3493.000000	95.949842
3492.000000	95.934167
3491.000000	95.919214
3490.000000	95.905500
3489.000000	95.892275
3488.000000	95.878154
3487.000000	95.862323
3486.000000	95.845039
3485.000000	95.827051
3484.000000	95.808834
3483.000000	95.790665
3482.000000	95.773503
3481.000000	95.759345
3480.000000	95.749999
3479.000000	95.745329
3478.000000	95.742983
3477.000000	95.739750
3476.000000	95.733021
3475.000000	95.721613
3474.000000	95.706038
3473.000000	95.688018
3472.000000	95.669140
3471.000000	95.649930
3470.000000	95.630782
3469.000000	95.613504
3468.000000	95.600427
3467.000000	95.591338
3466.000000	95.582791
3465.000000	95.571742
3464.000000	95.558987
3463.000000	95.547674
3462.000000	95.538846
3461.000000	95.529830
3460.000000	95.517040
3459.000000	95.499229
3458.000000	95.477846
3457.000000	95.455486
3456.000000	95.434588
3455.000000	95.416760
3454.000000	95.402560
3453.000000	95.391791
3452.000000	95.383943
3451.000000	95.378257
3450.000000	95.373664
3449.000000	95.369150
3448.000000	95.364300
3447.000000	95.359042
3446.000000	95.352575
3445.000000	95.342986
3444.000000	95.328376
3443.000000	95.308663
3442.000000	95.286595
3441.000000	95.266741
3440.000000	95.252551
3439.000000	95.243841
3438.000000	95.237208
3437.000000	95.229035
3436.000000	95.218002
3435.000000	95.204973
3434.000000	95.191382
3433.000000	95.178215
3432.000000	95.165884
3431.000000	95.154171
3430.000000	95.142448
3429.000000	95.130485
3428.000000	95.118853
3427.000000	95.107976
3426.000000	95.097215
3425.000000	95.085759
3424.000000	95.074132
3423.000000	95.063698
3422.000000	95.054447
3421.000000	95.044350
3420.000000	95.031568
3419.000000	95.016675
3418.000000	95.001988
3417.000000	94.989250
3416.000000	94.978612
3415.000000	94.969432
3414.000000	94.961203
3413.000000	94.953464
3412.000000	94.945299
3411.000000	94.935577
3410.000000	94.924111
3409.000000	94.912457
3408.000000	94.902910
3407.000000	94.896156
3406.000000	94.890033
3405.000000	94.881064
3404.000000	94.867426
3403.000000	94.850468
3402.000000	94.833603
3401.000000	94.819902
3400.000000	94.810231
3399.000000	94.802805
3398.000000	94.794359
3397.000000	94.782400
3396.000000	94.766795
3395.000000	94.749333
3394.000000	94.732178
3393.000000	94.717028
3392.000000	94.704961
3391.000000	94.695819
3390.000000	94.687592
3389.000000	94.677504
3388.000000	94.664535
3387.000000	94.650655
3386.000000	94.638907
3385.000000	94.630117
3384.000000	94.621993
3383.000000	94.611598
3382.000000	94.598279
3381.000000	94.583750
3380.000000	94.569591
3379.000000	94.555308
3378.000000	94.539153
3377.000000	94.520386
3376.000000	94.500151
3375.000000	94.480324
3374.000000	94.462079
3373.000000	94.445579
3372.000000	94.430297
3371.000000	94.415180
3370.000000	94.398967
3369.000000	94.380853
3368.000000	94.360820
3367.000000	94.339308
3366.000000	94.316957
3365.000000	94.294887
3364.000000	94.274509
3363.000000	94.256398
3362.000000	94.239302
3361.000000	94.220586
3360.000000	94.197855
3359.000000	94.170442
3358.000000	94.139815
3357.000000	94.108679
3356.000000	94.079215
3355.000000	94.051801
3354.000000	94.025418
3353.000000	93.999108
3352.000000	93.972547
3351.000000	93.945372
3350.000000	93.916988
3349.000000	93.887523
3348.000000	93.858247
3347.000000	93.830344
3346.000000	93.803449
3345.000000	93.775893
3344.000000	93.746510
3343.000000	93.716239
3342.000000	93.688010
3341.000000	93.664646
3340.000000	93.646067
3339.000000	93.628524
3338.000000	93.607393
3337.000000	93.581104
3336.000000	93.551917
3335.000000	93.522972
3334.000000	93.495586
3333.000000	93.469606
3332.000000	93.444919
3331.000000	93.421626
3330.000000	93.399550
3329.000000	93.378394
3328.000000	93.357791
3327.000000	93.336731
3326.000000	93.313865
3325.000000	93.289288
3324.000000	93.265376
3323.000000	93.244788
3322.000000	93.227960
3321.000000	93.213200
3320.000000	93.198534
3319.000000	93.182688
3318.000000	93.165086
3317.000000	93.146151
3316.000000	93.127556
3315.000000	93.111156
3314.000000	93.097462
3313.000000	93.085527
3312.000000	93.073900
3311.000000	93.061159
3310.000000	93.046199
3309.000000	93.029097
3308.000000	93.011770
3307.000000	92.996949
3306.000000	92.986257
3305.000000	92.979277
3304.000000	92.973770
3303.000000	92.966521
3302.000000	92.955089
3301.000000	92.940109
3300.000000	92.925650
3299.000000	92.916085
3298.000000	92.912473
3297.000000	92.912240
3296.000000	92.911903
3295.000000	92.909335
3294.000000	92.903920
3293.000000	92.896111
3292.000000	92.887252
3291.000000	92.878851
3290.000000	92.871519
3289.000000	92.864926
3288.000000	92.858866
3287.000000	92.853851
3286.000000	92.850666
3285.000000	92.849736
3284.000000	92.850721
3283.000000	92.852228
3282.000000	92.852334
3281.000000	92.850489
3280.000000	92.849030
3279.000000	92.851610
3278.000000	92.859575
3277.000000	92.870333
3276.000000	92.879957
3275.000000	92.887369
3274.000000	92.895211
3273.000000	92.906534
3272.000000	92.920903
3271.000000	92.934057
3270.000000	92.941616
3269.000000	92.943137
3268.000000	92.942518
3267.000000	92.944619
3266.000000	92.951542
3265.000000	92.961918
3264.000000	92.973257
3263.000000	92.984613
3262.000000	92.997144
3261.000000	93.012395
3260.000000	93.030103
3259.000000	93.047883
3258.000000	93.063451
3257.000000	93.076907
3256.000000	93.090291
3255.000000	93.105167
3254.000000	93.121562
3253.000000	93.139140
3252.000000	93.157838
3251.000000	93.176592
3250.000000	93.192709
3249.000000	93.204124
3248.000000	93.212013
3247.000000	93.219933
3246.000000	93.230267
3245.000000	93.242127
3244.000000	93.252846
3243.000000	93.260611
3242.000000	93.265380
3241.000000	93.268364
3240.000000	93.271792
3239.000000	93.279024
3238.000000	93.293413
3237.000000	93.315556
3236.000000	93.341353
3235.000000	93.364122
3234.000000	93.379831
3233.000000	93.389968
3232.000000	93.398672
3231.000000	93.407591
3230.000000	93.415051
3229.000000	93.419816
3228.000000	93.423502
3227.000000	93.428608
3226.000000	93.435971
3225.000000	93.445427
3224.000000	93.457410
3223.000000	93.472036
3222.000000	93.487428
3221.000000	93.500924
3220.000000	93.511984
3219.000000	93.522416
3218.000000	93.533497
3217.000000	93.544377
3216.000000	93.553745
3215.000000	93.561728
3214.000000	93.569223
3213.000000	93.576040
3212.000000	93.580977
3211.000000	93.583983
3210.000000	93.587588
3209.000000	93.595403
3208.000000	93.608910
3207.000000	93.625926
3206.000000	93.642606
3205.000000	93.656746
3204.000000	93.668867
3203.000000	93.680495
3202.000000	93.692240
3201.000000	93.703721
3200.000000	93.714487
3199.000000	93.724641
3198.000000	93.735125
3197.000000	93.747536
3196.000000	93.762676
3195.000000	93.778823
3194.000000	93.792594
3193.000000	93.802478
3192.000000	93.811107
3191.000000	93.823171
3190.000000	93.841398
3189.000000	93.865040
3188.000000	93.891310
3187.000000	93.917152
3186.000000	93.940115
3185.000000	93.959249
3184.000000	93.975657
3183.000000	93.991462
3182.000000	94.007954
3181.000000	94.024964
3180.000000	94.041741
3179.000000	94.057627
3178.000000	94.072174
3177.000000	94.085626
3176.000000	94.099467
3175.000000	94.115692
3174.000000	94.135148
3173.000000	94.156983
3172.000000	94.179749
3171.000000	94.202502
3170.000000	94.224686
3169.000000	94.245762
3168.000000	94.265586
3167.000000	94.284778
3166.000000	94.304066
3165.000000	94.323140
3164.000000	94.340605
3163.000000	94.355446
3162.000000	94.368587
3161.000000	94.382620
3160.000000	94.399672
3159.000000	94.419509
3158.000000	94.439913
3157.000000	94.458778
3156.000000	94.475550
3155.000000	94.491004
3154.000000	94.506444
3153.000000	94.523079
3152.000000	94.541105
3151.000000	94.558936
3150.000000	94.574315
3149.000000	94.587125
3148.000000	94.600524
3147.000000	94.618213
3146.000000	94.640547
