PE IR       SUBTECH     SPECTRUM    ASCII       PEDS        4.00        
   -1
3C-YYX-C013_1.ASC
23/09/07
11:21:54.00
23/09/07
11:30:09.00
uco
Sample 013 By uco Date Thursday, September 07 2023
450.000000
#HDR
-1
-1
#GR
cm-1
%T
1.0
0.0
4000.000000
-1.000000
3551
8
98.525068
77.911164
#DATA
4000.000000	98.451736
3999.000000	98.453645
3998.000000	98.454182
3997.000000	98.453965
3996.000000	98.453766
3995.000000	98.453898
3994.000000	98.454155
3993.000000	98.454281
3992.000000	98.454244
3991.000000	98.453976
3990.000000	98.452928
3989.000000	98.450241
3988.000000	98.445669
3987.000000	98.440237
3986.000000	98.435702
3985.000000	98.433318
3984.000000	98.433343
3983.000000	98.435485
3982.000000	98.439380
3981.000000	98.444534
3980.000000	98.450018
3979.000000	98.454500
3978.000000	98.456729
3977.000000	98.456160
3976.000000	98.453339
3975.000000	98.449795
3974.000000	98.447131
3973.000000	98.446001
3972.000000	98.445787
3971.000000	98.445268
3970.000000	98.443783
3969.000000	98.441780
3968.000000	98.440404
3967.000000	98.440386
3966.000000	98.441178
3965.000000	98.441305
3964.000000	98.439680
3963.000000	98.436500
3962.000000	98.432860
3961.000000	98.429847
3960.000000	98.427872
3959.000000	98.426769
3958.000000	98.426117
3957.000000	98.425287
3956.000000	98.423904
3955.000000	98.422386
3954.000000	98.421885
3953.000000	98.423550
3952.000000	98.427588
3951.000000	98.433014
3950.000000	98.437989
3949.000000	98.440687
3948.000000	98.440404
3947.000000	98.437960
3946.000000	98.435005
3945.000000	98.432872
3944.000000	98.432035
3943.000000	98.432351
3942.000000	98.433499
3941.000000	98.435705
3940.000000	98.439117
3939.000000	98.442184
3938.000000	98.441868
3937.000000	98.435764
3936.000000	98.424857
3935.000000	98.413908
3934.000000	98.408889
3933.000000	98.413655
3932.000000	98.426964
3931.000000	98.442701
3930.000000	98.453783
3929.000000	98.456785
3928.000000	98.453791
3927.000000	98.449680
3926.000000	98.447862
3925.000000	98.447820
3924.000000	98.446788
3923.000000	98.443639
3922.000000	98.439572
3921.000000	98.435272
3920.000000	98.429601
3919.000000	98.421369
3918.000000	98.412034
3917.000000	98.405739
3916.000000	98.405828
3915.000000	98.411545
3914.000000	98.418270
3913.000000	98.421005
3912.000000	98.417693
3911.000000	98.410371
3910.000000	98.403300
3909.000000	98.399458
3908.000000	98.399250
3907.000000	98.401337
3906.000000	98.404127
3905.000000	98.406595
3904.000000	98.408680
3903.000000	98.411780
3902.000000	98.417735
3901.000000	98.425903
3900.000000	98.432954
3899.000000	98.435602
3898.000000	98.433572
3897.000000	98.429552
3896.000000	98.426019
3895.000000	98.423620
3894.000000	98.422230
3893.000000	98.421770
3892.000000	98.421875
3891.000000	98.421483
3890.000000	98.420527
3889.000000	98.420189
3888.000000	98.421082
3887.000000	98.422977
3886.000000	98.424558
3885.000000	98.423389
3884.000000	98.419691
3883.000000	98.416733
3882.000000	98.416775
3881.000000	98.418555
3880.000000	98.418297
3879.000000	98.414588
3878.000000	98.410398
3877.000000	98.408411
3876.000000	98.409073
3875.000000	98.411388
3874.000000	98.412663
3873.000000	98.410643
3872.000000	98.406627
3871.000000	98.404250
3870.000000	98.404878
3869.000000	98.406979
3868.000000	98.410704
3867.000000	98.417045
3866.000000	98.424070
3865.000000	98.428000
3864.000000	98.426753
3863.000000	98.421989
3862.000000	98.416747
3861.000000	98.412108
3860.000000	98.408058
3859.000000	98.404191
3858.000000	98.399083
3857.000000	98.390003
3856.000000	98.376419
3855.000000	98.363898
3854.000000	98.360268
3853.000000	98.364614
3852.000000	98.372604
3851.000000	98.384160
3850.000000	98.396478
3849.000000	98.405167
3848.000000	98.409411
3847.000000	98.411471
3846.000000	98.413281
3845.000000	98.414382
3844.000000	98.412985
3843.000000	98.408606
3842.000000	98.403331
3841.000000	98.400674
3840.000000	98.403294
3839.000000	98.410541
3838.000000	98.418338
3837.000000	98.422843
3836.000000	98.424451
3835.000000	98.425957
3834.000000	98.428321
3833.000000	98.429998
3832.000000	98.429321
3831.000000	98.426224
3830.000000	98.422314
3829.000000	98.419126
3828.000000	98.417109
3827.000000	98.415197
3826.000000	98.411124
3825.000000	98.403760
3824.000000	98.395366
3823.000000	98.391640
3822.000000	98.396647
3821.000000	98.404759
3820.000000	98.406609
3819.000000	98.403616
3818.000000	98.402986
3817.000000	98.406687
3816.000000	98.410204
3815.000000	98.407593
3814.000000	98.399438
3813.000000	98.390449
3812.000000	98.383064
3811.000000	98.377897
3810.000000	98.375508
3809.000000	98.376953
3808.000000	98.382960
3807.000000	98.391706
3806.000000	98.399635
3805.000000	98.405980
3804.000000	98.413136
3803.000000	98.424151
3802.000000	98.438288
3801.000000	98.447652
3800.000000	98.447181
3799.000000	98.442065
3798.000000	98.437239
3797.000000	98.432523
3796.000000	98.426060
3795.000000	98.417755
3794.000000	98.409412
3793.000000	98.402654
3792.000000	98.398628
3791.000000	98.398724
3790.000000	98.403232
3789.000000	98.410117
3788.000000	98.416870
3787.000000	98.422142
3786.000000	98.424962
3785.000000	98.423739
3784.000000	98.417914
3783.000000	98.410080
3782.000000	98.404732
3781.000000	98.404828
3780.000000	98.409479
3779.000000	98.414029
3778.000000	98.414034
3777.000000	98.409431
3776.000000	98.403455
3775.000000	98.399255
3774.000000	98.397919
3773.000000	98.398775
3772.000000	98.400911
3771.000000	98.403758
3770.000000	98.406162
3769.000000	98.406830
3768.000000	98.407181
3767.000000	98.409983
3766.000000	98.415277
3765.000000	98.419881
3764.000000	98.421168
3763.000000	98.419693
3762.000000	98.417406
3761.000000	98.415111
3760.000000	98.412577
3759.000000	98.409870
3758.000000	98.408148
3757.000000	98.408793
3756.000000	98.412296
3755.000000	98.417913
3754.000000	98.423593
3753.000000	98.426326
3752.000000	98.423604
3751.000000	98.415121
3750.000000	98.403476
3749.000000	98.393558
3748.000000	98.389346
3747.000000	98.392188
3746.000000	98.402394
3745.000000	98.417064
3744.000000	98.427640
3743.000000	98.432323
3742.000000	98.436516
3741.000000	98.438624
3740.000000	98.434248
3739.000000	98.424782
3738.000000	98.417149
3737.000000	98.418699
3736.000000	98.432031
3735.000000	98.451805
3734.000000	98.467108
3733.000000	98.470883
3732.000000	98.465378
3731.000000	98.457828
3730.000000	98.452829
3729.000000	98.449633
3728.000000	98.445990
3727.000000	98.441279
3726.000000	98.436136
3725.000000	98.432017
3724.000000	98.431300
3723.000000	98.435255
3722.000000	98.440902
3721.000000	98.443482
3720.000000	98.441878
3719.000000	98.438819
3718.000000	98.436469
3717.000000	98.434347
3716.000000	98.432051
3715.000000	98.430629
3714.000000	98.429598
3713.000000	98.425981
3712.000000	98.418410
3711.000000	98.411046
3710.000000	98.409306
3709.000000	98.413168
3708.000000	98.419438
3707.000000	98.425693
3706.000000	98.430900
3705.000000	98.435388
3704.000000	98.440944
3703.000000	98.448773
3702.000000	98.456715
3701.000000	98.460271
3700.000000	98.458631
3699.000000	98.455272
3698.000000	98.452259
3697.000000	98.448082
3696.000000	98.440754
3695.000000	98.431036
3694.000000	98.422035
3693.000000	98.417943
3692.000000	98.422904
3691.000000	98.438362
3690.000000	98.456767
3689.000000	98.462476
3688.000000	98.448773
3687.000000	98.427339
3686.000000	98.411793
3685.000000	98.404602
3684.000000	98.401494
3683.000000	98.398567
3682.000000	98.394620
3681.000000	98.389134
3680.000000	98.381006
3679.000000	98.369931
3678.000000	98.358463
3677.000000	98.352157
3676.000000	98.353841
3675.000000	98.355910
3674.000000	98.350793
3673.000000	98.341997
3672.000000	98.334860
3671.000000	98.332598
3670.000000	98.334016
3669.000000	98.331737
3668.000000	98.323493
3667.000000	98.314853
3666.000000	98.308887
3665.000000	98.304176
3664.000000	98.298495
3663.000000	98.291496
3662.000000	98.284417
3661.000000	98.278340
3660.000000	98.273757
3659.000000	98.270872
3658.000000	98.269252
3657.000000	98.267398
3656.000000	98.264048
3655.000000	98.260891
3654.000000	98.260063
3653.000000	98.259986
3652.000000	98.257025
3651.000000	98.249145
3650.000000	98.237099
3649.000000	98.224261
3648.000000	98.214265
3647.000000	98.206599
3646.000000	98.198217
3645.000000	98.188049
3644.000000	98.178021
3643.000000	98.171088
3642.000000	98.168416
3641.000000	98.168065
3640.000000	98.167237
3639.000000	98.164599
3638.000000	98.159489
3637.000000	98.151651
3636.000000	98.142681
3635.000000	98.135572
3634.000000	98.130933
3633.000000	98.124888
3632.000000	98.112783
3631.000000	98.094553
3630.000000	98.075670
3629.000000	98.061545
3628.000000	98.052059
3627.000000	98.046161
3626.000000	98.043209
3625.000000	98.040382
3624.000000	98.037577
3623.000000	98.038278
3622.000000	98.044159
3621.000000	98.050846
3620.000000	98.049393
3619.000000	98.033912
3618.000000	98.008756
3617.000000	97.984446
3616.000000	97.967336
3615.000000	97.956260
3614.000000	97.944948
3613.000000	97.926723
3612.000000	97.901120
3611.000000	97.874955
3610.000000	97.854977
3609.000000	97.843552
3608.000000	97.839669
3607.000000	97.840581
3606.000000	97.843336
3605.000000	97.845635
3604.000000	97.847012
3603.000000	97.847883
3602.000000	97.847270
3601.000000	97.842704
3600.000000	97.833098
3599.000000	97.820264
3598.000000	97.805816
3597.000000	97.788856
3596.000000	97.767969
3595.000000	97.744774
3594.000000	97.722961
3593.000000	97.705639
3592.000000	97.693861
3591.000000	97.687430
3590.000000	97.684886
3589.000000	97.683365
3588.000000	97.678642
3587.000000	97.667882
3586.000000	97.652672
3585.000000	97.637063
3584.000000	97.623217
3583.000000	97.610114
3582.000000	97.595511
3581.000000	97.578799
3580.000000	97.562466
3579.000000	97.550478
3578.000000	97.543710
3577.000000	97.538563
3576.000000	97.530185
3575.000000	97.516357
3574.000000	97.497786
3573.000000	97.476891
3572.000000	97.457353
3571.000000	97.442938
3570.000000	97.434754
3569.000000	97.429674
3568.000000	97.422229
3567.000000	97.409254
3566.000000	97.392419
3565.000000	97.375371
3564.000000	97.360245
3563.000000	97.346621
3562.000000	97.332150
3561.000000	97.314419
3560.000000	97.293581
3559.000000	97.272825
3558.000000	97.255515
3557.000000	97.242358
3556.000000	97.231862
3555.000000	97.221994
3554.000000	97.210649
3553.000000	97.196002
3552.000000	97.178343
3551.000000	97.160752
3550.000000	97.146377
3549.000000	97.135961
3548.000000	97.128372
3547.000000	97.121857
3546.000000	97.113998
3545.000000	97.102518
3544.000000	97.087434
3543.000000	97.070821
3542.000000	97.053588
3541.000000	97.034541
3540.000000	97.013326
3539.000000	96.992218
3538.000000	96.973860
3537.000000	96.958364
3536.000000	96.943897
3535.000000	96.929315
3534.000000	96.914706
3533.000000	96.900770
3532.000000	96.888752
3531.000000	96.879806
3530.000000	96.872856
3529.000000	96.864485
3528.000000	96.852897
3527.000000	96.840727
3526.000000	96.831420
3525.000000	96.824038
3524.000000	96.813976
3523.000000	96.798321
3522.000000	96.778914
3521.000000	96.760186
3520.000000	96.745276
3519.000000	96.734090
3518.000000	96.723862
3517.000000	96.711755
3516.000000	96.697410
3515.000000	96.682756
3514.000000	96.669163
3513.000000	96.656093
3512.000000	96.642683
3511.000000	96.629186
3510.000000	96.615932
3509.000000	96.602390
3508.000000	96.588613
3507.000000	96.576419
3506.000000	96.567685
3505.000000	96.562017
3504.000000	96.556794
3503.000000	96.549061
3502.000000	96.537468
3501.000000	96.523247
3500.000000	96.509303
3499.000000	96.497468
3498.000000	96.486312
3497.000000	96.472498
3496.000000	96.454645
3495.000000	96.434807
3494.000000	96.415908
3493.000000	96.399316
3492.000000	96.385427
3491.000000	96.374549
3490.000000	96.366052
3489.000000	96.358163
3488.000000	96.349576
3487.000000	96.340053
3486.000000	96.328797
3485.000000	96.313972
3484.000000	96.295016
3483.000000	96.274607
3482.000000	96.257213
3481.000000	96.245840
3480.000000	96.240401
3479.000000	96.238005
3478.000000	96.234414
3477.000000	96.226485
3476.000000	96.214287
3475.000000	96.200302
3474.000000	96.186402
3473.000000	96.172803
3472.000000	96.159682
3471.000000	96.147735
3470.000000	96.136700
3469.000000	96.125360
3468.000000	96.113718
3467.000000	96.103376
3466.000000	96.095182
3465.000000	96.088261
3464.000000	96.081848
3463.000000	96.076109
3462.000000	96.070189
3461.000000	96.061439
3460.000000	96.047928
3459.000000	96.030508
3458.000000	96.011855
3457.000000	95.994883
3456.000000	95.982320
3455.000000	95.975567
3454.000000	95.972599
3453.000000	95.969084
3452.000000	95.962757
3451.000000	95.955633
3450.000000	95.950788
3449.000000	95.948382
3448.000000	95.945820
3447.000000	95.940421
3446.000000	95.930646
3445.000000	95.915900
3444.000000	95.896960
3443.000000	95.876709
3442.000000	95.859465
3441.000000	95.848757
3440.000000	95.845167
3439.000000	95.845520
3438.000000	95.844471
3437.000000	95.838429
3436.000000	95.828303
3435.000000	95.817569
3434.000000	95.808016
3433.000000	95.799142
3432.000000	95.790976
3431.000000	95.784634
3430.000000	95.779339
3429.000000	95.771486
3428.000000	95.758348
3427.000000	95.740956
3426.000000	95.722537
3425.000000	95.705807
3424.000000	95.692499
3423.000000	95.683211
3422.000000	95.676008
3421.000000	95.666992
3420.000000	95.654108
3419.000000	95.639321
3418.000000	95.625834
3417.000000	95.614756
3416.000000	95.605435
3415.000000	95.597186
3414.000000	95.589298
3413.000000	95.580582
3412.000000	95.570156
3411.000000	95.557821
3410.000000	95.543562
3409.000000	95.528414
3408.000000	95.516051
3407.000000	95.510516
3406.000000	95.510855
3405.000000	95.510315
3404.000000	95.502941
3403.000000	95.489672
3402.000000	95.476138
3401.000000	95.466061
3400.000000	95.458349
3399.000000	95.449222
3398.000000	95.435483
3397.000000	95.416978
3396.000000	95.397497
3395.000000	95.382266
3394.000000	95.372982
3393.000000	95.365950
3392.000000	95.356196
3391.000000	95.342533
3390.000000	95.327706
3389.000000	95.314868
3388.000000	95.305340
3387.000000	95.298595
3386.000000	95.292692
3385.000000	95.285086
3384.000000	95.274076
3383.000000	95.259482
3382.000000	95.242079
3381.000000	95.223562
3380.000000	95.206886
3379.000000	95.194481
3378.000000	95.185325
3377.000000	95.175358
3376.000000	95.161571
3375.000000	95.144339
3374.000000	95.125458
3373.000000	95.106048
3372.000000	95.087424
3371.000000	95.071882
3370.000000	95.060668
3369.000000	95.052133
3368.000000	95.043159
3367.000000	95.031635
3366.000000	95.016921
3365.000000	94.999305
3364.000000	94.980143
3363.000000	94.961329
3362.000000	94.943633
3361.000000	94.926347
3360.000000	94.908963
3359.000000	94.891766
3358.000000	94.874360
3357.000000	94.855305
3356.000000	94.834229
3355.000000	94.812919
3354.000000	94.793297
3353.000000	94.775439
3352.000000	94.758309
3351.000000	94.740966
3350.000000	94.722295
3349.000000	94.701134
3348.000000	94.677718
3347.000000	94.653881
3346.000000	94.631006
3345.000000	94.608901
3344.000000	94.587277
3343.000000	94.567033
3342.000000	94.549188
3341.000000	94.533780
3340.000000	94.520398
3339.000000	94.508361
3338.000000	94.495723
3337.000000	94.479712
3336.000000	94.459290
3335.000000	94.436368
3334.000000	94.413842
3333.000000	94.393347
3332.000000	94.375239
3331.000000	94.359162
3330.000000	94.344026
3329.000000	94.328688
3328.000000	94.313120
3327.000000	94.297786
3326.000000	94.282011
3325.000000	94.264746
3324.000000	94.247042
3323.000000	94.231551
3322.000000	94.218821
3321.000000	94.206176
3320.000000	94.190911
3319.000000	94.172784
3318.000000	94.152884
3317.000000	94.132223
3316.000000	94.112399
3315.000000	94.095536
3314.000000	94.082027
3313.000000	94.069780
3312.000000	94.056768
3311.000000	94.043058
3310.000000	94.029796
3309.000000	94.017764
3308.000000	94.007543
3307.000000	93.999020
3306.000000	93.989847
3305.000000	93.976368
3304.000000	93.957304
3303.000000	93.935237
3302.000000	93.913883
3301.000000	93.895520
3300.000000	93.881450
3299.000000	93.872301
3298.000000	93.866346
3297.000000	93.859825
3296.000000	93.850631
3295.000000	93.840294
3294.000000	93.831062
3293.000000	93.822859
3292.000000	93.814474
3291.000000	93.805949
3290.000000	93.798207
3289.000000	93.791588
3288.000000	93.786138
3287.000000	93.782194
3286.000000	93.779619
3285.000000	93.777786
3284.000000	93.776878
3283.000000	93.777570
3282.000000	93.778950
3281.000000	93.779078
3280.000000	93.778964
3279.000000	93.783092
3278.000000	93.794155
3277.000000	93.809160
3276.000000	93.822954
3275.000000	93.834280
3274.000000	93.845744
3273.000000	93.859188
3272.000000	93.873318
3271.000000	93.885297
3270.000000	93.892987
3269.000000	93.896373
3268.000000	93.898454
3267.000000	93.903959
3266.000000	93.915557
3265.000000	93.931617
3264.000000	93.948749
3263.000000	93.965488
3262.000000	93.982446
3261.000000	94.000027
3260.000000	94.017601
3259.000000	94.034324
3258.000000	94.049744
3257.000000	94.064324
3256.000000	94.080051
3255.000000	94.099340
3254.000000	94.122230
3253.000000	94.146033
3252.000000	94.168726
3251.000000	94.191149
3250.000000	94.214427
3249.000000	94.236876
3248.000000	94.255692
3247.000000	94.270626
3246.000000	94.283848
3245.000000	94.296374
3244.000000	94.306611
3243.000000	94.312911
3242.000000	94.316094
3241.000000	94.319251
3240.000000	94.325968
3239.000000	94.338744
3238.000000	94.358159
3237.000000	94.382800
3236.000000	94.409816
3235.000000	94.435733
3234.000000	94.457443
3233.000000	94.473584
3232.000000	94.485110
3231.000000	94.493817
3230.000000	94.500318
3229.000000	94.504289
3228.000000	94.506460
3227.000000	94.508953
3226.000000	94.513508
3225.000000	94.520700
3224.000000	94.530858
3223.000000	94.544066
3222.000000	94.558819
3221.000000	94.572438
3220.000000	94.583701
3219.000000	94.593801
3218.000000	94.603989
3217.000000	94.613776
3216.000000	94.622211
3215.000000	94.629463
3214.000000	94.636008
3213.000000	94.641449
3212.000000	94.645340
3211.000000	94.648520
3210.000000	94.652739
3209.000000	94.659344
3208.000000	94.668836
3207.000000	94.681005
3206.000000	94.695081
3205.000000	94.710236
3204.000000	94.726134
3203.000000	94.742440
3202.000000	94.758082
3201.000000	94.771875
3200.000000	94.783668
3199.000000	94.793869
3198.000000	94.802463
3197.000000	94.809924
3196.000000	94.818351
3195.000000	94.829485
3194.000000	94.841897
3193.000000	94.852608
3192.000000	94.861720
3191.000000	94.872978
3190.000000	94.888920
3189.000000	94.907737
3188.000000	94.925877
3187.000000	94.941750
3186.000000	94.955889
3185.000000	94.969366
3184.000000	94.983294
3183.000000	94.998327
3182.000000	95.013536
3181.000000	95.027175
3180.000000	95.039314
3179.000000	95.052249
3178.000000	95.067634
3177.000000	95.084916
3176.000000	95.103320
3175.000000	95.123041
3174.000000	95.143248
3173.000000	95.161182
3172.000000	95.175117
3171.000000	95.186681
3170.000000	95.198492
3169.000000	95.210969
3168.000000	95.223101
3167.000000	95.234928
3166.000000	95.247265
3165.000000	95.260068
3164.000000	95.273091
3163.000000	95.287365
3162.000000	95.304082
3161.000000	95.322373
3160.000000	95.339955
3159.000000	95.355832
3158.000000	95.370905
3157.000000	95.385924
3156.000000	95.400317
3155.000000	95.413425
3154.000000	95.425986
3153.000000	95.439802
3152.000000	95.456014
3151.000000	95.473728
3150.000000	95.490479
3149.000000	95.504556
3148.000000	95.516692
3147.000000	95.528790
3146.000000	95.541112
