PE IR       SUBTECH     SPECTRUM    ASCII       PEDS        4.00        
   -1
3C-XXX-F014_1.ASC
23/09/07
10:47:46.00
23/09/07
11:30:09.00
uco
Sample 014 By uco Date Thursday, September 07 2023
450.000000
#HDR
-1
-1
#GR
cm-1
%T
1.0
0.0
4000.000000
-1.000000
3551
8
98.828706
86.843890
#DATA
4000.000000	98.745322
3999.000000	98.745038
3998.000000	98.742514
3997.000000	98.739540
3996.000000	98.737495
3995.000000	98.736801
3994.000000	98.736870
3993.000000	98.736601
3992.000000	98.734999
3991.000000	98.731452
3990.000000	98.725909
3989.000000	98.719217
3988.000000	98.713254
3987.000000	98.710075
3986.000000	98.710577
3985.000000	98.713959
3984.000000	98.718467
3983.000000	98.722439
3982.000000	98.724480
3981.000000	98.723297
3980.000000	98.718158
3979.000000	98.709764
3978.000000	98.700295
3977.000000	98.692365
3976.000000	98.688019
3975.000000	98.688387
3974.000000	98.693587
3973.000000	98.702324
3972.000000	98.711809
3971.000000	98.718800
3970.000000	98.721463
3969.000000	98.720361
3968.000000	98.717599
3967.000000	98.714952
3966.000000	98.712652
3965.000000	98.709815
3964.000000	98.705728
3963.000000	98.700660
3962.000000	98.695789
3961.000000	98.692621
3960.000000	98.692289
3959.000000	98.694840
3958.000000	98.698722
3957.000000	98.701130
3956.000000	98.699746
3955.000000	98.694569
3954.000000	98.688118
3953.000000	98.683701
3952.000000	98.683192
3951.000000	98.686270
3950.000000	98.691137
3949.000000	98.695709
3948.000000	98.698429
3947.000000	98.698397
3946.000000	98.695357
3945.000000	98.689930
3944.000000	98.684003
3943.000000	98.680540
3942.000000	98.681892
3941.000000	98.687882
3940.000000	98.695639
3939.000000	98.701227
3938.000000	98.701871
3937.000000	98.697341
3936.000000	98.689895
3935.000000	98.682975
3934.000000	98.679646
3933.000000	98.681564
3932.000000	98.688206
3931.000000	98.696589
3930.000000	98.702466
3929.000000	98.702689
3928.000000	98.697313
3927.000000	98.689988
3926.000000	98.685928
3925.000000	98.688223
3924.000000	98.695310
3923.000000	98.702584
3922.000000	98.706275
3921.000000	98.704920
3920.000000	98.698548
3919.000000	98.688395
3918.000000	98.677716
3917.000000	98.671317
3916.000000	98.672318
3915.000000	98.679173
3914.000000	98.686684
3913.000000	98.690020
3912.000000	98.687759
3911.000000	98.682135
3910.000000	98.676701
3909.000000	98.673380
3908.000000	98.671662
3907.000000	98.669939
3906.000000	98.667358
3905.000000	98.664747
3904.000000	98.663903
3903.000000	98.666014
3902.000000	98.670987
3901.000000	98.677905
3900.000000	98.685380
3899.000000	98.691595
3898.000000	98.695169
3897.000000	98.696227
3896.000000	98.696004
3895.000000	98.695438
3894.000000	98.694388
3893.000000	98.692107
3892.000000	98.688610
3891.000000	98.685265
3890.000000	98.683443
3889.000000	98.683045
3888.000000	98.682900
3887.000000	98.682624
3886.000000	98.683529
3885.000000	98.686590
3884.000000	98.690649
3883.000000	98.693792
3882.000000	98.695038
3881.000000	98.694502
3880.000000	98.692551
3879.000000	98.689294
3878.000000	98.685470
3877.000000	98.682619
3876.000000	98.682150
3875.000000	98.684405
3874.000000	98.687460
3873.000000	98.688106
3872.000000	98.685503
3871.000000	98.682919
3870.000000	98.684611
3869.000000	98.690699
3868.000000	98.697419
3867.000000	98.701681
3866.000000	98.702758
3865.000000	98.702071
3864.000000	98.702067
3863.000000	98.703565
3862.000000	98.704649
3861.000000	98.703103
3860.000000	98.699137
3859.000000	98.694870
3858.000000	98.691560
3857.000000	98.687773
3856.000000	98.680847
3855.000000	98.670524
3854.000000	98.661265
3853.000000	98.658056
3852.000000	98.660473
3851.000000	98.666875
3850.000000	98.676673
3849.000000	98.687540
3848.000000	98.696439
3847.000000	98.700979
3846.000000	98.700053
3845.000000	98.693873
3844.000000	98.683900
3843.000000	98.672340
3842.000000	98.661659
3841.000000	98.654468
3840.000000	98.653203
3839.000000	98.658810
3838.000000	98.669476
3837.000000	98.681396
3836.000000	98.691628
3835.000000	98.699213
3834.000000	98.703955
3833.000000	98.705606
3832.000000	98.703960
3831.000000	98.699054
3830.000000	98.691765
3829.000000	98.684235
3828.000000	98.679362
3827.000000	98.679136
3826.000000	98.682465
3825.000000	98.685726
3824.000000	98.686318
3823.000000	98.685316
3822.000000	98.686426
3821.000000	98.690558
3820.000000	98.692570
3819.000000	98.688911
3818.000000	98.683087
3817.000000	98.680634
3816.000000	98.683065
3815.000000	98.685640
3814.000000	98.683825
3813.000000	98.679177
3812.000000	98.675806
3811.000000	98.676249
3810.000000	98.680686
3809.000000	98.687776
3808.000000	98.695589
3807.000000	98.701575
3806.000000	98.703110
3805.000000	98.699677
3804.000000	98.693501
3803.000000	98.688345
3802.000000	98.688215
3801.000000	98.692884
3800.000000	98.697127
3799.000000	98.698426
3798.000000	98.698365
3797.000000	98.698335
3796.000000	98.698033
3795.000000	98.696379
3794.000000	98.693594
3793.000000	98.691439
3792.000000	98.691361
3791.000000	98.693300
3790.000000	98.696143
3789.000000	98.698730
3788.000000	98.700460
3787.000000	98.701056
3786.000000	98.700180
3785.000000	98.697764
3784.000000	98.694661
3783.000000	98.692632
3782.000000	98.693477
3781.000000	98.697763
3780.000000	98.703793
3779.000000	98.708013
3778.000000	98.707967
3777.000000	98.704972
3776.000000	98.702521
3775.000000	98.702515
3774.000000	98.703779
3773.000000	98.703698
3772.000000	98.701022
3771.000000	98.697362
3770.000000	98.695838
3769.000000	98.697841
3768.000000	98.702316
3767.000000	98.707787
3766.000000	98.713135
3765.000000	98.716844
3764.000000	98.717162
3763.000000	98.713134
3762.000000	98.705092
3761.000000	98.694627
3760.000000	98.684993
3759.000000	98.680319
3758.000000	98.682818
3757.000000	98.690914
3756.000000	98.700759
3755.000000	98.709076
3754.000000	98.714684
3753.000000	98.718261
3752.000000	98.720542
3751.000000	98.720758
3750.000000	98.717687
3749.000000	98.712711
3748.000000	98.709468
3747.000000	98.710585
3746.000000	98.717069
3745.000000	98.727422
3744.000000	98.735062
3743.000000	98.734858
3742.000000	98.730099
3741.000000	98.724749
3740.000000	98.718690
3739.000000	98.711498
3738.000000	98.704826
3737.000000	98.702135
3736.000000	98.706471
3735.000000	98.717142
3734.000000	98.729740
3733.000000	98.740489
3732.000000	98.748209
3731.000000	98.752717
3730.000000	98.753842
3729.000000	98.751597
3728.000000	98.746758
3727.000000	98.741137
3726.000000	98.736704
3725.000000	98.734351
3724.000000	98.733925
3723.000000	98.734888
3722.000000	98.736484
3721.000000	98.738151
3720.000000	98.740191
3719.000000	98.743333
3718.000000	98.747319
3717.000000	98.750416
3716.000000	98.750916
3715.000000	98.748776
3714.000000	98.745258
3713.000000	98.741616
3712.000000	98.738006
3711.000000	98.733653
3710.000000	98.728410
3709.000000	98.723676
3708.000000	98.720941
3707.000000	98.720408
3706.000000	98.721414
3705.000000	98.723381
3704.000000	98.726039
3703.000000	98.729097
3702.000000	98.732177
3701.000000	98.734977
3700.000000	98.737361
3699.000000	98.739042
3698.000000	98.739240
3697.000000	98.737087
3696.000000	98.732529
3695.000000	98.726784
3694.000000	98.722196
3693.000000	98.721833
3692.000000	98.728365
3691.000000	98.741617
3690.000000	98.755986
3689.000000	98.762553
3688.000000	98.757639
3687.000000	98.746944
3686.000000	98.737884
3685.000000	98.732648
3684.000000	98.729493
3683.000000	98.726286
3682.000000	98.722085
3681.000000	98.716721
3680.000000	98.709932
3679.000000	98.701206
3678.000000	98.690918
3677.000000	98.682102
3676.000000	98.679819
3675.000000	98.684619
3674.000000	98.690480
3673.000000	98.693975
3672.000000	98.695952
3671.000000	98.697321
3670.000000	98.697422
3669.000000	98.693759
3668.000000	98.685520
3667.000000	98.675227
3666.000000	98.665585
3665.000000	98.658304
3664.000000	98.654536
3663.000000	98.654136
3662.000000	98.655154
3661.000000	98.654909
3660.000000	98.651852
3659.000000	98.646103
3658.000000	98.638587
3657.000000	98.630386
3656.000000	98.622628
3655.000000	98.616458
3654.000000	98.612524
3653.000000	98.610160
3652.000000	98.607706
3651.000000	98.603949
3650.000000	98.599185
3649.000000	98.595186
3648.000000	98.593285
3647.000000	98.592185
3646.000000	98.589203
3645.000000	98.583496
3644.000000	98.577336
3643.000000	98.574334
3642.000000	98.575910
3641.000000	98.579354
3640.000000	98.580253
3639.000000	98.576393
3638.000000	98.568351
3637.000000	98.557224
3636.000000	98.543629
3635.000000	98.529010
3634.000000	98.516142
3633.000000	98.506998
3632.000000	98.501121
3631.000000	98.497106
3630.000000	98.494837
3629.000000	98.494187
3628.000000	98.492203
3627.000000	98.486498
3626.000000	98.478413
3625.000000	98.469367
3624.000000	98.459943
3623.000000	98.451019
3622.000000	98.443362
3621.000000	98.436882
3620.000000	98.430639
3619.000000	98.423876
3618.000000	98.417125
3617.000000	98.411707
3616.000000	98.407592
3615.000000	98.402288
3614.000000	98.392549
3613.000000	98.377373
3612.000000	98.359356
3611.000000	98.342388
3610.000000	98.328745
3609.000000	98.319208
3608.000000	98.314437
3607.000000	98.314442
3606.000000	98.317533
3605.000000	98.321007
3604.000000	98.322783
3603.000000	98.322035
3602.000000	98.318759
3601.000000	98.313140
3600.000000	98.305404
3599.000000	98.295903
3598.000000	98.284845
3597.000000	98.272131
3596.000000	98.257928
3595.000000	98.243362
3594.000000	98.229921
3593.000000	98.218204
3592.000000	98.207527
3591.000000	98.197010
3590.000000	98.186747
3589.000000	98.177842
3588.000000	98.170642
3587.000000	98.163240
3586.000000	98.153754
3585.000000	98.143069
3584.000000	98.133229
3583.000000	98.124711
3582.000000	98.116392
3581.000000	98.107132
3580.000000	98.096971
3579.000000	98.086804
3578.000000	98.077252
3577.000000	98.068405
3576.000000	98.060047
3575.000000	98.051333
3574.000000	98.040382
3573.000000	98.025492
3572.000000	98.007127
3571.000000	97.987962
3570.000000	97.970853
3569.000000	97.957269
3568.000000	97.947234
3567.000000	97.939862
3566.000000	97.933467
3565.000000	97.925815
3564.000000	97.915159
3563.000000	97.901463
3562.000000	97.886926
3561.000000	97.874576
3560.000000	97.865559
3559.000000	97.857902
3558.000000	97.848385
3557.000000	97.835210
3556.000000	97.818645
3555.000000	97.799915
3554.000000	97.780456
3553.000000	97.762200
3552.000000	97.747523
3551.000000	97.737855
3550.000000	97.732655
3549.000000	97.730344
3548.000000	97.729648
3547.000000	97.729616
3546.000000	97.728745
3545.000000	97.724995
3544.000000	97.716869
3543.000000	97.703892
3542.000000	97.686311
3541.000000	97.665283
3540.000000	97.643339
3539.000000	97.623757
3538.000000	97.608681
3537.000000	97.597746
3536.000000	97.588574
3535.000000	97.578732
3534.000000	97.567316
3533.000000	97.555103
3532.000000	97.543728
3531.000000	97.534496
3530.000000	97.527314
3529.000000	97.520611
3528.000000	97.512575
3527.000000	97.502445
3526.000000	97.490467
3525.000000	97.476954
3524.000000	97.462047
3523.000000	97.446404
3522.000000	97.431417
3521.000000	97.418196
3520.000000	97.406503
3519.000000	97.395033
3518.000000	97.382771
3517.000000	97.370018
3516.000000	97.357957
3515.000000	97.347331
3514.000000	97.337796
3513.000000	97.328503
3512.000000	97.319012
3511.000000	97.309575
3510.000000	97.300852
3509.000000	97.293449
3508.000000	97.287469
3507.000000	97.282245
3506.000000	97.276640
3505.000000	97.269804
3504.000000	97.261724
3503.000000	97.253030
3502.000000	97.244423
3501.000000	97.236392
3500.000000	97.229144
3499.000000	97.222500
3498.000000	97.215880
3497.000000	97.208365
3496.000000	97.198687
3495.000000	97.185486
3494.000000	97.168241
3493.000000	97.148261
3492.000000	97.128392
3491.000000	97.111551
3490.000000	97.099529
3489.000000	97.092663
3488.000000	97.089638
3487.000000	97.087263
3486.000000	97.081608
3485.000000	97.070474
3484.000000	97.054786
3483.000000	97.037614
3482.000000	97.022190
3481.000000	97.010672
3480.000000	97.003831
3479.000000	97.000853
3478.000000	96.999719
3477.000000	96.998544
3476.000000	96.996678
3475.000000	96.994305
3474.000000	96.991269
3473.000000	96.986737
3472.000000	96.979550
3471.000000	96.968406
3470.000000	96.952478
3469.000000	96.932963
3468.000000	96.913664
3467.000000	96.898726
3466.000000	96.889426
3465.000000	96.883951
3464.000000	96.879975
3463.000000	96.876310
3462.000000	96.872047
3461.000000	96.865675
3460.000000	96.856091
3459.000000	96.843860
3458.000000	96.830719
3457.000000	96.818159
3456.000000	96.806878
3455.000000	96.797116
3454.000000	96.788882
3453.000000	96.781938
3452.000000	96.776073
3451.000000	96.771552
3450.000000	96.769027
3449.000000	96.768653
3448.000000	96.769159
3447.000000	96.767974
3446.000000	96.762769
3445.000000	96.752919
3444.000000	96.739401
3443.000000	96.723973
3442.000000	96.709057
3441.000000	96.697626
3440.000000	96.691641
3439.000000	96.690123
3438.000000	96.689462
3437.000000	96.686256
3436.000000	96.679627
3435.000000	96.670766
3434.000000	96.661189
3433.000000	96.651918
3432.000000	96.643339
3431.000000	96.634820
3430.000000	96.625144
3429.000000	96.614248
3428.000000	96.603968
3427.000000	96.595924
3426.000000	96.589279
3425.000000	96.581823
3424.000000	96.572940
3423.000000	96.564081
3422.000000	96.556314
3421.000000	96.548811
3420.000000	96.540183
3419.000000	96.530153
3418.000000	96.519234
3417.000000	96.507694
3416.000000	96.495647
3415.000000	96.483739
3414.000000	96.473212
3413.000000	96.465251
3412.000000	96.459954
3411.000000	96.455516
3410.000000	96.448987
3409.000000	96.438996
3408.000000	96.427676
3407.000000	96.418670
3406.000000	96.412967
3405.000000	96.407763
3404.000000	96.399761
3403.000000	96.388626
3402.000000	96.376647
3401.000000	96.366106
3400.000000	96.357751
3399.000000	96.350837
3398.000000	96.343519
3397.000000	96.333699
3396.000000	96.320710
3395.000000	96.306289
3394.000000	96.293279
3393.000000	96.283226
3392.000000	96.275414
3391.000000	96.268025
3390.000000	96.259888
3389.000000	96.251154
3388.000000	96.242768
3387.000000	96.235424
3386.000000	96.228838
3385.000000	96.221898
3384.000000	96.213461
3383.000000	96.202968
3382.000000	96.190590
3381.000000	96.177297
3380.000000	96.164728
3379.000000	96.154244
3378.000000	96.145652
3377.000000	96.137170
3376.000000	96.126966
3375.000000	96.114674
3374.000000	96.101396
3373.000000	96.088626
3372.000000	96.077274
3371.000000	96.067253
3370.000000	96.057422
3369.000000	96.046000
3368.000000	96.031560
3367.000000	96.014125
3366.000000	95.995553
3365.000000	95.978793
3364.000000	95.966116
3363.000000	95.957299
3362.000000	95.949367
3361.000000	95.938645
3360.000000	95.923662
3359.000000	95.906167
3358.000000	95.889215
3357.000000	95.874325
3356.000000	95.860466
3355.000000	95.845548
3354.000000	95.828593
3353.000000	95.810387
3352.000000	95.792354
3351.000000	95.775260
3350.000000	95.759128
3349.000000	95.743747
3348.000000	95.728693
3347.000000	95.713187
3346.000000	95.696755
3345.000000	95.679993
3344.000000	95.663823
3343.000000	95.647900
3342.000000	95.630870
3341.000000	95.612710
3340.000000	95.595706
3339.000000	95.582205
3338.000000	95.571933
3337.000000	95.562209
3336.000000	95.550283
3335.000000	95.534821
3334.000000	95.515949
3333.000000	95.495134
3332.000000	95.474919
3331.000000	95.457570
3330.000000	95.443541
3329.000000	95.431426
3328.000000	95.419111
3327.000000	95.404797
3326.000000	95.387831
3325.000000	95.369615
3324.000000	95.353206
3323.000000	95.340817
3322.000000	95.331613
3321.000000	95.322629
3320.000000	95.311384
3319.000000	95.296992
3318.000000	95.279639
3317.000000	95.260473
3316.000000	95.241819
3315.000000	95.225911
3314.000000	95.213013
3313.000000	95.201722
3312.000000	95.191008
3311.000000	95.180836
3310.000000	95.170930
3309.000000	95.160489
3308.000000	95.149648
3307.000000	95.139755
3306.000000	95.131281
3305.000000	95.122409
3304.000000	95.110578
3303.000000	95.095129
3302.000000	95.078073
3301.000000	95.062675
3300.000000	95.051441
3299.000000	95.044700
3298.000000	95.040489
3297.000000	95.036058
3296.000000	95.029785
3295.000000	95.021659
3294.000000	95.012351
3293.000000	95.002707
3292.000000	94.993891
3291.000000	94.986870
3290.000000	94.981521
3289.000000	94.977005
3288.000000	94.973214
3287.000000	94.970944
3286.000000	94.970551
3285.000000	94.971431
3284.000000	94.972866
3283.000000	94.974310
3282.000000	94.974718
3281.000000	94.973134
3280.000000	94.970818
3279.000000	94.971292
3278.000000	94.976934
3277.000000	94.986083
3276.000000	94.994660
3275.000000	95.000570
3274.000000	95.005383
3273.000000	95.011901
3272.000000	95.020909
3271.000000	95.030387
3270.000000	95.037410
3269.000000	95.040770
3268.000000	95.042107
3267.000000	95.044477
3266.000000	95.049659
3265.000000	95.057053
3264.000000	95.065296
3263.000000	95.074141
3262.000000	95.084191
3261.000000	95.095369
3260.000000	95.106630
3259.000000	95.117286
3258.000000	95.128144
3257.000000	95.141094
3256.000000	95.157530
3255.000000	95.176932
3254.000000	95.196922
3253.000000	95.215044
3252.000000	95.230563
3251.000000	95.244281
3250.000000	95.256868
3249.000000	95.268205
3248.000000	95.278447
3247.000000	95.288386
3246.000000	95.297977
3245.000000	95.305393
3244.000000	95.309045
3243.000000	95.310337
3242.000000	95.313082
3241.000000	95.320001
3240.000000	95.330679
3239.000000	95.343232
3238.000000	95.356889
3237.000000	95.372075
3236.000000	95.388453
3235.000000	95.404158
3234.000000	95.417333
3233.000000	95.427510
3232.000000	95.434892
3231.000000	95.438996
3230.000000	95.439384
3229.000000	95.437922
3228.000000	95.439019
3227.000000	95.446281
3226.000000	95.459015
3225.000000	95.472743
3224.000000	95.483116
3223.000000	95.489166
3222.000000	95.493306
3221.000000	95.499053
3220.000000	95.508402
3219.000000	95.520031
3218.000000	95.529912
3217.000000	95.534747
3216.000000	95.535337
3215.000000	95.536032
3214.000000	95.540261
3213.000000	95.547359
3212.000000	95.554379
3211.000000	95.560225
3210.000000	95.566844
3209.000000	95.576344
3208.000000	95.588098
3207.000000	95.599187
3206.000000	95.607401
3205.000000	95.613279
3204.000000	95.619311
3203.000000	95.627449
3202.000000	95.637549
3201.000000	95.648066
3200.000000	95.657760
3199.000000	95.666627
3198.000000	95.675498
3197.000000	95.685041
3196.000000	95.694866
3195.000000	95.703468
3194.000000	95.709741
3193.000000	95.715074
3192.000000	95.723344
3191.000000	95.737545
3190.000000	95.756401
3189.000000	95.775101
3188.000000	95.789611
3187.000000	95.799625
3186.000000	95.807725
3185.000000	95.816909
3184.000000	95.829035
3183.000000	95.844086
3182.000000	95.859768
3181.000000	95.872589
3180.000000	95.880515
3179.000000	95.884727
3178.000000	95.888754
3177.000000	95.896153
3176.000000	95.909054
3175.000000	95.927466
3174.000000	95.948885
3173.000000	95.969094
3172.000000	95.984710
3171.000000	95.995383
3170.000000	96.003107
3169.000000	96.009942
3168.000000	96.017009
3167.000000	96.025162
3166.000000	96.035221
3165.000000	96.047141
3164.000000	96.059819
3163.000000	96.072270
3162.000000	96.084646
3161.000000	96.097663
3160.000000	96.111277
3159.000000	96.124419
3158.000000	96.136165
3157.000000	96.146897
3156.000000	96.158110
3155.000000	96.171031
3154.000000	96.185620
3153.000000	96.200814
3152.000000	96.215244
3151.000000	96.227422
3150.000000	96.236022
3149.000000	96.241221
3148.000000	96.245763
3147.000000	96.253459
3146.000000	96.265756
