PE IR       SUBTECH     SPECTRUM    ASCII       PEDS        4.00        
   -1
3C-YYX-F018_1.ASC
23/09/07
11:07:16.00
23/09/07
11:30:09.00
uco
Sample 018 By uco Date Thursday, September 07 2023
450.000000
#HDR
-1
-1
#GR
cm-1
%T
1.0
0.0
4000.000000
-1.000000
3551
8
98.757858
81.463216
#DATA
4000.000000	98.665356
3999.000000	98.664735
3998.000000	98.664189
3997.000000	98.664308
3996.000000	98.664197
3995.000000	98.662604
3994.000000	98.658970
3993.000000	98.653903
3992.000000	98.648712
3991.000000	98.644592
3990.000000	98.642044
3989.000000	98.640853
3988.000000	98.640441
3987.000000	98.640222
3986.000000	98.639692
3985.000000	98.638556
3984.000000	98.637025
3983.000000	98.635957
3982.000000	98.636354
3981.000000	98.638450
3980.000000	98.641286
3979.000000	98.643181
3978.000000	98.642810
3977.000000	98.640122
3976.000000	98.636505
3975.000000	98.634145
3974.000000	98.634739
3973.000000	98.638375
3972.000000	98.643380
3971.000000	98.647351
3970.000000	98.648755
3969.000000	98.647685
3968.000000	98.645271
3967.000000	98.642467
3966.000000	98.639433
3965.000000	98.636068
3964.000000	98.632863
3963.000000	98.630871
3962.000000	98.630681
3961.000000	98.631517
3960.000000	98.631546
3959.000000	98.629291
3958.000000	98.624965
3957.000000	98.620481
3956.000000	98.618056
3955.000000	98.618548
3954.000000	98.620892
3953.000000	98.623218
3952.000000	98.624581
3951.000000	98.625513
3950.000000	98.626887
3949.000000	98.628505
3948.000000	98.629257
3947.000000	98.628509
3946.000000	98.626684
3945.000000	98.624541
3944.000000	98.622712
3943.000000	98.621958
3942.000000	98.623047
3941.000000	98.626263
3940.000000	98.630769
3939.000000	98.634392
3938.000000	98.634521
3937.000000	98.629428
3936.000000	98.619567
3935.000000	98.608173
3934.000000	98.600527
3933.000000	98.601466
3932.000000	98.611267
3931.000000	98.624024
3930.000000	98.631812
3929.000000	98.630845
3928.000000	98.623627
3927.000000	98.616195
3926.000000	98.613726
3925.000000	98.617272
3924.000000	98.623440
3923.000000	98.627790
3922.000000	98.628326
3921.000000	98.625267
3920.000000	98.619191
3919.000000	98.610807
3918.000000	98.602510
3917.000000	98.598645
3916.000000	98.602319
3915.000000	98.612051
3914.000000	98.622433
3913.000000	98.628181
3912.000000	98.627116
3911.000000	98.620808
3910.000000	98.612972
3909.000000	98.606762
3908.000000	98.603254
3907.000000	98.601545
3906.000000	98.600205
3905.000000	98.598838
3904.000000	98.598301
3903.000000	98.599413
3902.000000	98.602004
3901.000000	98.605050
3900.000000	98.607708
3899.000000	98.609760
3898.000000	98.611247
3897.000000	98.612354
3896.000000	98.613115
3895.000000	98.613365
3894.000000	98.613225
3893.000000	98.613678
3892.000000	98.616271
3891.000000	98.621388
3890.000000	98.627462
3889.000000	98.632228
3888.000000	98.633504
3887.000000	98.630591
3886.000000	98.625813
3885.000000	98.622144
3884.000000	98.619921
3883.000000	98.617591
3882.000000	98.614458
3881.000000	98.611514
3880.000000	98.609885
3879.000000	98.609630
3878.000000	98.610419
3877.000000	98.611352
3876.000000	98.611473
3875.000000	98.611490
3874.000000	98.612858
3873.000000	98.615258
3872.000000	98.617018
3871.000000	98.617993
3870.000000	98.620003
3869.000000	98.623921
3868.000000	98.628597
3867.000000	98.632340
3866.000000	98.633785
3865.000000	98.632678
3864.000000	98.629533
3863.000000	98.625129
3862.000000	98.620665
3861.000000	98.617501
3860.000000	98.616395
3859.000000	98.617381
3858.000000	98.619790
3857.000000	98.621193
3856.000000	98.617335
3855.000000	98.605949
3854.000000	98.594083
3853.000000	98.591919
3852.000000	98.596816
3851.000000	98.601447
3850.000000	98.604492
3849.000000	98.606954
3848.000000	98.609619
3847.000000	98.611838
3846.000000	98.612397
3845.000000	98.610813
3844.000000	98.608182
3843.000000	98.607050
3842.000000	98.610094
3841.000000	98.618687
3840.000000	98.632041
3839.000000	98.646379
3838.000000	98.656017
3837.000000	98.657740
3836.000000	98.653986
3835.000000	98.649989
3834.000000	98.648758
3833.000000	98.649390
3832.000000	98.648814
3831.000000	98.644538
3830.000000	98.636665
3829.000000	98.627535
3828.000000	98.619838
3827.000000	98.615263
3826.000000	98.613494
3825.000000	98.612689
3824.000000	98.611571
3823.000000	98.611585
3822.000000	98.616601
3821.000000	98.626448
3820.000000	98.632983
3819.000000	98.631209
3818.000000	98.625237
3817.000000	98.621265
3816.000000	98.622799
3815.000000	98.627312
3814.000000	98.629712
3813.000000	98.628757
3812.000000	98.626382
3811.000000	98.624446
3810.000000	98.623185
3809.000000	98.621818
3808.000000	98.620596
3807.000000	98.621337
3806.000000	98.624655
3805.000000	98.629349
3804.000000	98.634409
3803.000000	98.640067
3802.000000	98.647178
3801.000000	98.653152
3800.000000	98.652426
3799.000000	98.644800
3798.000000	98.635108
3797.000000	98.627696
3796.000000	98.623774
3795.000000	98.621300
3794.000000	98.617981
3793.000000	98.613759
3792.000000	98.610418
3791.000000	98.609737
3790.000000	98.612023
3789.000000	98.615895
3788.000000	98.619711
3787.000000	98.622731
3786.000000	98.624890
3785.000000	98.625873
3784.000000	98.625031
3783.000000	98.622546
3782.000000	98.620243
3781.000000	98.620823
3780.000000	98.625632
3779.000000	98.632363
3778.000000	98.636327
3777.000000	98.635341
3776.000000	98.631139
3775.000000	98.626763
3774.000000	98.623984
3773.000000	98.622302
3772.000000	98.620037
3771.000000	98.617018
3770.000000	98.615689
3769.000000	98.618581
3768.000000	98.625889
3767.000000	98.635412
3766.000000	98.643412
3765.000000	98.646142
3764.000000	98.642057
3763.000000	98.632500
3762.000000	98.620683
3761.000000	98.610987
3760.000000	98.607777
3759.000000	98.612335
3758.000000	98.621814
3757.000000	98.632536
3756.000000	98.642480
3755.000000	98.650773
3754.000000	98.657235
3753.000000	98.662911
3752.000000	98.669051
3751.000000	98.673344
3750.000000	98.670282
3749.000000	98.660637
3748.000000	98.652749
3747.000000	98.652041
3746.000000	98.657384
3745.000000	98.663962
3744.000000	98.665988
3743.000000	98.662344
3742.000000	98.657200
3741.000000	98.653039
3740.000000	98.649714
3739.000000	98.646886
3738.000000	98.645221
3737.000000	98.647313
3736.000000	98.655677
3735.000000	98.667503
3734.000000	98.675461
3733.000000	98.676418
3732.000000	98.673253
3731.000000	98.669157
3730.000000	98.664716
3729.000000	98.659192
3728.000000	98.653019
3727.000000	98.648365
3726.000000	98.646851
3725.000000	98.647640
3724.000000	98.649113
3723.000000	98.651047
3722.000000	98.653318
3721.000000	98.654770
3720.000000	98.654571
3719.000000	98.653477
3718.000000	98.653303
3717.000000	98.655308
3716.000000	98.659152
3715.000000	98.663152
3714.000000	98.665217
3713.000000	98.665023
3712.000000	98.665216
3711.000000	98.667808
3710.000000	98.670333
3709.000000	98.669590
3708.000000	98.666047
3707.000000	98.662324
3706.000000	98.660164
3705.000000	98.659335
3704.000000	98.658326
3703.000000	98.655907
3702.000000	98.652831
3701.000000	98.651452
3700.000000	98.653445
3699.000000	98.657498
3698.000000	98.659522
3697.000000	98.655698
3696.000000	98.645416
3695.000000	98.631653
3694.000000	98.619543
3693.000000	98.614981
3692.000000	98.622569
3691.000000	98.641856
3690.000000	98.663801
3689.000000	98.674571
3688.000000	98.668418
3687.000000	98.653420
3686.000000	98.639931
3685.000000	98.631120
3684.000000	98.625214
3683.000000	98.619548
3682.000000	98.612747
3681.000000	98.604905
3680.000000	98.596923
3679.000000	98.588979
3678.000000	98.579845
3677.000000	98.569682
3676.000000	98.563442
3675.000000	98.564326
3674.000000	98.568626
3673.000000	98.574465
3672.000000	98.581950
3671.000000	98.589298
3670.000000	98.592934
3669.000000	98.588063
3668.000000	98.574966
3667.000000	98.560275
3666.000000	98.549108
3665.000000	98.542535
3664.000000	98.539621
3663.000000	98.538361
3662.000000	98.536548
3661.000000	98.533247
3660.000000	98.529530
3659.000000	98.526910
3658.000000	98.525321
3657.000000	98.523219
3656.000000	98.519613
3655.000000	98.515869
3654.000000	98.514348
3653.000000	98.515150
3652.000000	98.515531
3651.000000	98.511897
3650.000000	98.502321
3649.000000	98.488214
3648.000000	98.473243
3647.000000	98.460109
3646.000000	98.449571
3645.000000	98.441454
3644.000000	98.435571
3643.000000	98.431735
3642.000000	98.429251
3641.000000	98.426560
3640.000000	98.422154
3639.000000	98.415669
3638.000000	98.407370
3637.000000	98.397243
3636.000000	98.385430
3635.000000	98.373374
3634.000000	98.363320
3633.000000	98.355873
3632.000000	98.348952
3631.000000	98.340257
3630.000000	98.331272
3629.000000	98.326577
3628.000000	98.325262
3627.000000	98.322105
3626.000000	98.316079
3625.000000	98.308066
3624.000000	98.299259
3623.000000	98.291246
3622.000000	98.284651
3621.000000	98.278555
3620.000000	98.271040
3619.000000	98.260130
3618.000000	98.245768
3617.000000	98.231112
3616.000000	98.219593
3615.000000	98.211510
3614.000000	98.204389
3613.000000	98.195257
3612.000000	98.183208
3611.000000	98.169624
3610.000000	98.155557
3609.000000	98.141368
3608.000000	98.128506
3607.000000	98.119095
3606.000000	98.113989
3605.000000	98.112024
3604.000000	98.111182
3603.000000	98.109773
3602.000000	98.106802
3601.000000	98.101826
3600.000000	98.094850
3599.000000	98.085899
3598.000000	98.074430
3597.000000	98.059527
3596.000000	98.041365
3595.000000	98.022680
3594.000000	98.007171
3593.000000	97.996288
3592.000000	97.988299
3591.000000	97.980594
3590.000000	97.971791
3589.000000	97.962290
3588.000000	97.952566
3587.000000	97.941243
3586.000000	97.927201
3585.000000	97.912389
3584.000000	97.899427
3583.000000	97.888673
3582.000000	97.878969
3581.000000	97.869202
3580.000000	97.858910
3579.000000	97.848282
3578.000000	97.837968
3577.000000	97.828669
3576.000000	97.820073
3575.000000	97.810351
3574.000000	97.797221
3573.000000	97.780083
3572.000000	97.760715
3571.000000	97.741604
3570.000000	97.724048
3569.000000	97.708355
3568.000000	97.695093
3567.000000	97.684611
3566.000000	97.675585
3565.000000	97.666278
3564.000000	97.656231
3563.000000	97.645695
3562.000000	97.635363
3561.000000	97.626146
3560.000000	97.617881
3559.000000	97.608351
3558.000000	97.594782
3557.000000	97.576712
3556.000000	97.556776
3555.000000	97.538279
3554.000000	97.522430
3553.000000	97.508178
3552.000000	97.494479
3551.000000	97.481741
3550.000000	97.470677
3549.000000	97.460843
3548.000000	97.450949
3547.000000	97.440222
3546.000000	97.428972
3545.000000	97.418112
3544.000000	97.408192
3543.000000	97.398728
3542.000000	97.388292
3541.000000	97.375628
3540.000000	97.360785
3539.000000	97.345041
3538.000000	97.329777
3537.000000	97.315552
3536.000000	97.301991
3535.000000	97.288262
3534.000000	97.273815
3533.000000	97.259282
3532.000000	97.246664
3531.000000	97.237889
3530.000000	97.232654
3529.000000	97.228054
3528.000000	97.221022
3527.000000	97.210682
3526.000000	97.197828
3525.000000	97.182923
3524.000000	97.165710
3523.000000	97.146561
3522.000000	97.127202
3521.000000	97.109781
3520.000000	97.095492
3519.000000	97.084040
3518.000000	97.073974
3517.000000	97.063665
3516.000000	97.052402
3515.000000	97.040711
3514.000000	97.029549
3513.000000	97.019321
3512.000000	97.009756
3511.000000	97.000401
3510.000000	96.990830
3509.000000	96.980684
3508.000000	96.970175
3507.000000	96.960426
3506.000000	96.952643
3505.000000	96.946677
3504.000000	96.940621
3503.000000	96.932275
3502.000000	96.921175
3501.000000	96.908535
3500.000000	96.895116
3499.000000	96.880385
3498.000000	96.864354
3497.000000	96.849243
3496.000000	96.837784
3495.000000	96.829804
3494.000000	96.821897
3493.000000	96.811129
3492.000000	96.798051
3491.000000	96.785483
3490.000000	96.775275
3489.000000	96.767051
3488.000000	96.759414
3487.000000	96.751071
3486.000000	96.740920
3485.000000	96.728378
3484.000000	96.714160
3483.000000	96.700123
3482.000000	96.687701
3481.000000	96.676818
3480.000000	96.666872
3479.000000	96.658193
3478.000000	96.651541
3477.000000	96.646145
3476.000000	96.639125
3475.000000	96.627705
3474.000000	96.612358
3473.000000	96.597052
3472.000000	96.585637
3471.000000	96.578069
3470.000000	96.570806
3469.000000	96.560737
3468.000000	96.548010
3467.000000	96.534999
3466.000000	96.523501
3465.000000	96.513724
3464.000000	96.505095
3463.000000	96.496892
3462.000000	96.488243
3461.000000	96.478480
3460.000000	96.467637
3459.000000	96.456161
3458.000000	96.444360
3457.000000	96.432624
3456.000000	96.421932
3455.000000	96.413451
3454.000000	96.407443
3453.000000	96.403061
3452.000000	96.399277
3451.000000	96.395937
3450.000000	96.394047
3449.000000	96.394874
3448.000000	96.397930
3447.000000	96.399470
3446.000000	96.394323
3445.000000	96.380463
3444.000000	96.361094
3443.000000	96.341959
3442.000000	96.327171
3441.000000	96.317402
3440.000000	96.310869
3439.000000	96.305050
3438.000000	96.298007
3437.000000	96.289441
3436.000000	96.280797
3435.000000	96.273773
3434.000000	96.268609
3433.000000	96.264079
3432.000000	96.258517
3431.000000	96.250273
3430.000000	96.238121
3429.000000	96.222625
3428.000000	96.206830
3427.000000	96.194153
3426.000000	96.185473
3425.000000	96.179109
3424.000000	96.173281
3423.000000	96.167248
3422.000000	96.160149
3421.000000	96.150718
3420.000000	96.139063
3419.000000	96.127411
3418.000000	96.117863
3417.000000	96.110173
3416.000000	96.102477
3415.000000	96.093587
3414.000000	96.083928
3413.000000	96.074564
3412.000000	96.065726
3411.000000	96.056185
3410.000000	96.044150
3409.000000	96.029382
3408.000000	96.014442
3407.000000	96.002806
3406.000000	95.995389
3405.000000	95.989669
3404.000000	95.982592
3403.000000	95.973573
3402.000000	95.964064
3401.000000	95.955121
3400.000000	95.946354
3399.000000	95.936860
3398.000000	95.926264
3397.000000	95.914830
3396.000000	95.903112
3395.000000	95.891573
3394.000000	95.880311
3393.000000	95.869181
3392.000000	95.858194
3391.000000	95.847481
3390.000000	95.836850
3389.000000	95.825897
3388.000000	95.814755
3387.000000	95.804246
3386.000000	95.794938
3385.000000	95.786378
3384.000000	95.777618
3383.000000	95.768180
3382.000000	95.758251
3381.000000	95.748297
3380.000000	95.738815
3379.000000	95.730132
3378.000000	95.722088
3377.000000	95.714055
3376.000000	95.705395
3375.000000	95.695606
3374.000000	95.684081
3373.000000	95.670398
3372.000000	95.655207
3371.000000	95.640292
3370.000000	95.627203
3369.000000	95.615916
3368.000000	95.605103
3367.000000	95.593425
3366.000000	95.580312
3365.000000	95.565977
3364.000000	95.551293
3363.000000	95.537412
3362.000000	95.524770
3361.000000	95.512331
3360.000000	95.498272
3359.000000	95.481672
3358.000000	95.463264
3357.000000	95.444417
3356.000000	95.425706
3355.000000	95.406840
3354.000000	95.387784
3353.000000	95.369341
3352.000000	95.352338
3351.000000	95.336621
3350.000000	95.321341
3349.000000	95.306088
3348.000000	95.291198
3347.000000	95.276771
3346.000000	95.261900
3345.000000	95.245265
3344.000000	95.226457
3343.000000	95.206685
3342.000000	95.188302
3341.000000	95.173467
3340.000000	95.162623
3339.000000	95.153955
3338.000000	95.144613
3337.000000	95.132737
3336.000000	95.118250
3335.000000	95.101963
3334.000000	95.084613
3333.000000	95.066869
3332.000000	95.049398
3331.000000	95.032412
3330.000000	95.015824
3329.000000	95.000129
3328.000000	94.986284
3327.000000	94.974145
3326.000000	94.961866
3325.000000	94.947738
3324.000000	94.932054
3323.000000	94.916349
3322.000000	94.901405
3321.000000	94.887050
3320.000000	94.873217
3319.000000	94.860001
3318.000000	94.846953
3317.000000	94.833496
3316.000000	94.820043
3315.000000	94.807706
3314.000000	94.796728
3313.000000	94.785954
3312.000000	94.773784
3311.000000	94.759082
3310.000000	94.741679
3309.000000	94.723101
3308.000000	94.706565
3307.000000	94.694797
3306.000000	94.687481
3305.000000	94.681548
3304.000000	94.673834
3303.000000	94.662866
3302.000000	94.648757
3301.000000	94.633161
3300.000000	94.619510
3299.000000	94.611252
3298.000000	94.608360
3297.000000	94.606366
3296.000000	94.599981
3295.000000	94.587651
3294.000000	94.572197
3293.000000	94.557638
3292.000000	94.546087
3291.000000	94.537221
3290.000000	94.529840
3289.000000	94.523572
3288.000000	94.519159
3287.000000	94.517150
3286.000000	94.516702
3285.000000	94.516160
3284.000000	94.514592
3283.000000	94.512309
3282.000000	94.510156
3281.000000	94.509132
3280.000000	94.510726
3279.000000	94.516275
3278.000000	94.525350
3277.000000	94.535471
3276.000000	94.544270
3275.000000	94.551838
3274.000000	94.560313
3273.000000	94.571348
3272.000000	94.584192
3271.000000	94.595975
3270.000000	94.603783
3269.000000	94.606940
3268.000000	94.607846
3267.000000	94.610575
3266.000000	94.618359
3265.000000	94.632028
3264.000000	94.650171
3263.000000	94.669985
3262.000000	94.688229
3261.000000	94.702616
3260.000000	94.713235
3259.000000	94.722441
3258.000000	94.733119
3257.000000	94.747198
3256.000000	94.765440
3255.000000	94.787544
3254.000000	94.811796
3253.000000	94.835365
3252.000000	94.855877
3251.000000	94.872777
3250.000000	94.886980
3249.000000	94.899542
3248.000000	94.911124
3247.000000	94.922245
3246.000000	94.933274
3245.000000	94.943946
3244.000000	94.953457
3243.000000	94.961473
3242.000000	94.968948
3241.000000	94.977736
3240.000000	94.989354
3239.000000	95.004097
3238.000000	95.021099
3237.000000	95.038909
3236.000000	95.055970
3235.000000	95.071216
3234.000000	95.084766
3233.000000	95.097645
3232.000000	95.109894
3231.000000	95.119109
3230.000000	95.122227
3229.000000	95.119542
3228.000000	95.116226
3227.000000	95.118790
3226.000000	95.130017
3225.000000	95.147666
3224.000000	95.167094
3223.000000	95.184353
3222.000000	95.197674
3221.000000	95.207655
3220.000000	95.216428
3219.000000	95.225604
3218.000000	95.234743
3217.000000	95.242324
3216.000000	95.247792
3215.000000	95.251713
3214.000000	95.254172
3213.000000	95.254743
3212.000000	95.254586
3211.000000	95.257259
3210.000000	95.266037
3209.000000	95.280533
3208.000000	95.296692
3207.000000	95.310196
3206.000000	95.319658
3205.000000	95.326685
3204.000000	95.333667
3203.000000	95.341816
3202.000000	95.351247
3201.000000	95.362058
3200.000000	95.374328
3199.000000	95.386904
3198.000000	95.397443
3197.000000	95.404639
3196.000000	95.409969
3195.000000	95.416281
3194.000000	95.425180
3193.000000	95.436741
3192.000000	95.451177
3191.000000	95.469136
3190.000000	95.489995
3189.000000	95.511053
3188.000000	95.529103
3187.000000	95.542461
3186.000000	95.551698
3185.000000	95.559324
3184.000000	95.568619
3183.000000	95.581467
3182.000000	95.596644
3181.000000	95.611006
3180.000000	95.622707
3179.000000	95.632517
3178.000000	95.642004
3177.000000	95.651714
3176.000000	95.661978
3175.000000	95.674181
3174.000000	95.689681
3173.000000	95.707644
3172.000000	95.724943
3171.000000	95.738487
3170.000000	95.747472
3169.000000	95.753884
3168.000000	95.761432
3167.000000	95.773398
3166.000000	95.790408
3165.000000	95.809690
3164.000000	95.826973
3163.000000	95.839490
3162.000000	95.847699
3161.000000	95.854762
3160.000000	95.864697
3159.000000	95.880235
3158.000000	95.900986
3157.000000	95.923140
3156.000000	95.941601
3155.000000	95.953804
3154.000000	95.961954
3153.000000	95.971266
3152.000000	95.985117
3151.000000	96.001776
3150.000000	96.016183
3149.000000	96.025189
3148.000000	96.030568
3147.000000	96.036860
3146.000000	96.046868
