PE IR       SUBTECH     SPECTRUM    ASCII       PEDS        4.00        
   -1
3C-XXX-F005_1.ASC
23/09/07
10:40:16.00
23/09/07
11:30:09.00
uco
Sample 005 By uco Date Thursday, September 07 2023
450.000000
#HDR
-1
-1
#GR
cm-1
%T
1.0
0.0
4000.000000
-1.000000
3551
8
99.113971
90.823687
#DATA
4000.000000	99.029014
3999.000000	99.028203
3998.000000	99.025748
3997.000000	99.023023
3996.000000	99.021311
3995.000000	99.021472
3994.000000	99.023421
3993.000000	99.026003
3992.000000	99.027647
3991.000000	99.027299
3990.000000	99.024823
3989.000000	99.020694
3988.000000	99.015547
3987.000000	99.009885
3986.000000	99.004065
3985.000000	98.998635
3984.000000	98.994915
3983.000000	98.994998
3982.000000	99.000421
3981.000000	99.010249
3980.000000	99.020646
3979.000000	99.026901
3978.000000	99.026324
3977.000000	99.019563
3976.000000	99.009633
3975.000000	99.000106
3974.000000	98.993879
3973.000000	98.992622
3972.000000	98.996280
3971.000000	99.002687
3970.000000	99.008343
3969.000000	99.010227
3968.000000	99.007565
3967.000000	99.002031
3966.000000	98.996245
3965.000000	98.992180
3964.000000	98.990467
3963.000000	98.990738
3962.000000	98.992235
3961.000000	98.994062
3960.000000	98.995282
3959.000000	98.995170
3958.000000	98.993692
3957.000000	98.991709
3956.000000	98.990428
3955.000000	98.990497
3954.000000	98.991602
3953.000000	98.993058
3952.000000	98.994689
3951.000000	98.996885
3950.000000	98.999768
3949.000000	99.002500
3948.000000	99.003700
3947.000000	99.002438
3946.000000	98.998746
3945.000000	98.993570
3944.000000	98.988797
3943.000000	98.986990
3942.000000	98.989866
3941.000000	98.996480
3940.000000	99.003290
3939.000000	99.006246
3938.000000	99.003297
3937.000000	98.995460
3936.000000	98.985960
3935.000000	98.978571
3934.000000	98.976373
3933.000000	98.981051
3932.000000	98.991763
3931.000000	99.004389
3930.000000	99.013298
3929.000000	99.014661
3928.000000	99.008475
3927.000000	98.998160
3926.000000	98.988523
3925.000000	98.983305
3924.000000	98.983365
3923.000000	98.986812
3922.000000	98.990717
3921.000000	98.992359
3920.000000	98.989862
3919.000000	98.983216
3918.000000	98.975334
3917.000000	98.970929
3916.000000	98.972776
3915.000000	98.979130
3914.000000	98.985289
3913.000000	98.987234
3912.000000	98.984008
3911.000000	98.977745
3910.000000	98.971884
3909.000000	98.968629
3908.000000	98.967596
3907.000000	98.966603
3906.000000	98.964069
3905.000000	98.961286
3904.000000	98.961793
3903.000000	98.967331
3902.000000	98.975213
3901.000000	98.981002
3900.000000	98.983008
3899.000000	98.983039
3898.000000	98.983513
3897.000000	98.985057
3896.000000	98.986957
3895.000000	98.988488
3894.000000	98.989640
3893.000000	98.991068
3892.000000	98.993567
3891.000000	98.996916
3890.000000	98.999174
3889.000000	98.997725
3888.000000	98.990996
3887.000000	98.980793
3886.000000	98.972803
3885.000000	98.971024
3884.000000	98.972757
3883.000000	98.972467
3882.000000	98.968287
3881.000000	98.963556
3880.000000	98.962572
3879.000000	98.965132
3878.000000	98.967248
3877.000000	98.966320
3876.000000	98.963898
3875.000000	98.964189
3874.000000	98.969092
3873.000000	98.975184
3872.000000	98.977476
3871.000000	98.975892
3870.000000	98.976023
3869.000000	98.981360
3868.000000	98.988074
3867.000000	98.989970
3866.000000	98.985320
3865.000000	98.978495
3864.000000	98.975816
3863.000000	98.978938
3862.000000	98.983787
3861.000000	98.985750
3860.000000	98.984294
3859.000000	98.982400
3858.000000	98.982588
3857.000000	98.982996
3856.000000	98.977531
3855.000000	98.963059
3854.000000	98.946898
3853.000000	98.940923
3852.000000	98.945934
3851.000000	98.953973
3850.000000	98.960748
3849.000000	98.966290
3848.000000	98.971090
3847.000000	98.974224
3846.000000	98.973862
3845.000000	98.969212
3844.000000	98.962090
3843.000000	98.955963
3842.000000	98.953288
3841.000000	98.953916
3840.000000	98.956346
3839.000000	98.959708
3838.000000	98.963870
3837.000000	98.968130
3836.000000	98.971320
3835.000000	98.973176
3834.000000	98.974512
3833.000000	98.976125
3832.000000	98.977809
3831.000000	98.978066
3830.000000	98.975244
3829.000000	98.968994
3828.000000	98.961067
3827.000000	98.954756
3826.000000	98.952556
3825.000000	98.953719
3824.000000	98.954980
3823.000000	98.954669
3822.000000	98.955274
3821.000000	98.959396
3820.000000	98.964595
3819.000000	98.966610
3818.000000	98.964721
3817.000000	98.962807
3816.000000	98.965970
3815.000000	98.973447
3814.000000	98.978809
3813.000000	98.978246
3812.000000	98.973370
3811.000000	98.967834
3810.000000	98.963307
3809.000000	98.959020
3808.000000	98.954885
3807.000000	98.953192
3806.000000	98.955528
3805.000000	98.960109
3804.000000	98.964082
3803.000000	98.967116
3802.000000	98.971463
3801.000000	98.976728
3800.000000	98.978103
3799.000000	98.973149
3798.000000	98.964599
3797.000000	98.957351
3796.000000	98.954294
3795.000000	98.954195
3794.000000	98.954437
3793.000000	98.954684
3792.000000	98.956739
3791.000000	98.961594
3790.000000	98.967674
3789.000000	98.972161
3788.000000	98.973579
3787.000000	98.972685
3786.000000	98.971393
3785.000000	98.971277
3784.000000	98.972711
3783.000000	98.974807
3782.000000	98.976225
3781.000000	98.976428
3780.000000	98.976286
3779.000000	98.977018
3778.000000	98.978502
3777.000000	98.979369
3776.000000	98.978922
3775.000000	98.978189
3774.000000	98.978511
3773.000000	98.979513
3772.000000	98.979434
3771.000000	98.977883
3770.000000	98.977127
3769.000000	98.979318
3768.000000	98.983327
3767.000000	98.985739
3766.000000	98.984323
3765.000000	98.979713
3764.000000	98.974117
3763.000000	98.969055
3762.000000	98.965023
3761.000000	98.962209
3760.000000	98.960130
3759.000000	98.957422
3758.000000	98.954019
3757.000000	98.952698
3756.000000	98.956491
3755.000000	98.965789
3754.000000	98.978769
3753.000000	98.993385
3752.000000	99.006840
3751.000000	99.013784
3750.000000	99.010864
3749.000000	99.002653
3748.000000	98.996730
3747.000000	98.995542
3746.000000	98.996875
3745.000000	98.999523
3744.000000	99.002883
3743.000000	99.004203
3742.000000	99.002725
3741.000000	99.000327
3740.000000	98.998671
3739.000000	98.998376
3738.000000	98.999699
3737.000000	99.003879
3736.000000	99.011660
3735.000000	99.019997
3734.000000	99.024408
3733.000000	99.024626
3732.000000	99.024514
3731.000000	99.027063
3730.000000	99.031606
3729.000000	99.035400
3728.000000	99.036214
3727.000000	99.033637
3726.000000	99.028512
3725.000000	99.022295
3724.000000	99.016974
3723.000000	99.013901
3722.000000	99.012142
3721.000000	99.009242
3720.000000	99.004417
3719.000000	99.000094
3718.000000	98.999717
3717.000000	99.004386
3716.000000	99.011745
3715.000000	99.017521
3714.000000	99.018202
3713.000000	99.013705
3712.000000	99.008039
3711.000000	99.006431
3710.000000	99.010571
3709.000000	99.017711
3708.000000	99.024143
3707.000000	99.028008
3706.000000	99.029313
3705.000000	99.028649
3704.000000	99.026555
3703.000000	99.023875
3702.000000	99.022480
3701.000000	99.024447
3700.000000	99.029801
3699.000000	99.035647
3698.000000	99.038214
3697.000000	99.035292
3696.000000	99.026947
3695.000000	99.014702
3694.000000	99.001222
3693.000000	98.990882
3692.000000	98.988987
3691.000000	98.998026
3690.000000	99.013116
3689.000000	99.024035
3688.000000	99.024855
3687.000000	99.018543
3686.000000	99.010921
3685.000000	99.005089
3684.000000	99.001157
3683.000000	98.997376
3682.000000	98.991338
3681.000000	98.982203
3680.000000	98.972062
3679.000000	98.963826
3678.000000	98.958302
3677.000000	98.955581
3676.000000	98.957363
3675.000000	98.963476
3674.000000	98.969692
3673.000000	98.972570
3672.000000	98.972349
3671.000000	98.972529
3670.000000	98.975714
3669.000000	98.978484
3668.000000	98.975941
3667.000000	98.968484
3666.000000	98.959892
3665.000000	98.953059
3664.000000	98.948321
3663.000000	98.944093
3662.000000	98.939065
3661.000000	98.934196
3660.000000	98.932056
3659.000000	98.934145
3658.000000	98.938924
3657.000000	98.942696
3656.000000	98.942646
3655.000000	98.939036
3654.000000	98.933389
3653.000000	98.925186
3652.000000	98.912885
3651.000000	98.897982
3650.000000	98.885371
3649.000000	98.878430
3648.000000	98.876090
3647.000000	98.875773
3646.000000	98.876501
3645.000000	98.878573
3644.000000	98.882521
3643.000000	98.888319
3642.000000	98.894265
3641.000000	98.896860
3640.000000	98.893343
3639.000000	98.884662
3638.000000	98.874915
3637.000000	98.867576
3636.000000	98.863083
3635.000000	98.860358
3634.000000	98.859181
3633.000000	98.859859
3632.000000	98.861358
3631.000000	98.861619
3630.000000	98.860325
3629.000000	98.857890
3628.000000	98.852158
3627.000000	98.841332
3626.000000	98.827342
3625.000000	98.813630
3624.000000	98.802723
3623.000000	98.794882
3622.000000	98.787813
3621.000000	98.778737
3620.000000	98.767403
3619.000000	98.756985
3618.000000	98.751080
3617.000000	98.750145
3616.000000	98.751661
3615.000000	98.752423
3614.000000	98.750364
3613.000000	98.745360
3612.000000	98.738831
3611.000000	98.731806
3610.000000	98.723691
3609.000000	98.713749
3608.000000	98.703002
3607.000000	98.693835
3606.000000	98.687569
3605.000000	98.683312
3604.000000	98.679340
3603.000000	98.674695
3602.000000	98.669565
3601.000000	98.664696
3600.000000	98.660614
3599.000000	98.657201
3598.000000	98.653340
3597.000000	98.646997
3596.000000	98.636449
3595.000000	98.622518
3594.000000	98.609341
3593.000000	98.601442
3592.000000	98.599609
3591.000000	98.600165
3590.000000	98.597795
3589.000000	98.589289
3588.000000	98.575381
3587.000000	98.559765
3586.000000	98.545837
3585.000000	98.534586
3584.000000	98.525691
3583.000000	98.518936
3582.000000	98.514060
3581.000000	98.509886
3580.000000	98.504493
3579.000000	98.496719
3578.000000	98.487318
3577.000000	98.477920
3576.000000	98.468716
3575.000000	98.457757
3574.000000	98.443138
3573.000000	98.425787
3572.000000	98.409126
3571.000000	98.395812
3570.000000	98.385499
3569.000000	98.376236
3568.000000	98.367268
3567.000000	98.359769
3566.000000	98.354734
3565.000000	98.351118
3564.000000	98.346657
3563.000000	98.339587
3562.000000	98.329503
3561.000000	98.317501
3560.000000	98.305595
3559.000000	98.295236
3558.000000	98.286094
3557.000000	98.276548
3556.000000	98.265412
3555.000000	98.252952
3554.000000	98.240312
3553.000000	98.228343
3552.000000	98.217369
3551.000000	98.207803
3550.000000	98.200292
3549.000000	98.195105
3548.000000	98.191667
3547.000000	98.188582
3546.000000	98.184179
3545.000000	98.177487
3544.000000	98.168764
3543.000000	98.158835
3542.000000	98.148100
3541.000000	98.136318
3540.000000	98.123166
3539.000000	98.108876
3538.000000	98.094328
3537.000000	98.080576
3536.000000	98.068054
3535.000000	98.056173
3534.000000	98.043845
3533.000000	98.030582
3532.000000	98.017138
3531.000000	98.005095
3530.000000	97.995854
3529.000000	97.989987
3528.000000	97.987249
3527.000000	97.986495
3526.000000	97.985339
3525.000000	97.980605
3524.000000	97.970201
3523.000000	97.955216
3522.000000	97.939622
3521.000000	97.927115
3520.000000	97.918199
3519.000000	97.910505
3518.000000	97.901590
3517.000000	97.891129
3516.000000	97.880539
3515.000000	97.871094
3514.000000	97.863049
3513.000000	97.856240
3512.000000	97.850573
3511.000000	97.845580
3510.000000	97.840085
3509.000000	97.833184
3508.000000	97.825485
3507.000000	97.818677
3506.000000	97.813689
3505.000000	97.809491
3504.000000	97.803612
3503.000000	97.794173
3502.000000	97.781844
3501.000000	97.769478
3500.000000	97.759459
3499.000000	97.751610
3498.000000	97.743697
3497.000000	97.733751
3496.000000	97.721896
3495.000000	97.709917
3494.000000	97.699455
3493.000000	97.690867
3492.000000	97.683457
3491.000000	97.676289
3490.000000	97.669015
3489.000000	97.662378
3488.000000	97.657667
3487.000000	97.654986
3486.000000	97.652040
3485.000000	97.645363
3484.000000	97.633269
3483.000000	97.617792
3482.000000	97.603647
3481.000000	97.594711
3480.000000	97.591179
3479.000000	97.590026
3478.000000	97.587952
3477.000000	97.583576
3476.000000	97.577350
3475.000000	97.570377
3474.000000	97.563714
3473.000000	97.558008
3472.000000	97.552654
3471.000000	97.545425
3470.000000	97.534266
3469.000000	97.520065
3468.000000	97.506810
3467.000000	97.498120
3466.000000	97.494023
3465.000000	97.491823
3464.000000	97.489382
3463.000000	97.486559
3462.000000	97.483845
3461.000000	97.480772
3460.000000	97.475902
3459.000000	97.467671
3458.000000	97.455235
3457.000000	97.439403
3456.000000	97.423113
3455.000000	97.410202
3454.000000	97.402792
3453.000000	97.399797
3452.000000	97.398089
3451.000000	97.395189
3450.000000	97.391086
3449.000000	97.387734
3448.000000	97.386762
3447.000000	97.387242
3446.000000	97.385774
3445.000000	97.379135
3444.000000	97.366735
3443.000000	97.350880
3442.000000	97.335381
3441.000000	97.323748
3440.000000	97.317524
3439.000000	97.315420
3438.000000	97.313993
3437.000000	97.309879
3436.000000	97.302000
3435.000000	97.291895
3434.000000	97.282162
3433.000000	97.274441
3432.000000	97.268301
3431.000000	97.261695
3430.000000	97.252975
3429.000000	97.242933
3428.000000	97.234487
3427.000000	97.229776
3426.000000	97.227866
3425.000000	97.225741
3424.000000	97.221194
3423.000000	97.214202
3422.000000	97.205881
3421.000000	97.197074
3420.000000	97.188155
3419.000000	97.179486
3418.000000	97.171488
3417.000000	97.164207
3416.000000	97.156984
3415.000000	97.148745
3414.000000	97.138971
3413.000000	97.128366
3412.000000	97.118059
3411.000000	97.108210
3410.000000	97.098284
3409.000000	97.089035
3408.000000	97.083053
3407.000000	97.082221
3406.000000	97.085016
3405.000000	97.087150
3404.000000	97.084774
3403.000000	97.076746
3402.000000	97.064637
3401.000000	97.051515
3400.000000	97.040168
3399.000000	97.031081
3398.000000	97.022001
3397.000000	97.010388
3396.000000	96.996415
3395.000000	96.982893
3394.000000	96.972399
3393.000000	96.965210
3392.000000	96.959679
3391.000000	96.953632
3390.000000	96.945592
3389.000000	96.935924
3388.000000	96.927181
3387.000000	96.922299
3386.000000	96.921642
3385.000000	96.922126
3384.000000	96.919652
3383.000000	96.912191
3382.000000	96.900761
3381.000000	96.888274
3380.000000	96.877552
3379.000000	96.869484
3378.000000	96.862640
3377.000000	96.854947
3376.000000	96.845592
3375.000000	96.834750
3374.000000	96.822064
3373.000000	96.806988
3372.000000	96.790845
3371.000000	96.776859
3370.000000	96.767007
3369.000000	96.759658
3368.000000	96.751368
3367.000000	96.740583
3366.000000	96.728721
3365.000000	96.717988
3364.000000	96.709156
3363.000000	96.701440
3362.000000	96.693624
3361.000000	96.684892
3360.000000	96.674762
3359.000000	96.662461
3358.000000	96.646830
3357.000000	96.627420
3356.000000	96.605788
3355.000000	96.585071
3354.000000	96.567647
3353.000000	96.553330
3352.000000	96.540071
3351.000000	96.526172
3350.000000	96.511716
3349.000000	96.498285
3348.000000	96.487505
3347.000000	96.479393
3346.000000	96.471761
3345.000000	96.461473
3344.000000	96.446791
3343.000000	96.428673
3342.000000	96.409798
3341.000000	96.392426
3340.000000	96.377079
3339.000000	96.362829
3338.000000	96.348571
3337.000000	96.334083
3336.000000	96.319842
3335.000000	96.305791
3334.000000	96.290848
3333.000000	96.274254
3332.000000	96.257110
3331.000000	96.241689
3330.000000	96.229063
3329.000000	96.218135
3328.000000	96.207190
3327.000000	96.195710
3326.000000	96.184279
3325.000000	96.173208
3324.000000	96.161719
3323.000000	96.148368
3322.000000	96.132198
3321.000000	96.114021
3320.000000	96.096589
3319.000000	96.082694
3318.000000	96.072558
3317.000000	96.063587
3316.000000	96.053319
3315.000000	96.042263
3314.000000	96.033127
3313.000000	96.027302
3312.000000	96.022576
3311.000000	96.014547
3310.000000	96.000502
3309.000000	95.982344
3308.000000	95.965703
3307.000000	95.955400
3306.000000	95.951159
3305.000000	95.947800
3304.000000	95.939839
3303.000000	95.926167
3302.000000	95.910684
3301.000000	95.898854
3300.000000	95.893528
3299.000000	95.893261
3298.000000	95.893953
3297.000000	95.892097
3296.000000	95.886782
3295.000000	95.878908
3294.000000	95.869260
3293.000000	95.858273
3292.000000	95.847337
3291.000000	95.838802
3290.000000	95.833927
3289.000000	95.831453
3288.000000	95.828982
3287.000000	95.825457
3286.000000	95.821855
3285.000000	95.819842
3284.000000	95.820149
3283.000000	95.821858
3282.000000	95.822969
3281.000000	95.822162
3280.000000	95.820462
3279.000000	95.820478
3278.000000	95.823344
3277.000000	95.826987
3276.000000	95.828510
3275.000000	95.828214
3274.000000	95.829826
3273.000000	95.836448
3272.000000	95.847134
3271.000000	95.857934
3270.000000	95.865714
3269.000000	95.870281
3268.000000	95.873398
3267.000000	95.876800
3266.000000	95.881411
3265.000000	95.887862
3264.000000	95.896777
3263.000000	95.908055
3262.000000	95.920163
3261.000000	95.930851
3260.000000	95.938932
3259.000000	95.945095
3258.000000	95.950880
3257.000000	95.957365
3256.000000	95.965122
3255.000000	95.974751
3254.000000	95.986566
3253.000000	95.999855
3252.000000	96.013217
3251.000000	96.025694
3250.000000	96.037053
3249.000000	96.047072
3248.000000	96.055338
3247.000000	96.061908
3246.000000	96.067434
3245.000000	96.072219
3244.000000	96.075809
3243.000000	96.078101
3242.000000	96.080388
3241.000000	96.084738
3240.000000	96.092541
3239.000000	96.103976
3238.000000	96.118342
3237.000000	96.134156
3236.000000	96.149207
3235.000000	96.161691
3234.000000	96.171675
3233.000000	96.180745
3232.000000	96.189732
3231.000000	96.197218
3230.000000	96.200969
3229.000000	96.200728
3228.000000	96.199295
3227.000000	96.200750
3226.000000	96.207510
3225.000000	96.218623
3224.000000	96.230384
3223.000000	96.238927
3222.000000	96.243200
3221.000000	96.245853
3220.000000	96.250909
3219.000000	96.259871
3218.000000	96.270040
3217.000000	96.277046
3216.000000	96.279035
3215.000000	96.278330
3214.000000	96.278877
3213.000000	96.282318
3212.000000	96.286901
3211.000000	96.290027
3210.000000	96.291200
3209.000000	96.292062
3208.000000	96.294253
3207.000000	96.298193
3206.000000	96.303818
3205.000000	96.311221
3204.000000	96.319826
3203.000000	96.327879
3202.000000	96.334054
3201.000000	96.339405
3200.000000	96.346788
3199.000000	96.358126
3198.000000	96.372758
3197.000000	96.388298
3196.000000	96.402189
3195.000000	96.412518
3194.000000	96.418747
3193.000000	96.422623
3192.000000	96.427561
3191.000000	96.435944
3190.000000	96.447095
3189.000000	96.458321
3188.000000	96.467530
3187.000000	96.474378
3186.000000	96.479791
3185.000000	96.485675
3184.000000	96.494699
3183.000000	96.508741
3182.000000	96.526813
3181.000000	96.545200
3180.000000	96.560053
3179.000000	96.569596
3178.000000	96.574410
3177.000000	96.576845
3176.000000	96.580566
3175.000000	96.589158
3174.000000	96.603573
3173.000000	96.620933
3172.000000	96.636557
3171.000000	96.647490
3170.000000	96.654069
3169.000000	96.658837
3168.000000	96.664697
3167.000000	96.673505
3166.000000	96.685105
3165.000000	96.697284
3164.000000	96.707546
3163.000000	96.715505
3162.000000	96.723267
3161.000000	96.733184
3160.000000	96.745586
3159.000000	96.758834
3158.000000	96.771006
3157.000000	96.781047
3156.000000	96.788862
3155.000000	96.795381
3154.000000	96.802746
3153.000000	96.813464
3152.000000	96.828325
3151.000000	96.845037
3150.000000	96.859538
3149.000000	96.869229
3148.000000	96.874953
3147.000000	96.879738
3146.000000	96.885711
