PE IR       SUBTECH     SPECTRUM    ASCII       PEDS        4.00        
   -1
3C-YYX-C008_1.ASC
23/09/07
11:17:34.00
23/09/07
11:30:09.00
uco
Sample 008 By uco Date Thursday, September 07 2023
450.000000
#HDR
-1
-1
#GR
cm-1
%T
1.0
0.0
4000.000000
-1.000000
3551
8
98.923010
79.815092
#DATA
4000.000000	98.813145
3999.000000	98.809520
3998.000000	98.806341
3997.000000	98.808328
3996.000000	98.808743
3995.000000	98.809261
3994.000000	98.809361
3993.000000	98.809190
3992.000000	98.809256
3991.000000	98.809701
3990.000000	98.809879
3989.000000	98.808733
3988.000000	98.805566
3987.000000	98.800430
3986.000000	98.794051
3985.000000	98.787762
3984.000000	98.783500
3983.000000	98.783029
3982.000000	98.786542
3981.000000	98.792137
3980.000000	98.797086
3979.000000	98.799741
3978.000000	98.800011
3977.000000	98.798363
3976.000000	98.795153
3975.000000	98.791326
3974.000000	98.789065
3973.000000	98.790701
3972.000000	98.796414
3971.000000	98.803275
3970.000000	98.807178
3969.000000	98.805699
3968.000000	98.799508
3967.000000	98.791263
3966.000000	98.783438
3965.000000	98.777373
3964.000000	98.773723
3963.000000	98.773135
3962.000000	98.776123
3961.000000	98.782376
3960.000000	98.790252
3959.000000	98.797040
3958.000000	98.799964
3957.000000	98.797380
3956.000000	98.790071
3955.000000	98.781493
3954.000000	98.776161
3953.000000	98.777064
3952.000000	98.783789
3951.000000	98.792864
3950.000000	98.799884
3949.000000	98.801948
3948.000000	98.798947
3947.000000	98.792861
3946.000000	98.786074
3945.000000	98.780379
3944.000000	98.777073
3943.000000	98.777304
3942.000000	98.781378
3941.000000	98.787984
3940.000000	98.794274
3939.000000	98.796820
3938.000000	98.793334
3937.000000	98.783895
3936.000000	98.771409
3935.000000	98.760777
3934.000000	98.756942
3933.000000	98.762618
3932.000000	98.775991
3931.000000	98.791138
3930.000000	98.801872
3929.000000	98.805554
3928.000000	98.803717
3927.000000	98.799492
3926.000000	98.795312
3925.000000	98.792330
3924.000000	98.790815
3923.000000	98.790465
3922.000000	98.790162
3921.000000	98.787829
3920.000000	98.781476
3919.000000	98.770979
3918.000000	98.759339
3917.000000	98.751491
3916.000000	98.750699
3915.000000	98.756017
3914.000000	98.763153
3913.000000	98.767728
3912.000000	98.767759
3911.000000	98.764261
3910.000000	98.759895
3909.000000	98.756547
3908.000000	98.754564
3907.000000	98.753460
3906.000000	98.753000
3905.000000	98.753725
3904.000000	98.756757
3903.000000	98.763084
3902.000000	98.772522
3901.000000	98.782946
3900.000000	98.791582
3899.000000	98.796807
3898.000000	98.798777
3897.000000	98.798532
3896.000000	98.796568
3895.000000	98.793009
3894.000000	98.788901
3893.000000	98.786102
3892.000000	98.785570
3891.000000	98.785942
3890.000000	98.785359
3889.000000	98.783851
3888.000000	98.782665
3887.000000	98.782478
3886.000000	98.782615
3885.000000	98.781922
3884.000000	98.780965
3883.000000	98.781178
3882.000000	98.782344
3881.000000	98.781872
3880.000000	98.777473
3879.000000	98.770788
3878.000000	98.766226
3877.000000	98.766199
3876.000000	98.769496
3875.000000	98.772575
3874.000000	98.772318
3873.000000	98.768945
3872.000000	98.765671
3871.000000	98.765419
3870.000000	98.768224
3869.000000	98.772074
3868.000000	98.775976
3867.000000	98.779808
3866.000000	98.782621
3865.000000	98.783137
3864.000000	98.781261
3863.000000	98.778385
3862.000000	98.775702
3861.000000	98.773149
3860.000000	98.770757
3859.000000	98.768714
3858.000000	98.766731
3857.000000	98.763805
3856.000000	98.759531
3855.000000	98.755005
3854.000000	98.751140
3853.000000	98.748594
3852.000000	98.748816
3851.000000	98.751209
3850.000000	98.753453
3849.000000	98.754623
3848.000000	98.755374
3847.000000	98.756110
3846.000000	98.755814
3845.000000	98.753125
3844.000000	98.748395
3843.000000	98.744333
3842.000000	98.744225
3841.000000	98.749670
3840.000000	98.760140
3839.000000	98.773187
3838.000000	98.785366
3837.000000	98.793946
3836.000000	98.798228
3835.000000	98.798904
3834.000000	98.796609
3833.000000	98.791777
3832.000000	98.785481
3831.000000	98.779320
3830.000000	98.774686
3829.000000	98.771835
3828.000000	98.769893
3827.000000	98.767439
3826.000000	98.763585
3825.000000	98.758725
3824.000000	98.754272
3823.000000	98.752092
3822.000000	98.752635
3821.000000	98.753555
3820.000000	98.752345
3819.000000	98.749853
3818.000000	98.748935
3817.000000	98.750981
3816.000000	98.754822
3815.000000	98.757734
3814.000000	98.758905
3813.000000	98.759388
3812.000000	98.759868
3811.000000	98.760570
3810.000000	98.761655
3809.000000	98.763128
3808.000000	98.764235
3807.000000	98.763797
3806.000000	98.761843
3805.000000	98.760051
3804.000000	98.760022
3803.000000	98.762495
3802.000000	98.766644
3801.000000	98.769415
3800.000000	98.768563
3799.000000	98.765570
3798.000000	98.762394
3797.000000	98.759571
3796.000000	98.756750
3795.000000	98.754128
3794.000000	98.752992
3793.000000	98.754579
3792.000000	98.758754
3791.000000	98.764032
3790.000000	98.768509
3789.000000	98.771151
3788.000000	98.772450
3787.000000	98.773451
3786.000000	98.774356
3785.000000	98.774422
3784.000000	98.773420
3783.000000	98.772573
3782.000000	98.773448
3781.000000	98.775742
3780.000000	98.776791
3779.000000	98.774018
3778.000000	98.768130
3777.000000	98.762514
3776.000000	98.759742
3775.000000	98.760016
3774.000000	98.762224
3773.000000	98.765495
3772.000000	98.769582
3771.000000	98.774295
3770.000000	98.779040
3769.000000	98.783042
3768.000000	98.786250
3767.000000	98.788712
3766.000000	98.789732
3765.000000	98.788356
3764.000000	98.784665
3763.000000	98.780059
3762.000000	98.776209
3761.000000	98.773638
3760.000000	98.771479
3759.000000	98.768533
3758.000000	98.764880
3757.000000	98.761845
3756.000000	98.760289
3755.000000	98.759831
3754.000000	98.759361
3753.000000	98.758112
3752.000000	98.756769
3751.000000	98.757029
3750.000000	98.759534
3749.000000	98.763492
3748.000000	98.768923
3747.000000	98.777056
3746.000000	98.788443
3745.000000	98.799586
3744.000000	98.803345
3743.000000	98.799161
3742.000000	98.792787
3741.000000	98.786535
3740.000000	98.780269
3739.000000	98.775059
3738.000000	98.772639
3737.000000	98.773414
3736.000000	98.777282
3735.000000	98.785893
3734.000000	98.799606
3733.000000	98.814410
3732.000000	98.824628
3731.000000	98.827606
3730.000000	98.824756
3729.000000	98.818615
3728.000000	98.810832
3727.000000	98.802451
3726.000000	98.795026
3725.000000	98.790742
3724.000000	98.790469
3723.000000	98.792175
3722.000000	98.792229
3721.000000	98.789419
3720.000000	98.786645
3719.000000	98.787291
3718.000000	98.791450
3717.000000	98.796017
3716.000000	98.797792
3715.000000	98.795357
3714.000000	98.788212
3713.000000	98.777069
3712.000000	98.766067
3711.000000	98.761540
3710.000000	98.765522
3709.000000	98.773680
3708.000000	98.781448
3707.000000	98.787337
3706.000000	98.791479
3705.000000	98.794214
3704.000000	98.795534
3703.000000	98.795110
3702.000000	98.793463
3701.000000	98.792658
3700.000000	98.794987
3699.000000	98.800029
3698.000000	98.803877
3697.000000	98.801818
3696.000000	98.792050
3695.000000	98.777372
3694.000000	98.763164
3693.000000	98.754466
3692.000000	98.753975
3691.000000	98.760846
3690.000000	98.769904
3689.000000	98.774510
3688.000000	98.772995
3687.000000	98.769523
3686.000000	98.767348
3685.000000	98.765359
3684.000000	98.761229
3683.000000	98.754845
3682.000000	98.748615
3681.000000	98.744483
3680.000000	98.741502
3679.000000	98.736801
3678.000000	98.728235
3677.000000	98.716021
3676.000000	98.702776
3675.000000	98.691980
3674.000000	98.685435
3673.000000	98.683559
3672.000000	98.685810
3671.000000	98.691107
3670.000000	98.696346
3669.000000	98.696789
3668.000000	98.691336
3667.000000	98.683073
3666.000000	98.674779
3665.000000	98.667816
3664.000000	98.662541
3663.000000	98.658406
3662.000000	98.654209
3661.000000	98.649369
3660.000000	98.645121
3659.000000	98.643686
3658.000000	98.645376
3657.000000	98.646920
3656.000000	98.644326
3655.000000	98.638373
3654.000000	98.633369
3653.000000	98.631245
3652.000000	98.629542
3651.000000	98.623468
3650.000000	98.610817
3649.000000	98.596627
3648.000000	98.587408
3647.000000	98.581891
3646.000000	98.575372
3645.000000	98.566711
3644.000000	98.558363
3643.000000	98.553555
3642.000000	98.553875
3641.000000	98.557815
3640.000000	98.561943
3639.000000	98.563469
3638.000000	98.561279
3637.000000	98.555534
3636.000000	98.546843
3635.000000	98.535932
3634.000000	98.523560
3633.000000	98.510320
3632.000000	98.496772
3631.000000	98.484186
3630.000000	98.474460
3629.000000	98.468089
3628.000000	98.462820
3627.000000	98.456802
3626.000000	98.450854
3625.000000	98.445591
3624.000000	98.440767
3623.000000	98.435689
3622.000000	98.429345
3621.000000	98.420845
3620.000000	98.410044
3619.000000	98.397957
3618.000000	98.386469
3617.000000	98.376916
3616.000000	98.368898
3615.000000	98.360558
3614.000000	98.350039
3613.000000	98.337306
3612.000000	98.324893
3611.000000	98.316037
3610.000000	98.311483
3609.000000	98.309223
3608.000000	98.306339
3607.000000	98.300884
3606.000000	98.293040
3605.000000	98.284512
3604.000000	98.277457
3603.000000	98.272980
3602.000000	98.270006
3601.000000	98.265998
3600.000000	98.259120
3599.000000	98.249617
3598.000000	98.238556
3597.000000	98.226219
3596.000000	98.212087
3595.000000	98.196705
3594.000000	98.181881
3593.000000	98.169221
3592.000000	98.158495
3591.000000	98.148463
3590.000000	98.138298
3589.000000	98.128412
3588.000000	98.119793
3587.000000	98.112726
3586.000000	98.105859
3585.000000	98.097508
3584.000000	98.086985
3583.000000	98.074358
3582.000000	98.060335
3581.000000	98.046496
3580.000000	98.034617
3579.000000	98.025838
3578.000000	98.019891
3577.000000	98.015179
3576.000000	98.008947
3575.000000	97.998200
3574.000000	97.981527
3573.000000	97.960926
3572.000000	97.941404
3571.000000	97.927831
3570.000000	97.921555
3569.000000	97.919345
3568.000000	97.915593
3567.000000	97.906892
3566.000000	97.894213
3565.000000	97.879876
3564.000000	97.865138
3563.000000	97.850687
3562.000000	97.837281
3561.000000	97.825141
3560.000000	97.813169
3559.000000	97.799493
3558.000000	97.783475
3557.000000	97.766593
3556.000000	97.751068
3555.000000	97.737617
3554.000000	97.724824
3553.000000	97.710763
3552.000000	97.695413
3551.000000	97.681015
3550.000000	97.669999
3549.000000	97.663260
3548.000000	97.660120
3547.000000	97.659069
3546.000000	97.658259
3545.000000	97.655806
3544.000000	97.650022
3543.000000	97.639547
3542.000000	97.623421
3541.000000	97.601922
3540.000000	97.577643
3539.000000	97.554815
3538.000000	97.536594
3537.000000	97.522939
3536.000000	97.511557
3535.000000	97.500975
3534.000000	97.491659
3533.000000	97.484426
3532.000000	97.478738
3531.000000	97.473128
3530.000000	97.466601
3529.000000	97.459236
3528.000000	97.451627
3527.000000	97.444130
3526.000000	97.436485
3525.000000	97.427899
3524.000000	97.417418
3523.000000	97.404651
3522.000000	97.390437
3521.000000	97.376604
3520.000000	97.364738
3519.000000	97.354752
3518.000000	97.344521
3517.000000	97.331400
3516.000000	97.314645
3515.000000	97.296507
3514.000000	97.280469
3513.000000	97.268229
3512.000000	97.258474
3511.000000	97.248629
3510.000000	97.237508
3509.000000	97.226221
3508.000000	97.216780
3507.000000	97.210388
3506.000000	97.206856
3505.000000	97.204546
3504.000000	97.200612
3503.000000	97.192467
3502.000000	97.179971
3501.000000	97.165791
3500.000000	97.153022
3499.000000	97.142784
3498.000000	97.134127
3497.000000	97.125511
3496.000000	97.115751
3495.000000	97.103953
3494.000000	97.089602
3493.000000	97.073326
3492.000000	97.057098
3491.000000	97.043160
3490.000000	97.032561
3489.000000	97.024629
3488.000000	97.017652
3487.000000	97.010150
3486.000000	97.001851
3485.000000	96.993449
3484.000000	96.985235
3483.000000	96.976299
3482.000000	96.965498
3481.000000	96.953088
3480.000000	96.940702
3479.000000	96.929810
3478.000000	96.920940
3477.000000	96.914144
3476.000000	96.908987
3475.000000	96.903842
3474.000000	96.896518
3473.000000	96.886384
3472.000000	96.875026
3471.000000	96.864210
3470.000000	96.853955
3469.000000	96.843211
3468.000000	96.831629
3467.000000	96.819792
3466.000000	96.808451
3465.000000	96.798609
3464.000000	96.791681
3463.000000	96.788113
3462.000000	96.785780
3461.000000	96.781078
3460.000000	96.772085
3459.000000	96.760080
3458.000000	96.747852
3457.000000	96.737288
3456.000000	96.728618
3455.000000	96.721084
3454.000000	96.713632
3453.000000	96.705576
3452.000000	96.697168
3451.000000	96.689719
3450.000000	96.684634
3449.000000	96.681981
3448.000000	96.679979
3447.000000	96.676128
3446.000000	96.669078
3445.000000	96.659252
3444.000000	96.647763
3443.000000	96.635575
3442.000000	96.624176
3441.000000	96.616051
3440.000000	96.613140
3439.000000	96.614595
3438.000000	96.616819
3437.000000	96.616117
3436.000000	96.610982
3435.000000	96.602008
3434.000000	96.590523
3433.000000	96.577929
3432.000000	96.565443
3431.000000	96.553754
3430.000000	96.543056
3429.000000	96.533561
3428.000000	96.525363
3427.000000	96.517404
3426.000000	96.507800
3425.000000	96.496176
3424.000000	96.484926
3423.000000	96.476760
3422.000000	96.471103
3421.000000	96.464208
3420.000000	96.453157
3419.000000	96.438870
3418.000000	96.424724
3417.000000	96.413275
3416.000000	96.404742
3415.000000	96.397770
3414.000000	96.390916
3413.000000	96.383543
3412.000000	96.375595
3411.000000	96.366741
3410.000000	96.356328
3409.000000	96.344556
3408.000000	96.333146
3407.000000	96.323899
3406.000000	96.316855
3405.000000	96.310640
3404.000000	96.304398
3403.000000	96.298425
3402.000000	96.292940
3401.000000	96.287469
3400.000000	96.281500
3399.000000	96.274686
3398.000000	96.266104
3397.000000	96.254576
3396.000000	96.240516
3395.000000	96.226485
3394.000000	96.214878
3393.000000	96.205369
3392.000000	96.195382
3391.000000	96.183018
3390.000000	96.168989
3389.000000	96.155791
3388.000000	96.145680
3387.000000	96.139421
3386.000000	96.136101
3385.000000	96.133391
3384.000000	96.128166
3383.000000	96.118005
3382.000000	96.103163
3381.000000	96.087102
3380.000000	96.074049
3379.000000	96.065318
3378.000000	96.058385
3377.000000	96.049799
3376.000000	96.038337
3375.000000	96.024910
3374.000000	96.010594
3373.000000	95.996115
3372.000000	95.982771
3371.000000	95.972179
3370.000000	95.964626
3369.000000	95.958498
3368.000000	95.951675
3367.000000	95.942837
3366.000000	95.931396
3365.000000	95.917199
3364.000000	95.900885
3363.000000	95.883895
3362.000000	95.867516
3361.000000	95.852090
3360.000000	95.837386
3359.000000	95.823324
3358.000000	95.809867
3357.000000	95.796261
3356.000000	95.780882
3355.000000	95.762409
3354.000000	95.741541
3353.000000	95.721344
3352.000000	95.705124
3351.000000	95.693422
3350.000000	95.683419
3349.000000	95.671545
3348.000000	95.656396
3347.000000	95.638965
3346.000000	95.620823
3345.000000	95.602845
3344.000000	95.585173
3343.000000	95.567622
3342.000000	95.550275
3341.000000	95.534244
3340.000000	95.521299
3339.000000	95.511733
3338.000000	95.502856
3337.000000	95.490748
3336.000000	95.473863
3335.000000	95.454322
3334.000000	95.435592
3333.000000	95.419568
3332.000000	95.406009
3331.000000	95.393917
3330.000000	95.382869
3329.000000	95.373040
3328.000000	95.363990
3327.000000	95.353609
3326.000000	95.339167
3325.000000	95.320199
3324.000000	95.299951
3323.000000	95.283015
3322.000000	95.271385
3321.000000	95.263156
3320.000000	95.254470
3319.000000	95.242083
3318.000000	95.224733
3317.000000	95.203472
3316.000000	95.181066
3315.000000	95.160446
3314.000000	95.143435
3313.000000	95.130888
3312.000000	95.123050
3311.000000	95.118778
3310.000000	95.114924
3309.000000	95.107893
3308.000000	95.096184
3307.000000	95.080786
3306.000000	95.063495
3305.000000	95.045910
3304.000000	95.029682
3303.000000	95.016080
3302.000000	95.004895
3301.000000	94.994959
3300.000000	94.986225
3299.000000	94.980195
3298.000000	94.977484
3297.000000	94.975775
3296.000000	94.971015
3295.000000	94.960726
3294.000000	94.946035
3293.000000	94.930896
3292.000000	94.919422
3291.000000	94.913227
3290.000000	94.910795
3289.000000	94.909278
3288.000000	94.906804
3287.000000	94.903120
3286.000000	94.899013
3285.000000	94.895967
3284.000000	94.895545
3283.000000	94.897738
3282.000000	94.900068
3281.000000	94.899769
3280.000000	94.897275
3279.000000	94.896252
3278.000000	94.899811
3277.000000	94.907479
3276.000000	94.916412
3275.000000	94.925077
3274.000000	94.934804
3273.000000	94.947852
3272.000000	94.964063
3271.000000	94.979463
3270.000000	94.988929
3269.000000	94.991102
3268.000000	94.990441
3267.000000	94.993621
3266.000000	95.003892
3265.000000	95.019566
3264.000000	95.037435
3263.000000	95.055756
3262.000000	95.073835
3261.000000	95.090642
3260.000000	95.105314
3259.000000	95.118357
3258.000000	95.131462
3257.000000	95.146409
3256.000000	95.164265
3255.000000	95.184876
3254.000000	95.206670
3253.000000	95.227633
3252.000000	95.246817
3251.000000	95.264419
3250.000000	95.280470
3249.000000	95.294659
3248.000000	95.307825
3247.000000	95.322050
3246.000000	95.338120
3245.000000	95.353590
3244.000000	95.364850
3243.000000	95.371077
3242.000000	95.375176
3241.000000	95.381057
3240.000000	95.390737
3239.000000	95.403906
3238.000000	95.419168
3237.000000	95.435043
3236.000000	95.450258
3235.000000	95.464051
3234.000000	95.476672
3233.000000	95.489148
3232.000000	95.501680
3231.000000	95.512336
3230.000000	95.518444
3229.000000	95.519952
3228.000000	95.520621
3227.000000	95.524736
3226.000000	95.533020
3225.000000	95.542851
3224.000000	95.551911
3223.000000	95.560436
3222.000000	95.570089
3221.000000	95.582199
3220.000000	95.597168
3219.000000	95.613899
3218.000000	95.629256
3217.000000	95.639648
3216.000000	95.644256
3215.000000	95.646121
3214.000000	95.649068
3213.000000	95.654061
3212.000000	95.659139
3211.000000	95.662246
3210.000000	95.663384
3209.000000	95.664299
3208.000000	95.667021
3207.000000	95.672628
3206.000000	95.680941
3205.000000	95.691149
3204.000000	95.702556
3203.000000	95.714509
3202.000000	95.725973
3201.000000	95.735988
3200.000000	95.744701
3199.000000	95.753293
3198.000000	95.762705
3197.000000	95.773008
3196.000000	95.783901
3195.000000	95.794856
3194.000000	95.804655
3193.000000	95.812100
3192.000000	95.818076
3191.000000	95.826118
3190.000000	95.839764
3189.000000	95.859219
3188.000000	95.880771
3187.000000	95.899365
3186.000000	95.911924
3185.000000	95.919270
3184.000000	95.925299
3183.000000	95.933855
3182.000000	95.945902
3181.000000	95.959639
3180.000000	95.972949
3179.000000	95.984864
3178.000000	95.995256
3177.000000	96.004757
3176.000000	96.015558
3175.000000	96.030655
3174.000000	96.050973
3173.000000	96.073753
3172.000000	96.094449
3171.000000	96.109839
3170.000000	96.119102
3169.000000	96.123472
3168.000000	96.126204
3167.000000	96.131732
3166.000000	96.142921
3165.000000	96.158794
3164.000000	96.175986
3163.000000	96.192221
3162.000000	96.207543
3161.000000	96.222569
3160.000000	96.236976
3159.000000	96.249947
3158.000000	96.260939
3157.000000	96.269604
3156.000000	96.275983
3155.000000	96.281545
3154.000000	96.289296
3153.000000	96.301690
3152.000000	96.317987
3151.000000	96.334109
3150.000000	96.345725
3149.000000	96.352081
3148.000000	96.356705
3147.000000	96.364057
3146.000000	96.375370
