PE IR       SUBTECH     SPECTRUM    ASCII       PEDS        4.00        
   -1
3C-YYX-C004_1.ASC
23/09/07
11:12:21.00
23/09/07
11:30:09.00
uco
Sample 004 By uco Date Thursday, September 07 2023
450.000000
#HDR
-1
-1
#GR
cm-1
%T
1.0
0.0
4000.000000
-1.000000
3551
8
98.610473
80.542997
#DATA
4000.000000	98.545208
3999.000000	98.542202
3998.000000	98.537315
3997.000000	98.532724
3996.000000	98.530128
3995.000000	98.529875
3994.000000	98.530759
3993.000000	98.530961
3992.000000	98.529237
3991.000000	98.525710
3990.000000	98.521801
3989.000000	98.519326
3988.000000	98.519478
3987.000000	98.522201
3986.000000	98.526307
3985.000000	98.530280
3984.000000	98.533114
3983.000000	98.534564
3982.000000	98.534744
3981.000000	98.533701
3980.000000	98.531486
3979.000000	98.528204
3978.000000	98.523837
3977.000000	98.518424
3976.000000	98.512915
3975.000000	98.509679
3974.000000	98.511210
3973.000000	98.517812
3972.000000	98.526655
3971.000000	98.533396
3970.000000	98.535175
3969.000000	98.532192
3968.000000	98.526900
3967.000000	98.521872
3966.000000	98.518151
3965.000000	98.515325
3964.000000	98.512660
3963.000000	98.509890
3962.000000	98.507191
3961.000000	98.504947
3960.000000	98.503664
3959.000000	98.503799
3958.000000	98.505251
3957.000000	98.506939
3956.000000	98.507472
3955.000000	98.506433
3954.000000	98.504956
3953.000000	98.504958
3952.000000	98.507453
3951.000000	98.511436
3950.000000	98.514219
3949.000000	98.513410
3948.000000	98.509100
3947.000000	98.503817
3946.000000	98.500163
3945.000000	98.499004
3944.000000	98.499880
3943.000000	98.502342
3942.000000	98.506172
3941.000000	98.510885
3940.000000	98.515325
3939.000000	98.517695
3938.000000	98.516412
3937.000000	98.511051
3936.000000	98.503030
3935.000000	98.495395
3934.000000	98.491632
3933.000000	98.494130
3932.000000	98.502344
3931.000000	98.512348
3930.000000	98.519017
3929.000000	98.519438
3928.000000	98.514898
3927.000000	98.509529
3926.000000	98.506942
3925.000000	98.507310
3924.000000	98.507596
3923.000000	98.505052
3922.000000	98.499751
3921.000000	98.493423
3920.000000	98.487529
3919.000000	98.482906
3918.000000	98.480685
3917.000000	98.482581
3916.000000	98.489317
3915.000000	98.498793
3914.000000	98.506298
3913.000000	98.507346
3912.000000	98.500813
3911.000000	98.490060
3910.000000	98.480661
3909.000000	98.476172
3908.000000	98.476275
3907.000000	98.478043
3906.000000	98.478698
3905.000000	98.478006
3904.000000	98.478558
3903.000000	98.483234
3902.000000	98.492024
3901.000000	98.501337
3900.000000	98.507093
3899.000000	98.507774
3898.000000	98.504880
3897.000000	98.501222
3896.000000	98.498656
3895.000000	98.497372
3894.000000	98.496908
3893.000000	98.497244
3892.000000	98.499083
3891.000000	98.502440
3890.000000	98.505919
3889.000000	98.507598
3888.000000	98.505858
3887.000000	98.500848
3886.000000	98.495344
3885.000000	98.492213
3884.000000	98.492375
3883.000000	98.495105
3882.000000	98.498797
3881.000000	98.501261
3880.000000	98.500593
3879.000000	98.497330
3878.000000	98.494662
3877.000000	98.494799
3876.000000	98.497510
3875.000000	98.501208
3874.000000	98.503283
3873.000000	98.501543
3872.000000	98.496794
3871.000000	98.492694
3870.000000	98.491797
3869.000000	98.492668
3868.000000	98.493185
3867.000000	98.493197
3866.000000	98.493018
3865.000000	98.493013
3864.000000	98.493478
3863.000000	98.493745
3862.000000	98.492372
3861.000000	98.488564
3860.000000	98.483608
3859.000000	98.479638
3858.000000	98.477226
3857.000000	98.474363
3856.000000	98.469258
3855.000000	98.464273
3854.000000	98.465290
3853.000000	98.472411
3852.000000	98.479806
3851.000000	98.486320
3850.000000	98.492901
3849.000000	98.498536
3848.000000	98.502781
3847.000000	98.505937
3846.000000	98.507679
3845.000000	98.506604
3844.000000	98.501625
3843.000000	98.493495
3842.000000	98.484821
3841.000000	98.478905
3840.000000	98.478640
3839.000000	98.484816
3838.000000	98.494888
3837.000000	98.504721
3836.000000	98.512344
3835.000000	98.518073
3834.000000	98.521792
3833.000000	98.522491
3832.000000	98.519913
3831.000000	98.515024
3830.000000	98.509192
3829.000000	98.503251
3828.000000	98.497815
3827.000000	98.493477
3826.000000	98.490183
3825.000000	98.487514
3824.000000	98.486325
3823.000000	98.489846
3822.000000	98.501029
3821.000000	98.515850
3820.000000	98.524588
3819.000000	98.524394
3818.000000	98.519983
3817.000000	98.515318
3816.000000	98.511690
3815.000000	98.508151
3814.000000	98.504436
3813.000000	98.501800
3812.000000	98.501035
3811.000000	98.502100
3810.000000	98.503928
3809.000000	98.504661
3808.000000	98.503222
3807.000000	98.500316
3806.000000	98.497359
3805.000000	98.495406
3804.000000	98.495231
3803.000000	98.498082
3802.000000	98.504558
3801.000000	98.510646
3800.000000	98.511666
3799.000000	98.509865
3798.000000	98.508949
3797.000000	98.508602
3796.000000	98.506307
3795.000000	98.501150
3794.000000	98.495295
3793.000000	98.491714
3792.000000	98.491975
3791.000000	98.496018
3790.000000	98.502123
3789.000000	98.507494
3788.000000	98.510418
3787.000000	98.511480
3786.000000	98.512278
3785.000000	98.513335
3784.000000	98.513849
3783.000000	98.513226
3782.000000	98.511897
3781.000000	98.510757
3780.000000	98.510941
3779.000000	98.513117
3778.000000	98.516639
3777.000000	98.520126
3776.000000	98.522528
3775.000000	98.523546
3774.000000	98.523472
3773.000000	98.523059
3772.000000	98.523297
3771.000000	98.524821
3770.000000	98.526728
3769.000000	98.526936
3768.000000	98.525313
3767.000000	98.524048
3766.000000	98.524386
3765.000000	98.524930
3764.000000	98.523435
3763.000000	98.519091
3762.000000	98.512391
3761.000000	98.504139
3760.000000	98.495869
3759.000000	98.489838
3758.000000	98.487738
3757.000000	98.489613
3756.000000	98.494371
3755.000000	98.500830
3754.000000	98.508257
3753.000000	98.516446
3752.000000	98.524679
3751.000000	98.529366
3750.000000	98.525254
3749.000000	98.513142
3748.000000	98.500473
3747.000000	98.493373
3746.000000	98.494202
3745.000000	98.502059
3744.000000	98.511081
3743.000000	98.517153
3742.000000	98.521644
3741.000000	98.523625
3740.000000	98.520883
3739.000000	98.515401
3738.000000	98.512513
3737.000000	98.516505
3736.000000	98.526844
3735.000000	98.538071
3734.000000	98.544345
3733.000000	98.545010
3732.000000	98.543924
3731.000000	98.544353
3730.000000	98.546105
3729.000000	98.546594
3728.000000	98.544386
3727.000000	98.540759
3726.000000	98.537587
3725.000000	98.535070
3724.000000	98.532571
3723.000000	98.530106
3722.000000	98.527491
3721.000000	98.524431
3720.000000	98.521996
3719.000000	98.522061
3718.000000	98.524973
3717.000000	98.529088
3716.000000	98.532845
3715.000000	98.535683
3714.000000	98.536464
3713.000000	98.533872
3712.000000	98.530055
3711.000000	98.530347
3710.000000	98.536081
3709.000000	98.541931
3708.000000	98.543169
3707.000000	98.540126
3706.000000	98.535960
3705.000000	98.533370
3704.000000	98.533304
3703.000000	98.534853
3702.000000	98.535946
3701.000000	98.535090
3700.000000	98.533636
3699.000000	98.534338
3698.000000	98.537553
3697.000000	98.540567
3696.000000	98.540146
3695.000000	98.535088
3694.000000	98.527021
3693.000000	98.520382
3692.000000	98.521385
3691.000000	98.533988
3690.000000	98.552977
3689.000000	98.564255
3688.000000	98.559741
3687.000000	98.546804
3686.000000	98.535638
3685.000000	98.528225
3684.000000	98.521921
3683.000000	98.514963
3682.000000	98.507283
3681.000000	98.498580
3680.000000	98.487809
3679.000000	98.474195
3678.000000	98.458254
3677.000000	98.443117
3676.000000	98.434467
3675.000000	98.433279
3674.000000	98.433963
3673.000000	98.434265
3672.000000	98.436074
3671.000000	98.442183
3670.000000	98.452247
3669.000000	98.458587
3668.000000	98.455373
3667.000000	98.445252
3666.000000	98.432302
3665.000000	98.418867
3664.000000	98.407120
3663.000000	98.398827
3662.000000	98.393719
3661.000000	98.389889
3660.000000	98.386346
3659.000000	98.383468
3658.000000	98.380779
3657.000000	98.376391
3656.000000	98.370070
3655.000000	98.365365
3654.000000	98.365107
3653.000000	98.366987
3652.000000	98.366034
3651.000000	98.359499
3650.000000	98.348713
3649.000000	98.337249
3648.000000	98.327871
3647.000000	98.320648
3646.000000	98.313462
3645.000000	98.304381
3644.000000	98.294026
3643.000000	98.285412
3642.000000	98.280918
3641.000000	98.279435
3640.000000	98.277671
3639.000000	98.273624
3638.000000	98.267077
3637.000000	98.258471
3636.000000	98.249049
3635.000000	98.241185
3634.000000	98.236533
3633.000000	98.233815
3632.000000	98.229942
3631.000000	98.222950
3630.000000	98.213113
3629.000000	98.201498
3628.000000	98.188967
3627.000000	98.178274
3626.000000	98.171481
3625.000000	98.166261
3624.000000	98.160440
3623.000000	98.154911
3622.000000	98.151021
3621.000000	98.147778
3620.000000	98.142169
3619.000000	98.131665
3618.000000	98.116490
3617.000000	98.099548
3616.000000	98.083793
3615.000000	98.070171
3614.000000	98.057565
3613.000000	98.044042
3612.000000	98.029147
3611.000000	98.014335
3610.000000	98.000256
3609.000000	97.986773
3608.000000	97.975325
3607.000000	97.967721
3606.000000	97.962963
3605.000000	97.957950
3604.000000	97.951512
3603.000000	97.945266
3602.000000	97.940415
3601.000000	97.935359
3600.000000	97.927739
3599.000000	97.917381
3598.000000	97.905058
3597.000000	97.890111
3596.000000	97.871483
3595.000000	97.850753
3594.000000	97.831550
3593.000000	97.816527
3592.000000	97.805689
3591.000000	97.797320
3590.000000	97.789286
3589.000000	97.780720
3588.000000	97.772847
3587.000000	97.767098
3586.000000	97.762275
3585.000000	97.756116
3584.000000	97.748106
3583.000000	97.738852
3582.000000	97.728068
3581.000000	97.714338
3580.000000	97.697228
3579.000000	97.679036
3578.000000	97.662936
3577.000000	97.650233
3576.000000	97.640000
3575.000000	97.630380
3574.000000	97.619401
3573.000000	97.605823
3572.000000	97.590247
3571.000000	97.574401
3570.000000	97.558922
3569.000000	97.542848
3568.000000	97.526010
3567.000000	97.510550
3566.000000	97.498155
3565.000000	97.487920
3564.000000	97.478786
3563.000000	97.470585
3562.000000	97.462644
3561.000000	97.453244
3560.000000	97.441057
3559.000000	97.426077
3558.000000	97.408586
3557.000000	97.388420
3556.000000	97.366266
3555.000000	97.344427
3554.000000	97.325328
3553.000000	97.309663
3552.000000	97.296757
3551.000000	97.285814
3550.000000	97.275953
3549.000000	97.266009
3548.000000	97.255359
3547.000000	97.244548
3546.000000	97.234363
3545.000000	97.224869
3544.000000	97.215430
3543.000000	97.204444
3542.000000	97.189277
3541.000000	97.168830
3540.000000	97.146485
3539.000000	97.128310
3538.000000	97.117111
3537.000000	97.109686
3536.000000	97.100848
3535.000000	97.088603
3534.000000	97.073761
3533.000000	97.057242
3532.000000	97.040111
3531.000000	97.024518
3530.000000	97.012082
3529.000000	97.001960
3528.000000	96.992305
3527.000000	96.982747
3526.000000	96.973584
3525.000000	96.963740
3524.000000	96.951623
3523.000000	96.937253
3522.000000	96.922019
3521.000000	96.906998
3520.000000	96.892643
3519.000000	96.879125
3518.000000	96.865727
3517.000000	96.850966
3516.000000	96.834495
3515.000000	96.818045
3514.000000	96.803229
3513.000000	96.789464
3512.000000	96.775314
3511.000000	96.761110
3510.000000	96.748862
3509.000000	96.739911
3508.000000	96.733900
3507.000000	96.729621
3506.000000	96.725595
3505.000000	96.720044
3504.000000	96.711552
3503.000000	96.699935
3502.000000	96.686246
3501.000000	96.672211
3500.000000	96.659463
3499.000000	96.648348
3498.000000	96.637279
3497.000000	96.624256
3496.000000	96.609185
3495.000000	96.593511
3494.000000	96.577589
3493.000000	96.560339
3492.000000	96.542049
3491.000000	96.525424
3490.000000	96.512735
3489.000000	96.503240
3488.000000	96.494405
3487.000000	96.484341
3486.000000	96.472197
3485.000000	96.457700
3484.000000	96.441856
3483.000000	96.427313
3482.000000	96.416507
3481.000000	96.409479
3480.000000	96.404306
3479.000000	96.398947
3478.000000	96.392155
3477.000000	96.383580
3476.000000	96.373944
3475.000000	96.364394
3474.000000	96.355001
3473.000000	96.344464
3472.000000	96.331431
3471.000000	96.315475
3470.000000	96.297144
3469.000000	96.278448
3468.000000	96.263023
3467.000000	96.253795
3466.000000	96.249908
3465.000000	96.247427
3464.000000	96.243237
3463.000000	96.236931
3462.000000	96.228855
3461.000000	96.218412
3460.000000	96.205066
3459.000000	96.189394
3458.000000	96.172468
3457.000000	96.155502
3456.000000	96.140443
3455.000000	96.129404
3454.000000	96.122684
3453.000000	96.118756
3452.000000	96.116344
3451.000000	96.115097
3450.000000	96.113969
3449.000000	96.110745
3448.000000	96.104102
3447.000000	96.094823
3446.000000	96.084087
3445.000000	96.071895
3444.000000	96.058086
3443.000000	96.043729
3442.000000	96.030875
3441.000000	96.021530
3440.000000	96.016669
3439.000000	96.014941
3438.000000	96.012512
3437.000000	96.006173
3436.000000	95.996948
3435.000000	95.988904
3434.000000	95.983954
3433.000000	95.979561
3432.000000	95.971853
3431.000000	95.959174
3430.000000	95.942305
3429.000000	95.923541
3428.000000	95.906450
3427.000000	95.894158
3426.000000	95.886460
3425.000000	95.879983
3424.000000	95.872017
3423.000000	95.862693
3422.000000	95.852751
3421.000000	95.841495
3420.000000	95.828281
3419.000000	95.814275
3418.000000	95.801053
3417.000000	95.788862
3416.000000	95.777442
3415.000000	95.767141
3414.000000	95.758084
3413.000000	95.749388
3412.000000	95.740143
3411.000000	95.730029
3410.000000	95.718592
3409.000000	95.705639
3408.000000	95.693092
3407.000000	95.684257
3406.000000	95.679868
3405.000000	95.676426
3404.000000	95.669917
3403.000000	95.660125
3402.000000	95.650017
3401.000000	95.642138
3400.000000	95.636537
3399.000000	95.630965
3398.000000	95.622051
3397.000000	95.607489
3396.000000	95.588248
3395.000000	95.567910
3394.000000	95.549412
3393.000000	95.533601
3392.000000	95.520844
3391.000000	95.511809
3390.000000	95.505723
3389.000000	95.499741
3388.000000	95.491420
3387.000000	95.480783
3386.000000	95.469222
3385.000000	95.457770
3384.000000	95.447338
3383.000000	95.438905
3382.000000	95.432087
3381.000000	95.424710
3380.000000	95.414933
3379.000000	95.402824
3378.000000	95.389182
3377.000000	95.374195
3376.000000	95.358164
3375.000000	95.342280
3374.000000	95.327634
3373.000000	95.314371
3372.000000	95.302477
3371.000000	95.292169
3370.000000	95.282693
3369.000000	95.271892
3368.000000	95.257855
3367.000000	95.240284
3366.000000	95.220035
3365.000000	95.198720
3364.000000	95.179028
3363.000000	95.163460
3362.000000	95.151615
3361.000000	95.140005
3360.000000	95.125461
3359.000000	95.107479
3358.000000	95.086806
3357.000000	95.063535
3356.000000	95.038001
3355.000000	95.012380
3354.000000	94.989845
3353.000000	94.972315
3352.000000	94.959318
3351.000000	94.948099
3350.000000	94.934707
3349.000000	94.916585
3348.000000	94.894891
3347.000000	94.873436
3346.000000	94.854858
3345.000000	94.838621
3344.000000	94.822685
3343.000000	94.805722
3342.000000	94.787510
3341.000000	94.768896
3340.000000	94.751932
3339.000000	94.738383
3338.000000	94.727287
3337.000000	94.715199
3336.000000	94.699487
3335.000000	94.680333
3334.000000	94.659296
3333.000000	94.637432
3332.000000	94.615414
3331.000000	94.593852
3330.000000	94.572784
3329.000000	94.552137
3328.000000	94.533044
3327.000000	94.517248
3326.000000	94.504608
3325.000000	94.492544
3324.000000	94.478496
3323.000000	94.461864
3322.000000	94.443374
3321.000000	94.424294
3320.000000	94.406480
3319.000000	94.391315
3318.000000	94.377939
3317.000000	94.364057
3316.000000	94.349186
3315.000000	94.335655
3314.000000	94.325577
3313.000000	94.318011
3312.000000	94.309558
3311.000000	94.296808
3310.000000	94.278458
3309.000000	94.256752
3308.000000	94.236894
3307.000000	94.222903
3306.000000	94.213489
3305.000000	94.203428
3304.000000	94.189064
3303.000000	94.171158
3302.000000	94.152909
3301.000000	94.137380
3300.000000	94.126763
3299.000000	94.121277
3298.000000	94.117973
3297.000000	94.112916
3296.000000	94.105177
3295.000000	94.096701
3294.000000	94.088078
3293.000000	94.077560
3292.000000	94.065043
3291.000000	94.053780
3290.000000	94.046512
3289.000000	94.042315
3288.000000	94.039066
3287.000000	94.036779
3286.000000	94.036541
3285.000000	94.038126
3284.000000	94.040397
3283.000000	94.042586
3282.000000	94.043826
3281.000000	94.043075
3280.000000	94.041300
3279.000000	94.041995
3278.000000	94.047843
3277.000000	94.057987
3276.000000	94.069963
3275.000000	94.083049
3274.000000	94.097720
3273.000000	94.113097
3272.000000	94.126761
3271.000000	94.136688
3270.000000	94.142422
3269.000000	94.145236
3268.000000	94.148033
3267.000000	94.153830
3266.000000	94.163150
3265.000000	94.173776
3264.000000	94.183990
3263.000000	94.194676
3262.000000	94.207410
3261.000000	94.221974
3260.000000	94.237103
3259.000000	94.252523
3258.000000	94.268918
3257.000000	94.286932
3256.000000	94.307237
3255.000000	94.330495
3254.000000	94.355845
3253.000000	94.380297
3252.000000	94.400932
3251.000000	94.417345
3250.000000	94.431319
3249.000000	94.444924
3248.000000	94.459527
3247.000000	94.475317
3246.000000	94.490754
3245.000000	94.503403
3244.000000	94.512429
3243.000000	94.519690
3242.000000	94.527666
3241.000000	94.537086
3240.000000	94.547270
3239.000000	94.557935
3238.000000	94.569771
3237.000000	94.583545
3236.000000	94.598979
3235.000000	94.614314
3234.000000	94.627290
3233.000000	94.637299
3232.000000	94.646214
3231.000000	94.655992
3230.000000	94.666022
3229.000000	94.674388
3228.000000	94.681284
3227.000000	94.689135
3226.000000	94.699150
3225.000000	94.710047
3224.000000	94.720540
3223.000000	94.731118
3222.000000	94.742660
3221.000000	94.755187
3220.000000	94.768636
3219.000000	94.782889
3218.000000	94.796216
3217.000000	94.805797
3216.000000	94.811082
3215.000000	94.815089
3214.000000	94.820896
3213.000000	94.828160
3212.000000	94.834469
3211.000000	94.839066
3210.000000	94.843849
3209.000000	94.851019
3208.000000	94.860815
3207.000000	94.871264
3206.000000	94.879961
3205.000000	94.886470
3204.000000	94.893050
3203.000000	94.902425
3202.000000	94.915144
3201.000000	94.929937
3200.000000	94.945739
3199.000000	94.961736
3198.000000	94.976045
3197.000000	94.986726
3196.000000	94.994247
3195.000000	95.001013
3194.000000	95.008493
3193.000000	95.016914
3192.000000	95.027363
3191.000000	95.041299
3190.000000	95.057478
3189.000000	95.072298
3188.000000	95.084454
3187.000000	95.096763
3186.000000	95.112178
3185.000000	95.130006
3184.000000	95.147626
3183.000000	95.163873
3182.000000	95.179182
3181.000000	95.193884
3180.000000	95.207774
3179.000000	95.220195
3178.000000	95.229916
3177.000000	95.236682
3176.000000	95.243656
3175.000000	95.255973
3174.000000	95.275311
3173.000000	95.297680
3172.000000	95.317778
3171.000000	95.333964
3170.000000	95.347470
3169.000000	95.359045
3168.000000	95.368796
3167.000000	95.378167
3166.000000	95.389542
3165.000000	95.403965
3164.000000	95.420719
3163.000000	95.438759
3162.000000	95.457390
3161.000000	95.475969
3160.000000	95.493879
3159.000000	95.510569
3158.000000	95.525158
3157.000000	95.536832
3156.000000	95.546177
3155.000000	95.555237
3154.000000	95.565675
3153.000000	95.577688
3152.000000	95.590809
3151.000000	95.604331
3150.000000	95.616807
3149.000000	95.627176
3148.000000	95.637169
3147.000000	95.650529
3146.000000	95.668394
