PE IR       SUBTECH     SPECTRUM    ASCII       PEDS        4.00        
   -1
3C-XXX-F011_1.ASC
23/09/07
10:45:19.00
23/09/07
11:30:09.00
uco
Sample 011 By uco Date Thursday, September 07 2023
450.000000
#HDR
-1
-1
#GR
cm-1
%T
1.0
0.0
4000.000000
-1.000000
3551
8
98.821841
87.754200
#DATA
4000.000000	98.704682
3999.000000	98.703352
3998.000000	98.702889
3997.000000	98.703916
3996.000000	98.706418
3995.000000	98.709260
3994.000000	98.710748
3993.000000	98.709737
3992.000000	98.706195
3991.000000	98.700877
3990.000000	98.694837
3989.000000	98.689237
3988.000000	98.685285
3987.000000	98.683801
3986.000000	98.684664
3985.000000	98.686911
3984.000000	98.689577
3983.000000	98.692502
3982.000000	98.696099
3981.000000	98.700286
3980.000000	98.703751
3979.000000	98.704390
3978.000000	98.700645
3977.000000	98.692724
3976.000000	98.682882
3975.000000	98.674571
3974.000000	98.670736
3973.000000	98.672318
3972.000000	98.677950
3971.000000	98.684846
3970.000000	98.690263
3969.000000	98.692528
3968.000000	98.691480
3967.000000	98.688300
3966.000000	98.684724
3965.000000	98.682108
3964.000000	98.680771
3963.000000	98.680195
3962.000000	98.679900
3961.000000	98.679969
3960.000000	98.680622
3959.000000	98.681247
3958.000000	98.680103
3957.000000	98.675451
3956.000000	98.667307
3955.000000	98.658042
3954.000000	98.650932
3953.000000	98.648033
3952.000000	98.649209
3951.000000	98.652874
3950.000000	98.657394
3949.000000	98.661750
3948.000000	98.665275
3947.000000	98.667156
3946.000000	98.666690
3945.000000	98.664197
3944.000000	98.661550
3943.000000	98.661522
3942.000000	98.665866
3941.000000	98.673786
3940.000000	98.682338
3939.000000	98.688081
3938.000000	98.688495
3937.000000	98.682671
3936.000000	98.671770
3935.000000	98.659216
3934.000000	98.649943
3933.000000	98.648454
3932.000000	98.655964
3931.000000	98.668959
3930.000000	98.681339
3929.000000	98.688254
3928.000000	98.688503
3927.000000	98.684466
3926.000000	98.680352
3925.000000	98.679479
3924.000000	98.681948
3923.000000	98.684968
3922.000000	98.685506
3921.000000	98.682028
3920.000000	98.674417
3919.000000	98.663853
3918.000000	98.653391
3917.000000	98.647166
3916.000000	98.647257
3915.000000	98.651475
3914.000000	98.655181
3913.000000	98.655065
3912.000000	98.651112
3911.000000	98.645864
3910.000000	98.642087
3909.000000	98.640740
3908.000000	98.640633
3907.000000	98.639741
3906.000000	98.637104
3905.000000	98.634359
3904.000000	98.635249
3903.000000	98.642301
3902.000000	98.653855
3901.000000	98.665326
3900.000000	98.672997
3899.000000	98.675907
3898.000000	98.675333
3897.000000	98.673081
3896.000000	98.670407
3895.000000	98.667777
3894.000000	98.665122
3893.000000	98.662762
3892.000000	98.662304
3891.000000	98.665283
3890.000000	98.670136
3889.000000	98.672915
3888.000000	98.671379
3887.000000	98.667422
3886.000000	98.665266
3885.000000	98.666458
3884.000000	98.667897
3883.000000	98.666120
3882.000000	98.661509
3881.000000	98.657659
3880.000000	98.657246
3879.000000	98.658822
3878.000000	98.658828
3877.000000	98.656005
3876.000000	98.652773
3875.000000	98.652890
3874.000000	98.657112
3873.000000	98.661644
3872.000000	98.662265
3871.000000	98.659575
3870.000000	98.658674
3869.000000	98.662531
3868.000000	98.667996
3867.000000	98.670488
3866.000000	98.669275
3865.000000	98.667087
3864.000000	98.667062
3863.000000	98.669886
3862.000000	98.673510
3861.000000	98.675531
3860.000000	98.675366
3859.000000	98.674086
3858.000000	98.672816
3857.000000	98.671539
3856.000000	98.669369
3855.000000	98.665889
3854.000000	98.661633
3853.000000	98.658080
3852.000000	98.655325
3851.000000	98.652107
3850.000000	98.648915
3849.000000	98.647510
3848.000000	98.648559
3847.000000	98.651302
3846.000000	98.654659
3845.000000	98.658269
3844.000000	98.662610
3843.000000	98.667914
3842.000000	98.673478
3841.000000	98.678508
3840.000000	98.682873
3839.000000	98.686618
3838.000000	98.689282
3837.000000	98.690471
3836.000000	98.690627
3835.000000	98.690264
3834.000000	98.688907
3833.000000	98.685659
3832.000000	98.680551
3831.000000	98.674747
3830.000000	98.669254
3829.000000	98.663888
3828.000000	98.658304
3827.000000	98.653460
3826.000000	98.651081
3825.000000	98.651832
3824.000000	98.655251
3823.000000	98.661265
3822.000000	98.669964
3821.000000	98.679409
3820.000000	98.685184
3819.000000	98.683861
3818.000000	98.675873
3817.000000	98.665371
3816.000000	98.657930
3815.000000	98.655666
3814.000000	98.655656
3813.000000	98.654948
3812.000000	98.653953
3811.000000	98.654775
3810.000000	98.658185
3809.000000	98.662809
3808.000000	98.666753
3807.000000	98.669599
3806.000000	98.672252
3805.000000	98.675175
3804.000000	98.678431
3803.000000	98.683050
3802.000000	98.689710
3801.000000	98.695217
3800.000000	98.693493
3799.000000	98.682561
3798.000000	98.666698
3797.000000	98.653028
3796.000000	98.646327
3795.000000	98.645504
3794.000000	98.645945
3793.000000	98.644710
3792.000000	98.642542
3791.000000	98.642222
3790.000000	98.646049
3789.000000	98.653927
3788.000000	98.663383
3787.000000	98.671241
3786.000000	98.675696
3785.000000	98.676975
3784.000000	98.676243
3783.000000	98.674164
3782.000000	98.670760
3781.000000	98.665981
3780.000000	98.660134
3779.000000	98.654225
3778.000000	98.649759
3777.000000	98.648148
3776.000000	98.650335
3775.000000	98.656204
3774.000000	98.663696
3773.000000	98.669187
3772.000000	98.669711
3771.000000	98.665517
3770.000000	98.660508
3769.000000	98.659092
3768.000000	98.662232
3767.000000	98.667639
3766.000000	98.672630
3765.000000	98.675198
3764.000000	98.673853
3763.000000	98.667943
3762.000000	98.658763
3761.000000	98.649713
3760.000000	98.644863
3759.000000	98.646843
3758.000000	98.655209
3757.000000	98.666919
3756.000000	98.678399
3755.000000	98.687501
3754.000000	98.693890
3753.000000	98.697729
3752.000000	98.698031
3751.000000	98.694110
3750.000000	98.688756
3749.000000	98.685853
3748.000000	98.685943
3747.000000	98.687500
3746.000000	98.690602
3745.000000	98.696745
3744.000000	98.704175
3743.000000	98.707361
3742.000000	98.704013
3741.000000	98.696874
3740.000000	98.690103
3739.000000	98.686858
3738.000000	98.688934
3737.000000	98.696976
3736.000000	98.708715
3735.000000	98.718091
3734.000000	98.720086
3733.000000	98.715311
3732.000000	98.707951
3731.000000	98.701026
3730.000000	98.694785
3729.000000	98.688741
3728.000000	98.683423
3727.000000	98.679719
3726.000000	98.677153
3725.000000	98.674524
3724.000000	98.672093
3723.000000	98.671457
3722.000000	98.673669
3721.000000	98.678497
3720.000000	98.685164
3719.000000	98.692820
3718.000000	98.700344
3717.000000	98.706220
3716.000000	98.709199
3715.000000	98.708992
3714.000000	98.705895
3713.000000	98.700789
3712.000000	98.695914
3711.000000	98.694140
3710.000000	98.695183
3709.000000	98.695913
3708.000000	98.695070
3707.000000	98.694344
3706.000000	98.695800
3705.000000	98.699476
3704.000000	98.703373
3703.000000	98.704974
3702.000000	98.703866
3701.000000	98.702647
3700.000000	98.704074
3699.000000	98.707856
3698.000000	98.711415
3697.000000	98.712132
3696.000000	98.708765
3695.000000	98.702234
3694.000000	98.695528
3693.000000	98.692465
3692.000000	98.694952
3691.000000	98.700760
3690.000000	98.703925
3689.000000	98.700383
3688.000000	98.692665
3687.000000	98.686016
3686.000000	98.682529
3685.000000	98.681210
3684.000000	98.680501
3683.000000	98.679278
3682.000000	98.677236
3681.000000	98.675037
3680.000000	98.673734
3679.000000	98.673266
3678.000000	98.672358
3677.000000	98.670164
3676.000000	98.667338
3675.000000	98.665137
3674.000000	98.663175
3673.000000	98.660294
3672.000000	98.657048
3671.000000	98.655394
3670.000000	98.655399
3669.000000	98.654087
3668.000000	98.648911
3667.000000	98.640428
3666.000000	98.631036
3665.000000	98.623212
3664.000000	98.618416
3663.000000	98.616699
3662.000000	98.616946
3661.000000	98.617711
3660.000000	98.617759
3659.000000	98.616049
3658.000000	98.611958
3657.000000	98.606271
3656.000000	98.601759
3655.000000	98.601086
3654.000000	98.604286
3653.000000	98.609237
3652.000000	98.612717
3651.000000	98.609839
3650.000000	98.596377
3649.000000	98.576345
3648.000000	98.560530
3647.000000	98.553002
3646.000000	98.549023
3645.000000	98.544019
3644.000000	98.538032
3643.000000	98.533862
3642.000000	98.532884
3641.000000	98.533105
3640.000000	98.531616
3639.000000	98.527964
3638.000000	98.523716
3637.000000	98.519438
3636.000000	98.513986
3635.000000	98.507033
3634.000000	98.500590
3633.000000	98.496824
3632.000000	98.495382
3631.000000	98.493845
3630.000000	98.490180
3629.000000	98.484741
3628.000000	98.480248
3627.000000	98.477571
3626.000000	98.474696
3625.000000	98.470237
3624.000000	98.464521
3623.000000	98.458004
3622.000000	98.450032
3621.000000	98.439043
3620.000000	98.424074
3619.000000	98.407117
3618.000000	98.392900
3617.000000	98.384430
3616.000000	98.380337
3615.000000	98.376387
3614.000000	98.368331
3613.000000	98.355054
3612.000000	98.339892
3611.000000	98.327207
3610.000000	98.318223
3609.000000	98.311402
3608.000000	98.305624
3607.000000	98.301545
3606.000000	98.299577
3605.000000	98.298354
3604.000000	98.296098
3603.000000	98.292061
3602.000000	98.286777
3601.000000	98.281199
3600.000000	98.275530
3599.000000	98.268869
3598.000000	98.259590
3597.000000	98.246295
3596.000000	98.229150
3595.000000	98.210941
3594.000000	98.195888
3593.000000	98.186550
3592.000000	98.181777
3591.000000	98.178174
3590.000000	98.172508
3589.000000	98.163093
3588.000000	98.150331
3587.000000	98.137298
3586.000000	98.127812
3585.000000	98.122670
3584.000000	98.119199
3583.000000	98.113532
3582.000000	98.103191
3581.000000	98.088905
3580.000000	98.074395
3579.000000	98.063459
3578.000000	98.056751
3577.000000	98.051699
3576.000000	98.045005
3575.000000	98.035050
3574.000000	98.022088
3573.000000	98.007391
3572.000000	97.992367
3571.000000	97.978297
3570.000000	97.966367
3569.000000	97.957717
3568.000000	97.952457
3567.000000	97.948674
3566.000000	97.943606
3565.000000	97.935860
3564.000000	97.925424
3563.000000	97.912345
3562.000000	97.896510
3561.000000	97.878672
3560.000000	97.860879
3559.000000	97.844989
3558.000000	97.830944
3557.000000	97.817283
3556.000000	97.802968
3555.000000	97.788016
3554.000000	97.772752
3553.000000	97.757708
3552.000000	97.744364
3551.000000	97.734471
3550.000000	97.727978
3549.000000	97.722683
3548.000000	97.716143
3547.000000	97.707568
3546.000000	97.698000
3545.000000	97.689039
3544.000000	97.681390
3543.000000	97.674347
3542.000000	97.666243
3541.000000	97.655676
3540.000000	97.642651
3539.000000	97.628578
3538.000000	97.614963
3537.000000	97.602327
3536.000000	97.590523
3535.000000	97.579599
3534.000000	97.569664
3533.000000	97.560210
3532.000000	97.550196
3531.000000	97.538805
3530.000000	97.526090
3529.000000	97.513092
3528.000000	97.501391
3527.000000	97.492005
3526.000000	97.484328
3525.000000	97.476291
3524.000000	97.465847
3523.000000	97.452582
3522.000000	97.438065
3521.000000	97.424779
3520.000000	97.414467
3519.000000	97.406665
3518.000000	97.398320
3517.000000	97.385599
3516.000000	97.367397
3515.000000	97.346985
3514.000000	97.329650
3513.000000	97.318332
3512.000000	97.311613
3511.000000	97.305639
3510.000000	97.297855
3509.000000	97.289147
3508.000000	97.282459
3507.000000	97.279329
3506.000000	97.277800
3505.000000	97.273639
3504.000000	97.263807
3503.000000	97.249425
3502.000000	97.234838
3501.000000	97.223364
3500.000000	97.214625
3499.000000	97.206133
3498.000000	97.196366
3497.000000	97.185831
3496.000000	97.175484
3495.000000	97.164840
3494.000000	97.152375
3493.000000	97.137816
3492.000000	97.123298
3491.000000	97.111708
3490.000000	97.104007
3489.000000	97.098537
3488.000000	97.092975
3487.000000	97.086386
3486.000000	97.079077
3485.000000	97.070906
3484.000000	97.060592
3483.000000	97.046981
3482.000000	97.030947
3481.000000	97.015809
3480.000000	97.005419
3479.000000	97.001389
3478.000000	97.001872
3477.000000	97.002882
3476.000000	97.000963
3475.000000	96.995217
3474.000000	96.987046
3473.000000	96.977894
3472.000000	96.967433
3471.000000	96.954158
3470.000000	96.937735
3469.000000	96.920473
3468.000000	96.906122
3467.000000	96.896977
3466.000000	96.892213
3465.000000	96.889114
3464.000000	96.885491
3463.000000	96.880665
3462.000000	96.874531
3461.000000	96.866547
3460.000000	96.856091
3459.000000	96.843450
3458.000000	96.829887
3457.000000	96.816667
3456.000000	96.804380
3455.000000	96.793423
3454.000000	96.784837
3453.000000	96.780012
3452.000000	96.779233
3451.000000	96.780869
3450.000000	96.782534
3449.000000	96.782924
3448.000000	96.782063
3447.000000	96.779739
3446.000000	96.774280
3445.000000	96.763552
3444.000000	96.747268
3443.000000	96.728359
3442.000000	96.712016
3441.000000	96.702520
3440.000000	96.700012
3439.000000	96.700300
3438.000000	96.698271
3437.000000	96.691896
3436.000000	96.682996
3435.000000	96.674397
3434.000000	96.666969
3433.000000	96.659410
3432.000000	96.650140
3431.000000	96.638942
3430.000000	96.627308
3429.000000	96.617591
3428.000000	96.611369
3427.000000	96.608103
3426.000000	96.605539
3425.000000	96.601571
3424.000000	96.595370
3423.000000	96.586721
3422.000000	96.575284
3421.000000	96.561347
3420.000000	96.546756
3419.000000	96.534065
3418.000000	96.524704
3417.000000	96.518344
3416.000000	96.513489
3415.000000	96.508089
3414.000000	96.500142
3413.000000	96.488781
3412.000000	96.474948
3411.000000	96.460708
3410.000000	96.448126
3409.000000	96.438907
3408.000000	96.434111
3407.000000	96.432941
3406.000000	96.432047
3405.000000	96.427322
3404.000000	96.417027
3403.000000	96.402956
3402.000000	96.388615
3401.000000	96.376644
3400.000000	96.367451
3399.000000	96.359201
3398.000000	96.349007
3397.000000	96.335298
3396.000000	96.319523
3395.000000	96.304891
3394.000000	96.293127
3393.000000	96.283233
3392.000000	96.273825
3391.000000	96.265687
3390.000000	96.260842
3389.000000	96.259479
3388.000000	96.258973
3387.000000	96.256167
3386.000000	96.250011
3385.000000	96.241595
3384.000000	96.232119
3383.000000	96.221578
3382.000000	96.209426
3381.000000	96.195911
3380.000000	96.182318
3379.000000	96.170005
3378.000000	96.159450
3377.000000	96.150096
3376.000000	96.140799
3375.000000	96.130471
3374.000000	96.118773
3373.000000	96.106468
3372.000000	96.094906
3371.000000	96.084788
3370.000000	96.075273
3369.000000	96.064298
3368.000000	96.049884
3367.000000	96.031530
3366.000000	96.010801
3365.000000	95.990631
3364.000000	95.973543
3363.000000	95.960106
3362.000000	95.948938
3361.000000	95.938050
3360.000000	95.926094
3359.000000	95.912642
3358.000000	95.897826
3357.000000	95.881904
3356.000000	95.864937
3355.000000	95.846913
3354.000000	95.828391
3353.000000	95.810721
3352.000000	95.794938
3351.000000	95.780417
3350.000000	95.765313
3349.000000	95.748423
3348.000000	95.730093
3347.000000	95.711332
3346.000000	95.692872
3345.000000	95.675241
3344.000000	95.658761
3343.000000	95.642992
3342.000000	95.626957
3341.000000	95.610488
3340.000000	95.594598
3339.000000	95.580054
3338.000000	95.566390
3337.000000	95.553007
3336.000000	95.540338
3335.000000	95.528829
3334.000000	95.517248
3333.000000	95.503303
3332.000000	95.486049
3331.000000	95.466868
3330.000000	95.448000
3329.000000	95.430531
3328.000000	95.413799
3327.000000	95.396471
3326.000000	95.378321
3325.000000	95.360988
3324.000000	95.346508
3323.000000	95.334903
3322.000000	95.323917
3321.000000	95.311542
3320.000000	95.297944
3319.000000	95.284385
3318.000000	95.271173
3317.000000	95.257685
3316.000000	95.243993
3315.000000	95.231325
3314.000000	95.220879
3313.000000	95.212760
3312.000000	95.205801
3311.000000	95.197899
3310.000000	95.187076
3309.000000	95.172996
3308.000000	95.157269
3307.000000	95.141801
3306.000000	95.127447
3305.000000	95.114682
3304.000000	95.104408
3303.000000	95.096964
3302.000000	95.091097
3301.000000	95.085322
3300.000000	95.079804
3299.000000	95.075364
3298.000000	95.071164
3297.000000	95.065082
3296.000000	95.056319
3295.000000	95.045996
3294.000000	95.034918
3293.000000	95.022627
3292.000000	95.009441
3291.000000	94.997768
3290.000000	94.990075
3289.000000	94.986226
3288.000000	94.983949
3287.000000	94.981562
3286.000000	94.979412
3285.000000	94.978760
3284.000000	94.979757
3283.000000	94.980715
3282.000000	94.979626
3281.000000	94.976857
3280.000000	94.976048
3279.000000	94.981099
3278.000000	94.991807
3277.000000	95.003129
3276.000000	95.009706
3275.000000	95.011043
3274.000000	95.011579
3273.000000	95.015986
3272.000000	95.024898
3271.000000	95.035088
3270.000000	95.043092
3269.000000	95.048180
3268.000000	95.052103
3267.000000	95.056685
3266.000000	95.062209
3265.000000	95.068128
3264.000000	95.074628
3263.000000	95.082769
3262.000000	95.093149
3261.000000	95.105016
3260.000000	95.116927
3259.000000	95.128073
3258.000000	95.138869
3257.000000	95.150338
3256.000000	95.162878
3255.000000	95.175648
3254.000000	95.187482
3253.000000	95.198488
3252.000000	95.210223
3251.000000	95.223878
3250.000000	95.238653
3249.000000	95.252556
3248.000000	95.264655
3247.000000	95.275886
3246.000000	95.287553
3245.000000	95.299379
3244.000000	95.309311
3243.000000	95.315287
3242.000000	95.317286
3241.000000	95.317956
3240.000000	95.321184
3239.000000	95.329658
3238.000000	95.343397
3237.000000	95.360166
3236.000000	95.376941
3235.000000	95.391327
3234.000000	95.402489
3233.000000	95.411161
3232.000000	95.418401
3231.000000	95.424277
3230.000000	95.428408
3229.000000	95.431633
3228.000000	95.435846
3227.000000	95.441612
3226.000000	95.447351
3225.000000	95.452017
3224.000000	95.457487
3223.000000	95.466734
3222.000000	95.480048
3221.000000	95.494607
3220.000000	95.507566
3219.000000	95.518151
3218.000000	95.526579
3217.000000	95.532577
3216.000000	95.535957
3215.000000	95.537823
3214.000000	95.540299
3213.000000	95.545141
3212.000000	95.552817
3211.000000	95.562475
3210.000000	95.572467
3209.000000	95.581155
3208.000000	95.587676
3207.000000	95.592289
3206.000000	95.596297
3205.000000	95.601620
3204.000000	95.609647
3203.000000	95.619770
3202.000000	95.629442
3201.000000	95.636330
3200.000000	95.640368
3199.000000	95.643507
3198.000000	95.647965
3197.000000	95.655153
3196.000000	95.665259
3195.000000	95.676748
3194.000000	95.686883
3193.000000	95.694144
3192.000000	95.700301
3191.000000	95.709073
3190.000000	95.722597
3189.000000	95.739864
3188.000000	95.758212
3187.000000	95.775318
3186.000000	95.789995
3185.000000	95.802597
3184.000000	95.814991
3183.000000	95.829010
3182.000000	95.844417
3181.000000	95.859008
3180.000000	95.870779
3179.000000	95.879175
3178.000000	95.884658
3177.000000	95.888535
3176.000000	95.893510
3175.000000	95.902709
3174.000000	95.916998
3173.000000	95.933979
3172.000000	95.950151
3171.000000	95.963459
3170.000000	95.973416
3169.000000	95.980266
3168.000000	95.985398
3167.000000	95.991796
3166.000000	96.002423
3165.000000	96.017718
3164.000000	96.035310
3163.000000	96.052193
3162.000000	96.066895
3161.000000	96.079877
3160.000000	96.092559
3159.000000	96.105961
3158.000000	96.119666
3157.000000	96.131955
3156.000000	96.141397
3155.000000	96.148707
3154.000000	96.156933
3153.000000	96.169318
3152.000000	96.186288
3151.000000	96.204352
3150.000000	96.218498
3149.000000	96.226478
3148.000000	96.230748
3147.000000	96.236020
3146.000000	96.245109
