PE IR       SUBTECH     SPECTRUM    ASCII       PEDS        4.00        
   -1
3C-XXX-F004_1.ASC
23/09/07
10:39:12.00
23/09/07
11:30:09.00
uco
Sample 004 By uco Date Thursday, September 07 2023
450.000000
#HDR
-1
-1
#GR
cm-1
%T
1.0
0.0
4000.000000
-1.000000
3551
8
99.110020
91.037439
#DATA
4000.000000	98.984138
3999.000000	98.985616
3998.000000	98.985218
3997.000000	98.984416
3996.000000	98.984138
3995.000000	98.984350
3994.000000	98.984486
3993.000000	98.984118
3992.000000	98.983096
3991.000000	98.981196
3990.000000	98.978012
3989.000000	98.973499
3988.000000	98.968495
3987.000000	98.964316
3986.000000	98.961659
3985.000000	98.960231
3984.000000	98.959701
3983.000000	98.960611
3982.000000	98.963648
3981.000000	98.968013
3980.000000	98.971199
3979.000000	98.970935
3978.000000	98.967250
3977.000000	98.962372
3976.000000	98.958685
3975.000000	98.956972
3974.000000	98.956567
3973.000000	98.956577
3972.000000	98.956630
3971.000000	98.956710
3970.000000	98.956828
3969.000000	98.956999
3968.000000	98.957298
3967.000000	98.957749
3966.000000	98.958154
3965.000000	98.958156
3964.000000	98.957569
3963.000000	98.956661
3962.000000	98.956029
3961.000000	98.955927
3960.000000	98.955841
3959.000000	98.954880
3958.000000	98.952578
3957.000000	98.949190
3956.000000	98.945300
3955.000000	98.941610
3954.000000	98.939026
3953.000000	98.938626
3952.000000	98.940982
3951.000000	98.945323
3950.000000	98.949597
3949.000000	98.951913
3948.000000	98.952245
3947.000000	98.952124
3946.000000	98.952357
3945.000000	98.951662
3944.000000	98.948501
3943.000000	98.944098
3942.000000	98.942169
3941.000000	98.945121
3940.000000	98.951606
3939.000000	98.957824
3938.000000	98.960664
3937.000000	98.959528
3936.000000	98.955901
3935.000000	98.952132
3934.000000	98.950453
3933.000000	98.952345
3932.000000	98.957392
3931.000000	98.962778
3930.000000	98.965511
3929.000000	98.964952
3928.000000	98.962386
3927.000000	98.958732
3926.000000	98.954228
3925.000000	98.950137
3924.000000	98.948409
3923.000000	98.949597
3922.000000	98.952565
3921.000000	98.955587
3920.000000	98.956795
3919.000000	98.954309
3918.000000	98.948135
3917.000000	98.941926
3916.000000	98.940415
3915.000000	98.944077
3914.000000	98.948457
3913.000000	98.948463
3912.000000	98.942633
3911.000000	98.933686
3910.000000	98.926074
3909.000000	98.923029
3908.000000	98.924927
3907.000000	98.929144
3906.000000	98.931538
3905.000000	98.930579
3904.000000	98.929685
3903.000000	98.933004
3902.000000	98.939672
3901.000000	98.944766
3900.000000	98.945502
3899.000000	98.943631
3898.000000	98.942017
3897.000000	98.941409
3896.000000	98.941598
3895.000000	98.942634
3894.000000	98.944009
3893.000000	98.944042
3892.000000	98.943050
3891.000000	98.944222
3890.000000	98.949124
3889.000000	98.955950
3888.000000	98.960109
3887.000000	98.957474
3886.000000	98.951043
3885.000000	98.948437
3884.000000	98.952043
3883.000000	98.957208
3882.000000	98.957559
3881.000000	98.951599
3880.000000	98.943981
3879.000000	98.939258
3878.000000	98.938166
3877.000000	98.938240
3876.000000	98.935865
3875.000000	98.931525
3874.000000	98.930714
3873.000000	98.936037
3872.000000	98.941534
3871.000000	98.939906
3870.000000	98.934712
3869.000000	98.935566
3868.000000	98.944419
3867.000000	98.954669
3866.000000	98.960066
3865.000000	98.960794
3864.000000	98.960794
3863.000000	98.960726
3862.000000	98.958252
3861.000000	98.951793
3860.000000	98.941685
3859.000000	98.929886
3858.000000	98.920288
3857.000000	98.917398
3856.000000	98.920063
3855.000000	98.917629
3854.000000	98.908666
3853.000000	98.908332
3852.000000	98.919915
3851.000000	98.931829
3850.000000	98.936905
3849.000000	98.936299
3848.000000	98.934502
3847.000000	98.934280
3846.000000	98.935531
3845.000000	98.936360
3844.000000	98.935627
3843.000000	98.934376
3842.000000	98.934061
3841.000000	98.934105
3840.000000	98.933093
3839.000000	98.931889
3838.000000	98.933223
3837.000000	98.938183
3836.000000	98.945263
3835.000000	98.952270
3834.000000	98.957070
3833.000000	98.958277
3832.000000	98.956893
3831.000000	98.955269
3830.000000	98.954290
3829.000000	98.951542
3828.000000	98.943446
3827.000000	98.930486
3826.000000	98.918660
3825.000000	98.913842
3824.000000	98.915763
3823.000000	98.916904
3822.000000	98.912705
3821.000000	98.910233
3820.000000	98.914858
3819.000000	98.922757
3818.000000	98.927405
3817.000000	98.926069
3816.000000	98.924342
3815.000000	98.927369
3814.000000	98.931495
3813.000000	98.931202
3812.000000	98.926538
3811.000000	98.922579
3810.000000	98.923271
3809.000000	98.925782
3808.000000	98.924767
3807.000000	98.921329
3806.000000	98.920742
3805.000000	98.924647
3804.000000	98.929171
3803.000000	98.928408
3802.000000	98.925321
3801.000000	98.929279
3800.000000	98.938901
3799.000000	98.945279
3798.000000	98.943643
3797.000000	98.936792
3796.000000	98.931268
3795.000000	98.929846
3794.000000	98.930413
3793.000000	98.930927
3792.000000	98.931930
3791.000000	98.934478
3790.000000	98.938063
3789.000000	98.941001
3788.000000	98.941931
3787.000000	98.940409
3786.000000	98.937308
3785.000000	98.935078
3784.000000	98.936216
3783.000000	98.940627
3782.000000	98.945308
3781.000000	98.946706
3780.000000	98.944616
3779.000000	98.942430
3778.000000	98.942111
3777.000000	98.942019
3776.000000	98.940217
3775.000000	98.937815
3774.000000	98.937760
3773.000000	98.940087
3772.000000	98.940533
3771.000000	98.936617
3770.000000	98.933012
3769.000000	98.935599
3768.000000	98.942891
3767.000000	98.947997
3766.000000	98.947414
3765.000000	98.944596
3764.000000	98.944454
3763.000000	98.946976
3762.000000	98.948492
3761.000000	98.947236
3760.000000	98.945758
3759.000000	98.947176
3758.000000	98.951433
3757.000000	98.956796
3756.000000	98.961888
3755.000000	98.965446
3754.000000	98.966233
3753.000000	98.964592
3752.000000	98.962653
3751.000000	98.960953
3750.000000	98.955779
3749.000000	98.945705
3748.000000	98.936353
3747.000000	98.932503
3746.000000	98.931312
3745.000000	98.934176
3744.000000	98.948246
3743.000000	98.966735
3742.000000	98.976361
3741.000000	98.974459
3740.000000	98.969052
3739.000000	98.970205
3738.000000	98.980179
3737.000000	98.992793
3736.000000	99.001081
3735.000000	99.001332
3734.000000	98.992870
3733.000000	98.979369
3732.000000	98.967811
3731.000000	98.963254
3730.000000	98.965723
3729.000000	98.971885
3728.000000	98.978322
3727.000000	98.984259
3726.000000	98.990122
3725.000000	98.994464
3724.000000	98.995394
3723.000000	98.992888
3722.000000	98.987802
3721.000000	98.980386
3720.000000	98.971146
3719.000000	98.961874
3718.000000	98.955343
3717.000000	98.953810
3716.000000	98.957313
3715.000000	98.963442
3714.000000	98.968326
3713.000000	98.969569
3712.000000	98.969966
3711.000000	98.974355
3710.000000	98.981854
3709.000000	98.987176
3708.000000	98.987678
3707.000000	98.985245
3706.000000	98.983255
3705.000000	98.982834
3704.000000	98.981975
3703.000000	98.978623
3702.000000	98.975283
3701.000000	98.977613
3700.000000	98.987123
3699.000000	98.997922
3698.000000	99.001601
3697.000000	98.994449
3696.000000	98.979858
3695.000000	98.964691
3694.000000	98.955254
3693.000000	98.955963
3692.000000	98.967748
3691.000000	98.985110
3690.000000	98.997763
3689.000000	98.999570
3688.000000	98.993840
3687.000000	98.987386
3686.000000	98.982438
3685.000000	98.977303
3684.000000	98.971366
3683.000000	98.965847
3682.000000	98.960396
3681.000000	98.953347
3680.000000	98.946745
3679.000000	98.946102
3678.000000	98.951423
3677.000000	98.952504
3676.000000	98.944986
3675.000000	98.938219
3674.000000	98.938672
3673.000000	98.943526
3672.000000	98.944859
3671.000000	98.936581
3670.000000	98.923883
3669.000000	98.916220
3668.000000	98.914732
3667.000000	98.915025
3666.000000	98.913879
3665.000000	98.910874
3664.000000	98.906825
3663.000000	98.901896
3662.000000	98.895820
3661.000000	98.890251
3660.000000	98.888782
3659.000000	98.893166
3658.000000	98.899561
3657.000000	98.902106
3656.000000	98.899819
3655.000000	98.896209
3654.000000	98.894459
3653.000000	98.894248
3652.000000	98.891915
3651.000000	98.884438
3650.000000	98.875057
3649.000000	98.869816
3648.000000	98.868649
3647.000000	98.867313
3646.000000	98.864139
3645.000000	98.859918
3644.000000	98.855447
3643.000000	98.851442
3642.000000	98.849079
3641.000000	98.849152
3640.000000	98.850748
3639.000000	98.851965
3638.000000	98.851033
3637.000000	98.845974
3636.000000	98.834745
3635.000000	98.818314
3634.000000	98.803300
3633.000000	98.797826
3632.000000	98.804011
3631.000000	98.813313
3630.000000	98.812847
3629.000000	98.802490
3628.000000	98.792409
3627.000000	98.785869
3626.000000	98.779426
3625.000000	98.771396
3624.000000	98.764390
3623.000000	98.761770
3622.000000	98.762463
3621.000000	98.760626
3620.000000	98.751926
3619.000000	98.739594
3618.000000	98.730822
3617.000000	98.728641
3616.000000	98.729610
3615.000000	98.727298
3614.000000	98.718131
3613.000000	98.704947
3612.000000	98.693946
3611.000000	98.687869
3610.000000	98.683307
3609.000000	98.675735
3608.000000	98.665990
3607.000000	98.659116
3606.000000	98.657944
3605.000000	98.660754
3604.000000	98.663717
3603.000000	98.663475
3602.000000	98.658523
3601.000000	98.650249
3600.000000	98.641717
3599.000000	98.634666
3598.000000	98.628025
3597.000000	98.619240
3596.000000	98.606613
3595.000000	98.591280
3594.000000	98.576370
3593.000000	98.564026
3592.000000	98.554447
3591.000000	98.547023
3590.000000	98.540377
3589.000000	98.532804
3588.000000	98.524977
3587.000000	98.519413
3586.000000	98.516445
3585.000000	98.514347
3584.000000	98.511392
3583.000000	98.505972
3582.000000	98.496810
3581.000000	98.484225
3580.000000	98.470867
3579.000000	98.460287
3578.000000	98.454468
3577.000000	98.452608
3576.000000	98.451426
3575.000000	98.446532
3574.000000	98.434744
3573.000000	98.416916
3572.000000	98.398787
3571.000000	98.387712
3570.000000	98.386762
3569.000000	98.391494
3568.000000	98.393290
3567.000000	98.386724
3566.000000	98.372840
3565.000000	98.356330
3564.000000	98.341257
3563.000000	98.329284
3562.000000	98.320125
3561.000000	98.312152
3560.000000	98.303075
3559.000000	98.291328
3558.000000	98.277423
3557.000000	98.263789
3556.000000	98.252540
3555.000000	98.242981
3554.000000	98.231727
3553.000000	98.216256
3552.000000	98.198268
3551.000000	98.182549
3550.000000	98.172816
3549.000000	98.169443
3548.000000	98.170325
3547.000000	98.172642
3546.000000	98.174027
3545.000000	98.172912
3544.000000	98.168275
3543.000000	98.159186
3542.000000	98.145377
3541.000000	98.128624
3540.000000	98.112537
3539.000000	98.100018
3538.000000	98.090881
3537.000000	98.082811
3536.000000	98.074261
3535.000000	98.065336
3534.000000	98.056018
3533.000000	98.045278
3532.000000	98.032597
3531.000000	98.019222
3530.000000	98.007318
3529.000000	97.998357
3528.000000	97.992730
3527.000000	97.989755
3526.000000	97.987161
3525.000000	97.981440
3524.000000	97.970238
3523.000000	97.954762
3522.000000	97.938850
3521.000000	97.925422
3520.000000	97.914341
3519.000000	97.903713
3518.000000	97.892308
3517.000000	97.880409
3516.000000	97.868947
3515.000000	97.858598
3514.000000	97.849572
3513.000000	97.841563
3512.000000	97.833823
3511.000000	97.825846
3510.000000	97.818250
3509.000000	97.812468
3508.000000	97.809096
3507.000000	97.806859
3506.000000	97.803528
3505.000000	97.797686
3504.000000	97.789635
3503.000000	97.780675
3502.000000	97.771872
3501.000000	97.763744
3500.000000	97.756356
3499.000000	97.749132
3498.000000	97.741157
3497.000000	97.732107
3496.000000	97.722332
3495.000000	97.711719
3494.000000	97.699357
3493.000000	97.685216
3492.000000	97.671480
3491.000000	97.661051
3490.000000	97.654622
3489.000000	97.650043
3488.000000	97.644833
3487.000000	97.638517
3486.000000	97.632004
3485.000000	97.625356
3484.000000	97.617290
3483.000000	97.607119
3482.000000	97.596652
3481.000000	97.589204
3480.000000	97.586479
3479.000000	97.586963
3478.000000	97.587668
3477.000000	97.586751
3476.000000	97.583966
3475.000000	97.579240
3474.000000	97.571959
3473.000000	97.561810
3472.000000	97.549351
3471.000000	97.535466
3470.000000	97.521224
3469.000000	97.508690
3468.000000	97.500589
3467.000000	97.497860
3466.000000	97.498074
3465.000000	97.497579
3464.000000	97.494932
3463.000000	97.491259
3462.000000	97.487489
3461.000000	97.482520
3460.000000	97.474408
3459.000000	97.462545
3458.000000	97.448372
3457.000000	97.434739
3456.000000	97.424653
3455.000000	97.419546
3454.000000	97.418181
3453.000000	97.417817
3452.000000	97.416635
3451.000000	97.414496
3450.000000	97.411477
3449.000000	97.406872
3448.000000	97.400179
3447.000000	97.391902
3446.000000	97.382247
3445.000000	97.369976
3444.000000	97.353996
3443.000000	97.335997
3442.000000	97.320588
3441.000000	97.312122
3440.000000	97.311290
3439.000000	97.314734
3438.000000	97.317519
3437.000000	97.316022
3436.000000	97.309244
3435.000000	97.298409
3434.000000	97.285999
3433.000000	97.274934
3432.000000	97.267384
3431.000000	97.263311
3430.000000	97.260517
3429.000000	97.256871
3428.000000	97.252212
3427.000000	97.247475
3426.000000	97.242765
3425.000000	97.237554
3424.000000	97.232289
3423.000000	97.228046
3422.000000	97.224183
3421.000000	97.217937
3420.000000	97.207473
3419.000000	97.194514
3418.000000	97.182756
3417.000000	97.174148
3416.000000	97.167611
3415.000000	97.160900
3414.000000	97.152881
3413.000000	97.143950
3412.000000	97.134784
3411.000000	97.125193
3410.000000	97.114496
3409.000000	97.103114
3408.000000	97.093291
3407.000000	97.087416
3406.000000	97.085416
3405.000000	97.084301
3404.000000	97.080660
3403.000000	97.073600
3402.000000	97.065251
3401.000000	97.058615
3400.000000	97.054848
3399.000000	97.052087
3398.000000	97.046638
3397.000000	97.035745
3396.000000	97.019825
3395.000000	97.002283
3394.000000	96.987187
3393.000000	96.976908
3392.000000	96.971305
3391.000000	96.968537
3390.000000	96.966532
3389.000000	96.963976
3388.000000	96.960283
3387.000000	96.955039
3386.000000	96.947814
3385.000000	96.938616
3384.000000	96.928267
3383.000000	96.918060
3382.000000	96.909085
3381.000000	96.901904
3380.000000	96.896545
3379.000000	96.892511
3378.000000	96.888911
3377.000000	96.884613
3376.000000	96.878153
3375.000000	96.867809
3374.000000	96.852744
3373.000000	96.834626
3372.000000	96.817353
3371.000000	96.804073
3370.000000	96.794310
3369.000000	96.784652
3368.000000	96.772448
3367.000000	96.758475
3366.000000	96.745818
3365.000000	96.736589
3364.000000	96.730089
3363.000000	96.723843
3362.000000	96.715911
3361.000000	96.706004
3360.000000	96.694591
3359.000000	96.681530
3358.000000	96.666235
3357.000000	96.648998
3356.000000	96.631250
3355.000000	96.614164
3354.000000	96.597737
3353.000000	96.581776
3352.000000	96.566913
3351.000000	96.553653
3350.000000	96.540928
3349.000000	96.526812
3348.000000	96.510642
3347.000000	96.493530
3346.000000	96.476753
3345.000000	96.460567
3344.000000	96.444869
3343.000000	96.430197
3342.000000	96.417439
3341.000000	96.406871
3340.000000	96.397844
3339.000000	96.389190
3338.000000	96.379672
3337.000000	96.368185
3336.000000	96.353778
3335.000000	96.335842
3334.000000	96.314808
3333.000000	96.292908
3332.000000	96.273596
3331.000000	96.259269
3330.000000	96.249320
3329.000000	96.240710
3328.000000	96.230405
3327.000000	96.217112
3326.000000	96.201167
3325.000000	96.183636
3324.000000	96.165738
3323.000000	96.148766
3322.000000	96.134140
3321.000000	96.123232
3320.000000	96.116462
3319.000000	96.112263
3318.000000	96.107557
3317.000000	96.100045
3316.000000	96.090026
3315.000000	96.079710
3314.000000	96.071130
3313.000000	96.064973
3312.000000	96.060385
3311.000000	96.054937
3310.000000	96.045564
3309.000000	96.031011
3308.000000	96.013484
3307.000000	95.996927
3306.000000	95.983732
3305.000000	95.973755
3304.000000	95.965733
3303.000000	95.958249
3302.000000	95.949695
3301.000000	95.939122
3300.000000	95.927625
3299.000000	95.917587
3298.000000	95.910149
3297.000000	95.904433
3296.000000	95.899416
3295.000000	95.895197
3294.000000	95.891809
3293.000000	95.888202
3292.000000	95.883472
3291.000000	95.878109
3290.000000	95.873097
3289.000000	95.868508
3288.000000	95.863898
3287.000000	95.859440
3286.000000	95.855761
3285.000000	95.853141
3284.000000	95.851525
3283.000000	95.850740
3282.000000	95.850084
3281.000000	95.848428
3280.000000	95.845797
3279.000000	95.844218
3278.000000	95.845972
3277.000000	95.851225
3276.000000	95.858289
3275.000000	95.866000
3274.000000	95.874467
3273.000000	95.883553
3272.000000	95.891904
3271.000000	95.898048
3270.000000	95.901782
3269.000000	95.904047
3268.000000	95.906022
3267.000000	95.908595
3266.000000	95.912162
3265.000000	95.916556
3264.000000	95.921429
3263.000000	95.926852
3262.000000	95.933184
3261.000000	95.940333
3260.000000	95.947815
3259.000000	95.955885
3258.000000	95.965976
3257.000000	95.979367
3256.000000	95.995574
3255.000000	96.012489
3254.000000	96.028016
3253.000000	96.041268
3252.000000	96.052440
3251.000000	96.062169
3250.000000	96.071139
3249.000000	96.079912
3248.000000	96.088797
3247.000000	96.097811
3246.000000	96.106715
3245.000000	96.114935
3244.000000	96.121603
3243.000000	96.126022
3242.000000	96.128172
3241.000000	96.128686
3240.000000	96.128644
3239.000000	96.129767
3238.000000	96.134472
3237.000000	96.144640
3236.000000	96.159653
3235.000000	96.176115
3234.000000	96.190250
3233.000000	96.200430
3232.000000	96.206992
3231.000000	96.210122
3230.000000	96.209300
3229.000000	96.205288
3228.000000	96.201599
3227.000000	96.202711
3226.000000	96.210552
3225.000000	96.223092
3224.000000	96.236100
3223.000000	96.246017
3222.000000	96.251916
3221.000000	96.255914
3220.000000	96.261962
3219.000000	96.272807
3218.000000	96.286924
3217.000000	96.298850
3216.000000	96.303542
3215.000000	96.300961
3214.000000	96.296016
3213.000000	96.293866
3212.000000	96.295936
3211.000000	96.300560
3210.000000	96.306367
3209.000000	96.313616
3208.000000	96.322450
3207.000000	96.331459
3206.000000	96.338983
3205.000000	96.345216
3204.000000	96.351904
3203.000000	96.359904
3202.000000	96.367959
3201.000000	96.374337
3200.000000	96.379199
3199.000000	96.384762
3198.000000	96.393038
3197.000000	96.403594
3196.000000	96.413463
3195.000000	96.419304
3194.000000	96.420084
3193.000000	96.418263
3192.000000	96.418594
3191.000000	96.425132
3190.000000	96.438596
3189.000000	96.455897
3188.000000	96.472190
3187.000000	96.484101
3186.000000	96.492003
3185.000000	96.499499
3184.000000	96.510051
3183.000000	96.523649
3182.000000	96.536860
3181.000000	96.546414
3180.000000	96.552360
3179.000000	96.557346
3178.000000	96.563408
3177.000000	96.570490
3176.000000	96.578179
3175.000000	96.587408
3174.000000	96.599320
3173.000000	96.613045
3172.000000	96.625867
3171.000000	96.635905
3170.000000	96.643856
3169.000000	96.651822
3168.000000	96.661057
3167.000000	96.671321
3166.000000	96.681770
3165.000000	96.691641
3164.000000	96.700356
3163.000000	96.707960
3162.000000	96.715701
3161.000000	96.725522
3160.000000	96.738477
3159.000000	96.753772
3158.000000	96.769392
3157.000000	96.783245
3156.000000	96.793781
3155.000000	96.800623
3154.000000	96.805456
3153.000000	96.811694
3152.000000	96.821857
3151.000000	96.835004
3150.000000	96.847542
3149.000000	96.856989
3148.000000	96.864259
3147.000000	96.871889
3146.000000	96.880776
