PE IR       SUBTECH     SPECTRUM    ASCII       PEDS        4.00        
   -1
3C-YYX-C009_1.ASC
23/09/07
11:18:19.00
23/09/07
11:30:09.00
uco
Sample 009 By uco Date Thursday, September 07 2023
450.000000
#HDR
-1
-1
#GR
cm-1
%T
1.0
0.0
4000.000000
-1.000000
3551
8
98.592392
78.997922
#DATA
4000.000000	98.521160
3999.000000	98.518385
3998.000000	98.513676
3997.000000	98.508206
3996.000000	98.503999
3995.000000	98.502534
3994.000000	98.503655
3993.000000	98.505767
3992.000000	98.507006
3991.000000	98.506297
3990.000000	98.503810
3989.000000	98.500821
3988.000000	98.499151
3987.000000	98.500031
3986.000000	98.503104
3985.000000	98.506636
3984.000000	98.508896
3983.000000	98.509374
3982.000000	98.508607
3981.000000	98.507164
3980.000000	98.505096
3979.000000	98.502079
3978.000000	98.497828
3977.000000	98.492584
3976.000000	98.487656
3975.000000	98.485405
3974.000000	98.487872
3973.000000	98.494966
3972.000000	98.503975
3971.000000	98.511005
3970.000000	98.513288
3969.000000	98.510523
3968.000000	98.504810
3967.000000	98.499353
3966.000000	98.496556
3965.000000	98.496841
3964.000000	98.498844
3963.000000	98.500726
3962.000000	98.501573
3961.000000	98.501764
3960.000000	98.502030
3959.000000	98.502339
3958.000000	98.501715
3957.000000	98.499081
3956.000000	98.494539
3955.000000	98.489625
3954.000000	98.486261
3953.000000	98.485525
3952.000000	98.487293
3951.000000	98.490698
3950.000000	98.494335
3949.000000	98.496298
3948.000000	98.494990
3947.000000	98.490390
3946.000000	98.484572
3945.000000	98.480584
3944.000000	98.480453
3943.000000	98.483741
3942.000000	98.487823
3941.000000	98.490345
3940.000000	98.490937
3939.000000	98.490329
3938.000000	98.488825
3937.000000	98.485986
3936.000000	98.481900
3935.000000	98.478298
3934.000000	98.478123
3933.000000	98.483806
3932.000000	98.494741
3931.000000	98.506527
3930.000000	98.513508
3929.000000	98.512962
3928.000000	98.507110
3927.000000	98.500792
3926.000000	98.497441
3925.000000	98.496796
3924.000000	98.496285
3923.000000	98.494218
3922.000000	98.490735
3921.000000	98.486190
3920.000000	98.480419
3919.000000	98.473843
3918.000000	98.468852
3917.000000	98.468877
3916.000000	98.475089
3915.000000	98.484563
3914.000000	98.492114
3913.000000	98.494249
3912.000000	98.491248
3911.000000	98.486120
3910.000000	98.481418
3909.000000	98.477038
3908.000000	98.471395
3907.000000	98.463838
3906.000000	98.455877
3905.000000	98.450602
3904.000000	98.450889
3903.000000	98.457324
3902.000000	98.467201
3901.000000	98.475941
3900.000000	98.480765
3899.000000	98.482216
3898.000000	98.482296
3897.000000	98.482223
3896.000000	98.482050
3895.000000	98.482015
3894.000000	98.483107
3893.000000	98.485942
3892.000000	98.489566
3891.000000	98.492232
3890.000000	98.493236
3889.000000	98.492643
3888.000000	98.490195
3887.000000	98.485867
3886.000000	98.480544
3885.000000	98.475799
3884.000000	98.473300
3883.000000	98.473058
3882.000000	98.473179
3881.000000	98.471338
3880.000000	98.466993
3879.000000	98.462312
3878.000000	98.459522
3877.000000	98.458629
3876.000000	98.459025
3875.000000	98.460329
3874.000000	98.461199
3873.000000	98.460143
3872.000000	98.458072
3871.000000	98.458462
3870.000000	98.463451
3869.000000	98.470810
3868.000000	98.477106
3867.000000	98.481363
3866.000000	98.484789
3865.000000	98.488764
3864.000000	98.492946
3863.000000	98.495336
3862.000000	98.493998
3861.000000	98.488563
3860.000000	98.481003
3859.000000	98.473786
3858.000000	98.467662
3857.000000	98.461202
3856.000000	98.453459
3855.000000	98.446667
3854.000000	98.443290
3853.000000	98.443371
3852.000000	98.447521
3851.000000	98.455249
3850.000000	98.463262
3849.000000	98.469380
3848.000000	98.473580
3847.000000	98.476708
3846.000000	98.478799
3845.000000	98.478794
3844.000000	98.475834
3843.000000	98.470895
3842.000000	98.466569
3841.000000	98.465411
3840.000000	98.468591
3839.000000	98.475115
3838.000000	98.482343
3837.000000	98.488109
3836.000000	98.492568
3835.000000	98.496843
3834.000000	98.500602
3833.000000	98.502102
3832.000000	98.500299
3831.000000	98.495813
3830.000000	98.490047
3829.000000	98.484044
3828.000000	98.479125
3827.000000	98.477073
3826.000000	98.478093
3825.000000	98.479713
3824.000000	98.478967
3823.000000	98.475827
3822.000000	98.472091
3821.000000	98.467913
3820.000000	98.462351
3819.000000	98.455905
3818.000000	98.450239
3817.000000	98.447517
3816.000000	98.449585
3815.000000	98.455149
3814.000000	98.460736
3813.000000	98.463795
3812.000000	98.464176
3811.000000	98.463802
3810.000000	98.464530
3809.000000	98.466772
3808.000000	98.469398
3807.000000	98.470708
3806.000000	98.469880
3805.000000	98.467476
3804.000000	98.465096
3803.000000	98.466179
3802.000000	98.473545
3801.000000	98.484309
3800.000000	98.492163
3799.000000	98.495242
3798.000000	98.495467
3797.000000	98.495112
3796.000000	98.494951
3795.000000	98.494417
3794.000000	98.492886
3793.000000	98.490320
3792.000000	98.487488
3791.000000	98.485743
3790.000000	98.485996
3789.000000	98.488034
3788.000000	98.491178
3787.000000	98.494709
3786.000000	98.497562
3785.000000	98.498337
3784.000000	98.496470
3783.000000	98.493175
3782.000000	98.490801
3781.000000	98.491305
3780.000000	98.494821
3779.000000	98.499142
3778.000000	98.501423
3777.000000	98.500866
3776.000000	98.498818
3775.000000	98.496764
3774.000000	98.494400
3773.000000	98.490184
3772.000000	98.483875
3771.000000	98.478038
3770.000000	98.476347
3769.000000	98.480248
3768.000000	98.488586
3767.000000	98.498718
3766.000000	98.506930
3765.000000	98.509520
3764.000000	98.505666
3763.000000	98.498501
3762.000000	98.492406
3761.000000	98.489773
3760.000000	98.489702
3759.000000	98.489432
3758.000000	98.487429
3757.000000	98.484451
3756.000000	98.481827
3755.000000	98.480003
3754.000000	98.478226
3753.000000	98.474843
3752.000000	98.468224
3751.000000	98.458361
3750.000000	98.448084
3749.000000	98.441000
3748.000000	98.438807
3747.000000	98.442127
3746.000000	98.452004
3745.000000	98.466908
3744.000000	98.480304
3743.000000	98.488560
3742.000000	98.492938
3741.000000	98.493263
3740.000000	98.489627
3739.000000	98.484834
3738.000000	98.483207
3737.000000	98.487897
3736.000000	98.498932
3735.000000	98.512526
3734.000000	98.522558
3733.000000	98.525452
3732.000000	98.522992
3731.000000	98.519263
3730.000000	98.516271
3729.000000	98.513618
3728.000000	98.511324
3727.000000	98.510196
3726.000000	98.509445
3725.000000	98.506623
3724.000000	98.500929
3723.000000	98.494582
3722.000000	98.490013
3721.000000	98.488334
3720.000000	98.490136
3719.000000	98.495213
3718.000000	98.501288
3717.000000	98.504950
3716.000000	98.504942
3715.000000	98.503371
3714.000000	98.502413
3713.000000	98.501493
3712.000000	98.498288
3711.000000	98.493005
3710.000000	98.488900
3709.000000	98.487952
3708.000000	98.490078
3707.000000	98.494350
3706.000000	98.499941
3705.000000	98.506776
3704.000000	98.515337
3703.000000	98.524314
3702.000000	98.529668
3701.000000	98.528444
3700.000000	98.523293
3699.000000	98.518904
3698.000000	98.515897
3697.000000	98.511128
3696.000000	98.502449
3695.000000	98.491799
3694.000000	98.483223
3693.000000	98.480213
3692.000000	98.483966
3691.000000	98.492342
3690.000000	98.498436
3689.000000	98.495210
3688.000000	98.484337
3687.000000	98.473912
3686.000000	98.467363
3685.000000	98.461588
3684.000000	98.453570
3683.000000	98.444145
3682.000000	98.436544
3681.000000	98.432030
3680.000000	98.428293
3679.000000	98.421537
3678.000000	98.409838
3677.000000	98.395505
3676.000000	98.384396
3675.000000	98.380285
3674.000000	98.380144
3673.000000	98.379035
3672.000000	98.375740
3671.000000	98.374384
3670.000000	98.378306
3669.000000	98.383701
3668.000000	98.385184
3667.000000	98.382482
3666.000000	98.377751
3665.000000	98.373060
3664.000000	98.369753
3663.000000	98.367911
3662.000000	98.365647
3661.000000	98.360135
3660.000000	98.350316
3659.000000	98.337892
3658.000000	98.325752
3657.000000	98.316395
3656.000000	98.311666
3655.000000	98.312231
3654.000000	98.315665
3653.000000	98.317155
3652.000000	98.312845
3651.000000	98.301703
3650.000000	98.286049
3649.000000	98.272086
3648.000000	98.265300
3647.000000	98.263959
3646.000000	98.262461
3645.000000	98.258060
3644.000000	98.252246
3643.000000	98.248233
3642.000000	98.247261
3641.000000	98.247112
3640.000000	98.244912
3639.000000	98.239988
3638.000000	98.232882
3637.000000	98.223823
3636.000000	98.213474
3635.000000	98.203621
3634.000000	98.195177
3633.000000	98.186218
3632.000000	98.173947
3631.000000	98.158513
3630.000000	98.143623
3629.000000	98.133120
3628.000000	98.127776
3627.000000	98.125432
3626.000000	98.122523
3625.000000	98.116230
3624.000000	98.107460
3623.000000	98.099434
3622.000000	98.093828
3621.000000	98.088860
3620.000000	98.080797
3619.000000	98.067457
3618.000000	98.050590
3617.000000	98.033831
3616.000000	98.019613
3615.000000	98.008208
3614.000000	97.997428
3613.000000	97.984359
3612.000000	97.969597
3611.000000	97.957552
3610.000000	97.950636
3609.000000	97.946851
3608.000000	97.943423
3607.000000	97.940330
3606.000000	97.938920
3605.000000	97.938796
3604.000000	97.938828
3603.000000	97.938270
3602.000000	97.936097
3601.000000	97.930671
3600.000000	97.921271
3599.000000	97.909144
3598.000000	97.895713
3597.000000	97.881262
3596.000000	97.865824
3595.000000	97.850443
3594.000000	97.835683
3593.000000	97.821108
3592.000000	97.806354
3591.000000	97.792190
3590.000000	97.779100
3589.000000	97.766225
3588.000000	97.752098
3587.000000	97.737144
3586.000000	97.723256
3585.000000	97.711048
3584.000000	97.699907
3583.000000	97.689062
3582.000000	97.677611
3581.000000	97.664933
3580.000000	97.652003
3579.000000	97.641465
3578.000000	97.634468
3577.000000	97.628877
3576.000000	97.621155
3575.000000	97.609450
3574.000000	97.593625
3573.000000	97.574180
3572.000000	97.552640
3571.000000	97.532155
3570.000000	97.516068
3569.000000	97.505822
3568.000000	97.500139
3567.000000	97.496135
3566.000000	97.491237
3565.000000	97.484166
3564.000000	97.475105
3563.000000	97.464664
3562.000000	97.452855
3561.000000	97.439593
3560.000000	97.425767
3559.000000	97.412360
3558.000000	97.398446
3557.000000	97.381646
3556.000000	97.361307
3555.000000	97.339702
3554.000000	97.319474
3553.000000	97.300936
3552.000000	97.283285
3551.000000	97.267135
3550.000000	97.253996
3549.000000	97.244041
3548.000000	97.235633
3547.000000	97.226713
3546.000000	97.216389
3545.000000	97.205793
3544.000000	97.196862
3543.000000	97.189576
3542.000000	97.180828
3541.000000	97.167550
3540.000000	97.150770
3539.000000	97.135030
3538.000000	97.123253
3537.000000	97.113360
3536.000000	97.100801
3535.000000	97.083266
3534.000000	97.061774
3533.000000	97.039291
3532.000000	97.019717
3531.000000	97.006564
3530.000000	97.000390
3529.000000	96.998163
3528.000000	96.996440
3527.000000	96.993985
3526.000000	96.990084
3525.000000	96.982425
3524.000000	96.968883
3523.000000	96.950434
3522.000000	96.930514
3521.000000	96.911976
3520.000000	96.895775
3519.000000	96.881518
3518.000000	96.867820
3517.000000	96.853000
3516.000000	96.836631
3515.000000	96.820025
3514.000000	96.804489
3513.000000	96.790116
3512.000000	96.776793
3511.000000	96.765202
3510.000000	96.755775
3509.000000	96.747794
3508.000000	96.740735
3507.000000	96.735359
3506.000000	96.732046
3505.000000	96.728674
3504.000000	96.721413
3503.000000	96.707915
3502.000000	96.689379
3501.000000	96.669517
3500.000000	96.651862
3499.000000	96.637745
3498.000000	96.625986
3497.000000	96.614450
3496.000000	96.601892
3495.000000	96.588008
3494.000000	96.572557
3493.000000	96.556140
3492.000000	96.541633
3491.000000	96.532644
3490.000000	96.529615
3489.000000	96.528544
3488.000000	96.524192
3487.000000	96.513633
3486.000000	96.496789
3485.000000	96.475407
3484.000000	96.452591
3483.000000	96.432074
3482.000000	96.416484
3481.000000	96.406501
3480.000000	96.401704
3479.000000	96.400817
3478.000000	96.400902
3477.000000	96.397990
3476.000000	96.389553
3475.000000	96.375936
3474.000000	96.359372
3473.000000	96.342636
3472.000000	96.328433
3471.000000	96.318179
3470.000000	96.310689
3469.000000	96.303288
3468.000000	96.294513
3467.000000	96.284652
3466.000000	96.274114
3465.000000	96.263191
3464.000000	96.253283
3463.000000	96.245958
3462.000000	96.240122
3461.000000	96.232322
3460.000000	96.220803
3459.000000	96.207449
3458.000000	96.194945
3457.000000	96.183798
3456.000000	96.172972
3455.000000	96.161803
3454.000000	96.150197
3453.000000	96.138562
3452.000000	96.128377
3451.000000	96.121660
3450.000000	96.118780
3449.000000	96.117577
3448.000000	96.115001
3447.000000	96.108885
3446.000000	96.098229
3445.000000	96.083503
3444.000000	96.067262
3443.000000	96.053204
3442.000000	96.043785
3441.000000	96.039217
3440.000000	96.038603
3439.000000	96.040369
3438.000000	96.041398
3437.000000	96.037939
3436.000000	96.028573
3435.000000	96.015145
3434.000000	96.000394
3433.000000	95.986118
3432.000000	95.973633
3431.000000	95.964025
3430.000000	95.956935
3429.000000	95.950617
3428.000000	95.943864
3427.000000	95.936327
3426.000000	95.926917
3425.000000	95.914163
3424.000000	95.898960
3423.000000	95.884852
3422.000000	95.874169
3421.000000	95.865477
3420.000000	95.856094
3419.000000	95.845655
3418.000000	95.835645
3417.000000	95.826714
3416.000000	95.817944
3415.000000	95.808072
3414.000000	95.796676
3413.000000	95.784656
3412.000000	95.773606
3411.000000	95.763796
3410.000000	95.753329
3409.000000	95.740989
3408.000000	95.729504
3407.000000	95.723283
3406.000000	95.722527
3405.000000	95.721939
3404.000000	95.716123
3403.000000	95.704307
3402.000000	95.689078
3401.000000	95.673077
3400.000000	95.658097
3399.000000	95.645244
3398.000000	95.634257
3397.000000	95.623941
3396.000000	95.614182
3395.000000	95.606091
3394.000000	95.599496
3393.000000	95.592348
3392.000000	95.583596
3391.000000	95.574627
3390.000000	95.566639
3389.000000	95.558514
3388.000000	95.548697
3387.000000	95.537587
3386.000000	95.526742
3385.000000	95.516896
3384.000000	95.507810
3383.000000	95.498728
3382.000000	95.488043
3381.000000	95.474094
3380.000000	95.457443
3379.000000	95.441047
3378.000000	95.427136
3377.000000	95.415051
3376.000000	95.402717
3375.000000	95.388810
3374.000000	95.372933
3373.000000	95.355449
3372.000000	95.338196
3371.000000	95.323751
3370.000000	95.312724
3369.000000	95.302892
3368.000000	95.291769
3367.000000	95.278772
3366.000000	95.264239
3365.000000	95.248170
3364.000000	95.231171
3363.000000	95.214951
3362.000000	95.200346
3361.000000	95.185876
3360.000000	95.169511
3359.000000	95.151015
3358.000000	95.131640
3357.000000	95.112250
3356.000000	95.092673
3355.000000	95.072559
3354.000000	95.052379
3353.000000	95.033748
3352.000000	95.018289
3351.000000	95.005093
3350.000000	94.990077
3349.000000	94.969752
3348.000000	94.945500
3347.000000	94.922226
3346.000000	94.902664
3345.000000	94.885040
3344.000000	94.866613
3343.000000	94.847328
3342.000000	94.828965
3341.000000	94.812647
3340.000000	94.798258
3339.000000	94.784715
3338.000000	94.769938
3337.000000	94.752095
3336.000000	94.731857
3335.000000	94.712200
3334.000000	94.695210
3333.000000	94.680110
3332.000000	94.664875
3331.000000	94.648466
3330.000000	94.631140
3329.000000	94.613847
3328.000000	94.597533
3327.000000	94.581894
3326.000000	94.565008
3325.000000	94.545662
3324.000000	94.525739
3323.000000	94.508419
3322.000000	94.494261
3321.000000	94.481342
3320.000000	94.468767
3319.000000	94.457348
3318.000000	94.446657
3317.000000	94.434300
3316.000000	94.419087
3315.000000	94.402588
3314.000000	94.386520
3313.000000	94.370861
3312.000000	94.355358
3311.000000	94.340472
3310.000000	94.325844
3309.000000	94.309961
3308.000000	94.292691
3307.000000	94.276108
3306.000000	94.261662
3305.000000	94.248492
3304.000000	94.235544
3303.000000	94.223502
3302.000000	94.213435
3301.000000	94.205062
3300.000000	94.197422
3299.000000	94.189749
3298.000000	94.180977
3297.000000	94.170150
3296.000000	94.157975
3295.000000	94.146326
3294.000000	94.135691
3293.000000	94.125131
3292.000000	94.115139
3291.000000	94.108017
3290.000000	94.104585
3289.000000	94.102807
3288.000000	94.100833
3287.000000	94.099121
3286.000000	94.098357
3285.000000	94.097668
3284.000000	94.096198
3283.000000	94.094442
3282.000000	94.092805
3281.000000	94.090853
3280.000000	94.089577
3279.000000	94.091960
3278.000000	94.099612
3277.000000	94.110495
3276.000000	94.121720
3275.000000	94.133165
3274.000000	94.146331
3273.000000	94.161216
3272.000000	94.175944
3271.000000	94.188458
3270.000000	94.197387
3269.000000	94.202689
3268.000000	94.206758
3267.000000	94.213443
3266.000000	94.224503
3265.000000	94.238086
3264.000000	94.251881
3263.000000	94.266225
3262.000000	94.282846
3261.000000	94.301911
3260.000000	94.321735
3259.000000	94.340475
3258.000000	94.357188
3257.000000	94.372398
3256.000000	94.388369
3255.000000	94.407428
3254.000000	94.429149
3253.000000	94.450715
3252.000000	94.470668
3251.000000	94.490363
3250.000000	94.510848
3249.000000	94.530585
3248.000000	94.547850
3247.000000	94.563107
3246.000000	94.577171
3245.000000	94.588666
3244.000000	94.595813
3243.000000	94.599885
3242.000000	94.604587
3241.000000	94.612456
3240.000000	94.623384
3239.000000	94.636328
3238.000000	94.651055
3237.000000	94.668062
3236.000000	94.687368
3235.000000	94.707397
3234.000000	94.725243
3233.000000	94.738914
3232.000000	94.749196
3231.000000	94.758168
3230.000000	94.766021
3229.000000	94.771172
3228.000000	94.773736
3227.000000	94.776746
3226.000000	94.783008
3225.000000	94.792556
3224.000000	94.803960
3223.000000	94.816365
3222.000000	94.829321
3221.000000	94.842295
3220.000000	94.855390
3219.000000	94.868862
3218.000000	94.881090
3217.000000	94.889243
3216.000000	94.893295
3215.000000	94.897500
3214.000000	94.905728
3213.000000	94.916607
3212.000000	94.925218
3211.000000	94.928830
3210.000000	94.929498
3209.000000	94.931504
3208.000000	94.937880
3207.000000	94.948868
3206.000000	94.962489
3205.000000	94.976248
3204.000000	94.988648
3203.000000	94.999265
3202.000000	95.008063
3201.000000	95.015783
3200.000000	95.024651
3199.000000	95.036827
3198.000000	95.051610
3197.000000	95.065604
3196.000000	95.076152
3195.000000	95.083561
3194.000000	95.089923
3193.000000	95.097591
3192.000000	95.108836
3191.000000	95.124720
3190.000000	95.143435
3189.000000	95.161331
3188.000000	95.176363
3187.000000	95.189085
3186.000000	95.200464
3185.000000	95.210985
3184.000000	95.222323
3183.000000	95.236861
3182.000000	95.254152
3181.000000	95.270116
3180.000000	95.281402
3179.000000	95.288698
3178.000000	95.294777
3177.000000	95.301561
3176.000000	95.310924
3175.000000	95.325667
3174.000000	95.346699
3173.000000	95.370434
3172.000000	95.391465
3171.000000	95.407595
3170.000000	95.420520
3169.000000	95.432704
3168.000000	95.445470
3167.000000	95.459472
3166.000000	95.474887
3165.000000	95.491000
3164.000000	95.506960
3163.000000	95.522857
3162.000000	95.539243
3161.000000	95.556008
3160.000000	95.572557
3159.000000	95.588419
3158.000000	95.602837
3157.000000	95.614622
3156.000000	95.623609
3155.000000	95.631780
3154.000000	95.641925
3153.000000	95.655404
3152.000000	95.671445
3151.000000	95.687785
3150.000000	95.701656
3149.000000	95.711616
3148.000000	95.719327
3147.000000	95.728440
3146.000000	95.740636
