PE IR       SUBTECH     SPECTRUM    ASCII       PEDS        4.00        
   -1
3C-XXX-C020_1.ASC
23/09/07
10:35:28.00
23/09/07
11:30:09.00
uco
Sample 020 By uco Date Thursday, September 07 2023
450.000000
#HDR
-1
-1
#GR
cm-1
%T
1.0
0.0
4000.000000
-1.000000
3551
8
99.038974
90.199897
#DATA
4000.000000	98.938612
3999.000000	98.936877
3998.000000	98.935844
3997.000000	98.936260
3996.000000	98.937206
3995.000000	98.937191
3994.000000	98.935668
3993.000000	98.933436
3992.000000	98.931755
3991.000000	98.931098
3990.000000	98.930828
3989.000000	98.930112
3988.000000	98.928836
3987.000000	98.927402
3986.000000	98.925819
3985.000000	98.923522
3984.000000	98.920446
3983.000000	98.918023
3982.000000	98.918503
3981.000000	98.922850
3980.000000	98.929361
3979.000000	98.934467
3978.000000	98.935150
3977.000000	98.931022
3976.000000	98.924601
3975.000000	98.919671
3974.000000	98.918625
3973.000000	98.920796
3972.000000	98.923203
3971.000000	98.923003
3970.000000	98.919577
3969.000000	98.914581
3968.000000	98.910277
3967.000000	98.907934
3966.000000	98.907496
3965.000000	98.908307
3964.000000	98.909831
3963.000000	98.911668
3962.000000	98.913046
3961.000000	98.912711
3960.000000	98.909603
3959.000000	98.903666
3958.000000	98.895929
3957.000000	98.888045
3956.000000	98.881704
3955.000000	98.878192
3954.000000	98.878058
3953.000000	98.881000
3952.000000	98.886103
3951.000000	98.892175
3950.000000	98.898093
3949.000000	98.902876
3948.000000	98.905606
3947.000000	98.905338
3946.000000	98.901333
3945.000000	98.894073
3944.000000	98.886204
3943.000000	98.881726
3942.000000	98.883312
3941.000000	98.890444
3940.000000	98.899932
3939.000000	98.907870
3938.000000	98.911399
3937.000000	98.909651
3936.000000	98.904303
3935.000000	98.898991
3934.000000	98.897456
3933.000000	98.901339
3932.000000	98.908976
3931.000000	98.916718
3930.000000	98.921801
3929.000000	98.923498
3928.000000	98.921979
3927.000000	98.917913
3926.000000	98.912930
3925.000000	98.908743
3924.000000	98.905784
3923.000000	98.903768
3922.000000	98.902850
3921.000000	98.903163
3920.000000	98.903467
3919.000000	98.901883
3918.000000	98.898417
3917.000000	98.895830
3916.000000	98.896831
3915.000000	98.901262
3914.000000	98.906176
3913.000000	98.908249
3912.000000	98.905571
3911.000000	98.898498
3910.000000	98.889165
3909.000000	98.879807
3908.000000	98.871144
3907.000000	98.862617
3906.000000	98.855116
3905.000000	98.852304
3904.000000	98.857381
3903.000000	98.868702
3902.000000	98.880588
3901.000000	98.888967
3900.000000	98.894355
3899.000000	98.899414
3898.000000	98.905066
3897.000000	98.910037
3896.000000	98.912495
3895.000000	98.911084
3894.000000	98.905172
3893.000000	98.897231
3892.000000	98.892760
3891.000000	98.895459
3890.000000	98.903510
3889.000000	98.910845
3888.000000	98.911897
3887.000000	98.906748
3886.000000	98.900494
3885.000000	98.897601
3884.000000	98.897793
3883.000000	98.897047
3882.000000	98.893171
3881.000000	98.888117
3880.000000	98.884656
3879.000000	98.883869
3878.000000	98.884442
3877.000000	98.884126
3876.000000	98.883495
3875.000000	98.885946
3874.000000	98.891388
3873.000000	98.893078
3872.000000	98.885333
3871.000000	98.873297
3870.000000	98.868763
3869.000000	98.876806
3868.000000	98.890916
3867.000000	98.901552
3866.000000	98.904832
3865.000000	98.902875
3864.000000	98.899666
3863.000000	98.898405
3862.000000	98.898897
3861.000000	98.898083
3860.000000	98.893230
3859.000000	98.884583
3858.000000	98.875049
3857.000000	98.866554
3856.000000	98.856479
3855.000000	98.845316
3854.000000	98.841041
3853.000000	98.848152
3852.000000	98.861980
3851.000000	98.875534
3850.000000	98.886263
3849.000000	98.894789
3848.000000	98.901150
3847.000000	98.903960
3846.000000	98.901476
3845.000000	98.894176
3844.000000	98.885726
3843.000000	98.880359
3842.000000	98.879110
3841.000000	98.880289
3840.000000	98.882731
3839.000000	98.886595
3838.000000	98.891554
3837.000000	98.896846
3836.000000	98.902325
3835.000000	98.907294
3834.000000	98.910135
3833.000000	98.910041
3832.000000	98.907696
3831.000000	98.904503
3830.000000	98.900627
3829.000000	98.894829
3828.000000	98.887320
3827.000000	98.881375
3826.000000	98.880129
3825.000000	98.882837
3824.000000	98.884047
3823.000000	98.880407
3822.000000	98.877201
3821.000000	98.880029
3820.000000	98.886563
3819.000000	98.889798
3818.000000	98.887092
3817.000000	98.884435
3816.000000	98.887647
3815.000000	98.893983
3814.000000	98.897502
3813.000000	98.897266
3812.000000	98.897355
3811.000000	98.901068
3810.000000	98.906136
3809.000000	98.907824
3808.000000	98.905813
3807.000000	98.904156
3806.000000	98.905831
3805.000000	98.908497
3804.000000	98.906304
3803.000000	98.900144
3802.000000	98.897673
3801.000000	98.900310
3800.000000	98.901734
3799.000000	98.897334
3798.000000	98.889557
3797.000000	98.884824
3796.000000	98.886109
3795.000000	98.890032
3794.000000	98.891987
3793.000000	98.891172
3792.000000	98.890244
3791.000000	98.892043
3790.000000	98.897292
3789.000000	98.904195
3788.000000	98.909566
3787.000000	98.911059
3786.000000	98.909235
3785.000000	98.907158
3784.000000	98.907356
3783.000000	98.909538
3782.000000	98.911099
3781.000000	98.910410
3780.000000	98.908588
3779.000000	98.907542
3778.000000	98.907803
3777.000000	98.908923
3776.000000	98.910904
3775.000000	98.913955
3774.000000	98.916225
3773.000000	98.913664
3772.000000	98.904485
3771.000000	98.893322
3770.000000	98.888047
3769.000000	98.891972
3768.000000	98.901190
3767.000000	98.910216
3766.000000	98.917100
3765.000000	98.921959
3764.000000	98.923935
3763.000000	98.921759
3762.000000	98.916046
3761.000000	98.909777
3760.000000	98.905671
3759.000000	98.903899
3758.000000	98.902658
3757.000000	98.900525
3756.000000	98.897670
3755.000000	98.895421
3754.000000	98.895265
3753.000000	98.897228
3752.000000	98.898979
3751.000000	98.897342
3750.000000	98.893095
3749.000000	98.891031
3748.000000	98.892623
3747.000000	98.894612
3746.000000	98.898713
3745.000000	98.911142
3744.000000	98.929097
3743.000000	98.942343
3742.000000	98.945368
3741.000000	98.940430
3740.000000	98.932916
3739.000000	98.926417
3738.000000	98.922121
3737.000000	98.921465
3736.000000	98.924853
3735.000000	98.928277
3734.000000	98.927981
3733.000000	98.925928
3732.000000	98.926613
3731.000000	98.931270
3730.000000	98.937055
3729.000000	98.940828
3728.000000	98.942586
3727.000000	98.943929
3726.000000	98.944209
3725.000000	98.941296
3724.000000	98.935268
3723.000000	98.928984
3722.000000	98.925146
3721.000000	98.924294
3720.000000	98.925355
3719.000000	98.927228
3718.000000	98.928920
3717.000000	98.928761
3716.000000	98.925210
3715.000000	98.917846
3714.000000	98.907180
3713.000000	98.895502
3712.000000	98.887108
3711.000000	98.886133
3710.000000	98.893726
3709.000000	98.907233
3708.000000	98.921619
3707.000000	98.932478
3706.000000	98.938165
3705.000000	98.939662
3704.000000	98.939237
3703.000000	98.939212
3702.000000	98.940829
3701.000000	98.943372
3700.000000	98.944789
3699.000000	98.943066
3698.000000	98.937869
3697.000000	98.930614
3696.000000	98.923068
3695.000000	98.916587
3694.000000	98.912232
3693.000000	98.910357
3692.000000	98.909984
3691.000000	98.910863
3690.000000	98.914079
3689.000000	98.918738
3688.000000	98.921629
3687.000000	98.920840
3686.000000	98.916816
3685.000000	98.911659
3684.000000	98.907832
3683.000000	98.905353
3682.000000	98.902111
3681.000000	98.897667
3680.000000	98.894352
3679.000000	98.892357
3678.000000	98.886798
3677.000000	98.876845
3676.000000	98.868953
3675.000000	98.866011
3674.000000	98.864061
3673.000000	98.857337
3672.000000	98.844959
3671.000000	98.835354
3670.000000	98.836826
3669.000000	98.846135
3668.000000	98.853847
3667.000000	98.855298
3666.000000	98.851685
3665.000000	98.845625
3664.000000	98.838469
3663.000000	98.830726
3662.000000	98.823871
3661.000000	98.820271
3660.000000	98.821035
3659.000000	98.823925
3658.000000	98.825205
3657.000000	98.823088
3656.000000	98.818724
3655.000000	98.815235
3654.000000	98.814890
3653.000000	98.816467
3652.000000	98.815553
3651.000000	98.808713
3650.000000	98.797118
3649.000000	98.785616
3648.000000	98.778288
3647.000000	98.774502
3646.000000	98.770285
3645.000000	98.762962
3644.000000	98.753733
3643.000000	98.746870
3642.000000	98.745644
3641.000000	98.748578
3640.000000	98.750806
3639.000000	98.748629
3638.000000	98.741530
3637.000000	98.730496
3636.000000	98.716968
3635.000000	98.703778
3634.000000	98.694523
3633.000000	98.690737
3632.000000	98.689678
3631.000000	98.686898
3630.000000	98.683441
3629.000000	98.682911
3628.000000	98.684186
3627.000000	98.683475
3626.000000	98.678722
3625.000000	98.671076
3624.000000	98.663428
3623.000000	98.657216
3622.000000	98.650402
3621.000000	98.638629
3620.000000	98.619119
3619.000000	98.595086
3618.000000	98.575661
3617.000000	98.567656
3616.000000	98.569177
3615.000000	98.572642
3614.000000	98.570957
3613.000000	98.561966
3612.000000	98.549576
3611.000000	98.539021
3610.000000	98.531698
3609.000000	98.525899
3608.000000	98.519945
3607.000000	98.513667
3606.000000	98.507642
3605.000000	98.502024
3604.000000	98.496526
3603.000000	98.490542
3602.000000	98.483673
3601.000000	98.475678
3600.000000	98.466483
3599.000000	98.456392
3598.000000	98.445504
3597.000000	98.432895
3596.000000	98.417920
3595.000000	98.401877
3594.000000	98.387230
3593.000000	98.375559
3592.000000	98.366791
3591.000000	98.359965
3590.000000	98.353865
3589.000000	98.348508
3588.000000	98.344459
3587.000000	98.339785
3586.000000	98.331674
3585.000000	98.320212
3584.000000	98.307821
3583.000000	98.296285
3582.000000	98.285595
3581.000000	98.274842
3580.000000	98.263914
3579.000000	98.253799
3578.000000	98.245259
3577.000000	98.237777
3576.000000	98.229923
3575.000000	98.220253
3574.000000	98.207715
3573.000000	98.192365
3572.000000	98.176052
3571.000000	98.161268
3570.000000	98.148395
3569.000000	98.135334
3568.000000	98.120423
3567.000000	98.104257
3566.000000	98.089177
3565.000000	98.077329
3564.000000	98.068852
3563.000000	98.062205
3562.000000	98.055403
3561.000000	98.047015
3560.000000	98.036697
3559.000000	98.024991
3558.000000	98.012573
3557.000000	97.999601
3556.000000	97.985591
3555.000000	97.969970
3554.000000	97.953152
3553.000000	97.936986
3552.000000	97.923630
3551.000000	97.913901
3550.000000	97.906944
3549.000000	97.901340
3548.000000	97.896191
3547.000000	97.891187
3546.000000	97.885863
3545.000000	97.879244
3544.000000	97.870281
3543.000000	97.858169
3542.000000	97.842477
3541.000000	97.823800
3540.000000	97.804490
3539.000000	97.787796
3538.000000	97.775337
3537.000000	97.765219
3536.000000	97.753495
3535.000000	97.738069
3534.000000	97.720677
3533.000000	97.704820
3532.000000	97.692474
3531.000000	97.682936
3530.000000	97.674197
3529.000000	97.665013
3528.000000	97.655540
3527.000000	97.646261
3526.000000	97.636820
3525.000000	97.626180
3524.000000	97.613768
3523.000000	97.600029
3522.000000	97.585798
3521.000000	97.571439
3520.000000	97.556883
3519.000000	97.542166
3518.000000	97.527455
3517.000000	97.512859
3516.000000	97.498940
3515.000000	97.487151
3514.000000	97.478670
3513.000000	97.472460
3512.000000	97.465340
3511.000000	97.454840
3510.000000	97.441826
3509.000000	97.429590
3508.000000	97.420481
3507.000000	97.414121
3506.000000	97.408589
3505.000000	97.402195
3504.000000	97.393960
3503.000000	97.383683
3502.000000	97.372541
3501.000000	97.362712
3500.000000	97.355230
3499.000000	97.348597
3498.000000	97.340216
3497.000000	97.328937
3496.000000	97.315703
3495.000000	97.301773
3494.000000	97.287259
3493.000000	97.271931
3492.000000	97.256727
3491.000000	97.243629
3490.000000	97.234060
3489.000000	97.227704
3488.000000	97.222773
3487.000000	97.217150
3486.000000	97.209431
3485.000000	97.199302
3484.000000	97.187548
3483.000000	97.176016
3482.000000	97.167021
3481.000000	97.161865
3480.000000	97.159662
3479.000000	97.157973
3478.000000	97.154748
3477.000000	97.149340
3476.000000	97.141648
3475.000000	97.131120
3474.000000	97.117408
3473.000000	97.101584
3472.000000	97.085652
3471.000000	97.070764
3470.000000	97.056847
3469.000000	97.044178
3468.000000	97.034258
3467.000000	97.028351
3466.000000	97.025876
3465.000000	97.025056
3464.000000	97.024528
3463.000000	97.023336
3462.000000	97.019850
3461.000000	97.012046
3460.000000	96.999366
3459.000000	96.983690
3458.000000	96.968191
3457.000000	96.955516
3456.000000	96.946710
3455.000000	96.941018
3454.000000	96.936577
3453.000000	96.931875
3452.000000	96.926812
3451.000000	96.922189
3450.000000	96.918102
3449.000000	96.913252
3448.000000	96.905925
3447.000000	96.895489
3446.000000	96.883051
3445.000000	96.870706
3444.000000	96.860170
3443.000000	96.852039
3442.000000	96.845921
3441.000000	96.840854
3440.000000	96.835459
3439.000000	96.828039
3438.000000	96.817433
3437.000000	96.804362
3436.000000	96.791514
3435.000000	96.781512
3434.000000	96.774668
3433.000000	96.768974
3432.000000	96.762212
3431.000000	96.753879
3430.000000	96.745228
3429.000000	96.737798
3428.000000	96.731977
3427.000000	96.726866
3426.000000	96.721408
3425.000000	96.715524
3424.000000	96.709940
3423.000000	96.704824
3422.000000	96.698812
3421.000000	96.689626
3420.000000	96.675864
3419.000000	96.658413
3418.000000	96.640279
3417.000000	96.624859
3416.000000	96.613895
3415.000000	96.606670
3414.000000	96.601159
3413.000000	96.595881
3412.000000	96.590365
3411.000000	96.584215
3410.000000	96.576860
3409.000000	96.568586
3408.000000	96.560881
3407.000000	96.554863
3406.000000	96.549705
3405.000000	96.543287
3404.000000	96.534367
3403.000000	96.523616
3402.000000	96.512624
3401.000000	96.502384
3400.000000	96.492750
3399.000000	96.482837
3398.000000	96.471743
3397.000000	96.459316
3396.000000	96.446555
3395.000000	96.435104
3394.000000	96.425954
3393.000000	96.418448
3392.000000	96.410763
3391.000000	96.401773
3390.000000	96.392365
3389.000000	96.384558
3388.000000	96.379271
3387.000000	96.375296
3386.000000	96.370505
3385.000000	96.363519
3384.000000	96.353878
3383.000000	96.341526
3382.000000	96.327291
3381.000000	96.313462
3380.000000	96.302398
3379.000000	96.294054
3378.000000	96.285831
3377.000000	96.275348
3376.000000	96.262651
3375.000000	96.249459
3374.000000	96.237309
3373.000000	96.227148
3372.000000	96.219657
3371.000000	96.214477
3370.000000	96.209153
3369.000000	96.200050
3368.000000	96.185006
3367.000000	96.165126
3366.000000	96.144127
3365.000000	96.125989
3364.000000	96.112519
3363.000000	96.102275
3362.000000	96.091783
3361.000000	96.078332
3360.000000	96.061786
3359.000000	96.043664
3358.000000	96.024943
3357.000000	96.005247
3356.000000	95.983902
3355.000000	95.961168
3354.000000	95.938472
3353.000000	95.917820
3352.000000	95.900816
3351.000000	95.887598
3350.000000	95.876512
3349.000000	95.865040
3348.000000	95.851212
3347.000000	95.834371
3346.000000	95.815125
3345.000000	95.794902
3344.000000	95.775286
3343.000000	95.757351
3342.000000	95.741475
3341.000000	95.727599
3340.000000	95.715131
3339.000000	95.702627
3338.000000	95.688439
3337.000000	95.672228
3336.000000	95.655323
3335.000000	95.639047
3334.000000	95.623164
3333.000000	95.606548
3332.000000	95.588873
3331.000000	95.570840
3330.000000	95.553119
3329.000000	95.535789
3328.000000	95.518680
3327.000000	95.501688
3326.000000	95.484877
3325.000000	95.468659
3324.000000	95.453756
3323.000000	95.440556
3322.000000	95.428689
3321.000000	95.417622
3320.000000	95.407287
3319.000000	95.397623
3318.000000	95.387838
3317.000000	95.376751
3316.000000	95.363923
3315.000000	95.350142
3314.000000	95.336932
3313.000000	95.325730
3312.000000	95.316880
3311.000000	95.308878
3310.000000	95.299125
3309.000000	95.286281
3308.000000	95.271790
3307.000000	95.258489
3306.000000	95.247870
3305.000000	95.239158
3304.000000	95.230558
3303.000000	95.220729
3302.000000	95.209412
3301.000000	95.197596
3300.000000	95.187126
3299.000000	95.179428
3298.000000	95.174440
3297.000000	95.170953
3296.000000	95.167768
3295.000000	95.164168
3294.000000	95.159746
3293.000000	95.154630
3292.000000	95.149672
3291.000000	95.145600
3290.000000	95.142106
3289.000000	95.138351
3288.000000	95.134132
3287.000000	95.129806
3286.000000	95.125336
3285.000000	95.120438
3284.000000	95.115464
3283.000000	95.111168
3282.000000	95.107643
3281.000000	95.104802
3280.000000	95.104182
3279.000000	95.108518
3278.000000	95.118520
3277.000000	95.130926
3276.000000	95.141095
3275.000000	95.147424
3274.000000	95.152091
3273.000000	95.157698
3272.000000	95.164251
3271.000000	95.169590
3270.000000	95.171944
3269.000000	95.171505
3268.000000	95.170115
3267.000000	95.170133
3266.000000	95.173482
3265.000000	95.181067
3264.000000	95.192502
3263.000000	95.206205
3262.000000	95.219905
3261.000000	95.231531
3260.000000	95.240213
3259.000000	95.246734
3258.000000	95.253043
3257.000000	95.261160
3256.000000	95.272245
3255.000000	95.286379
3254.000000	95.302917
3253.000000	95.320840
3252.000000	95.338866
3251.000000	95.355558
3250.000000	95.369759
3249.000000	95.381199
3248.000000	95.390642
3247.000000	95.399137
3246.000000	95.406845
3245.000000	95.412607
3244.000000	95.415153
3243.000000	95.414993
3242.000000	95.414697
3241.000000	95.416884
3240.000000	95.422161
3239.000000	95.429627
3238.000000	95.439030
3237.000000	95.451109
3236.000000	95.465315
3235.000000	95.478665
3234.000000	95.488296
3233.000000	95.494470
3232.000000	95.499673
3231.000000	95.505089
3230.000000	95.509728
3229.000000	95.513119
3228.000000	95.516921
3227.000000	95.522908
3226.000000	95.530720
3225.000000	95.538814
3224.000000	95.546694
3223.000000	95.555004
3222.000000	95.564038
3221.000000	95.573475
3220.000000	95.583283
3219.000000	95.593550
3218.000000	95.603383
3217.000000	95.611239
3216.000000	95.616862
3215.000000	95.622030
3214.000000	95.628581
3213.000000	95.636067
3212.000000	95.642035
3211.000000	95.644745
3210.000000	95.645211
3209.000000	95.646209
3208.000000	95.649532
3207.000000	95.654756
3206.000000	95.660835
3205.000000	95.667971
3204.000000	95.676980
3203.000000	95.687369
3202.000000	95.697509
3201.000000	95.706893
3200.000000	95.716857
3199.000000	95.728427
3198.000000	95.740574
3197.000000	95.751467
3196.000000	95.760505
3195.000000	95.768157
3194.000000	95.774871
3193.000000	95.781587
3192.000000	95.790562
3191.000000	95.803823
3190.000000	95.820611
3189.000000	95.837631
3188.000000	95.852142
3187.000000	95.863973
3186.000000	95.874675
3185.000000	95.885934
3184.000000	95.898932
3183.000000	95.913873
3182.000000	95.929327
3181.000000	95.942897
3180.000000	95.953306
3179.000000	95.961505
3178.000000	95.969514
3177.000000	95.978706
3176.000000	95.989542
3175.000000	96.002175
3174.000000	96.016547
3173.000000	96.032153
3172.000000	96.048125
3171.000000	96.063404
3170.000000	96.076706
3169.000000	96.087003
3168.000000	96.094629
3167.000000	96.101643
3166.000000	96.110585
3165.000000	96.122764
3164.000000	96.137656
3163.000000	96.153459
3162.000000	96.168066
3161.000000	96.180235
3160.000000	96.190497
3159.000000	96.200784
3158.000000	96.212561
3157.000000	96.225259
3156.000000	96.236922
3155.000000	96.246572
3154.000000	96.255734
3153.000000	96.267265
3152.000000	96.282405
3151.000000	96.299034
3150.000000	96.313235
3149.000000	96.322960
3148.000000	96.329943
3147.000000	96.337753
3146.000000	96.348300
