PE IR       SUBTECH     SPECTRUM    ASCII       PEDS        4.00        
   -1
3C-XXX-F012_1.ASC
23/09/07
10:46:03.00
23/09/07
11:30:09.00
uco
Sample 012 By uco Date Thursday, September 07 2023
450.000000
#HDR
-1
-1
#GR
cm-1
%T
1.0
0.0
4000.000000
-1.000000
3551
8
98.977336
87.610384
#DATA
4000.000000	98.892514
3999.000000	98.894312
3998.000000	98.894620
3997.000000	98.893588
3996.000000	98.891625
3995.000000	98.889241
3994.000000	98.886651
3993.000000	98.883659
3992.000000	98.879842
3991.000000	98.874948
3990.000000	98.869223
3989.000000	98.863563
3988.000000	98.859413
3987.000000	98.858230
3986.000000	98.860680
3985.000000	98.866033
3984.000000	98.872315
3983.000000	98.877299
3982.000000	98.879613
3981.000000	98.879313
3980.000000	98.877527
3979.000000	98.875508
3978.000000	98.873847
3977.000000	98.872347
3976.000000	98.870537
3975.000000	98.868343
3974.000000	98.866332
3973.000000	98.865344
3972.000000	98.865762
3971.000000	98.867089
3970.000000	98.868334
3969.000000	98.868829
3968.000000	98.868705
3967.000000	98.868393
3966.000000	98.867750
3965.000000	98.866020
3964.000000	98.862794
3963.000000	98.858816
3962.000000	98.855505
3961.000000	98.853706
3960.000000	98.853039
3959.000000	98.852569
3958.000000	98.851750
3957.000000	98.850558
3956.000000	98.849185
3955.000000	98.848008
3954.000000	98.847727
3953.000000	98.849039
3952.000000	98.851879
3951.000000	98.855105
3950.000000	98.857175
3949.000000	98.857296
3948.000000	98.855901
3947.000000	98.853848
3946.000000	98.851375
3945.000000	98.848368
3944.000000	98.845668
3943.000000	98.845407
3942.000000	98.849120
3941.000000	98.855791
3940.000000	98.862228
3939.000000	98.865210
3938.000000	98.863397
3937.000000	98.857705
3936.000000	98.850525
3935.000000	98.844792
3934.000000	98.843276
3933.000000	98.847613
3932.000000	98.856909
3931.000000	98.867528
3930.000000	98.875216
3929.000000	98.877659
3928.000000	98.875223
3927.000000	98.870091
3926.000000	98.865086
3925.000000	98.862489
3924.000000	98.862994
3923.000000	98.865749
3922.000000	98.869290
3921.000000	98.871947
3920.000000	98.871732
3919.000000	98.867004
3918.000000	98.858256
3917.000000	98.848918
3916.000000	98.842965
3915.000000	98.841403
3914.000000	98.841885
3913.000000	98.841652
3912.000000	98.839892
3911.000000	98.837872
3910.000000	98.837233
3909.000000	98.838250
3908.000000	98.839587
3907.000000	98.839348
3906.000000	98.836903
3905.000000	98.834247
3904.000000	98.834834
3903.000000	98.839933
3902.000000	98.846758
3901.000000	98.851113
3900.000000	98.851656
3899.000000	98.850668
3898.000000	98.850848
3897.000000	98.852641
3896.000000	98.854546
3895.000000	98.855204
3894.000000	98.854729
3893.000000	98.854661
3892.000000	98.856629
3891.000000	98.860701
3890.000000	98.865384
3889.000000	98.868777
3888.000000	98.869127
3887.000000	98.866246
3886.000000	98.862610
3885.000000	98.860969
3884.000000	98.861280
3883.000000	98.861194
3882.000000	98.858820
3881.000000	98.854620
3880.000000	98.850536
3879.000000	98.847875
3878.000000	98.846513
3877.000000	98.845375
3876.000000	98.844204
3875.000000	98.844833
3874.000000	98.848728
3873.000000	98.853677
3872.000000	98.855459
3871.000000	98.853249
3870.000000	98.851456
3869.000000	98.854537
3868.000000	98.861438
3867.000000	98.867026
3866.000000	98.867432
3865.000000	98.863227
3864.000000	98.857669
3863.000000	98.853105
3862.000000	98.849804
3861.000000	98.847698
3860.000000	98.847294
3859.000000	98.848753
3858.000000	98.850718
3857.000000	98.849952
3856.000000	98.843055
3855.000000	98.830370
3854.000000	98.819528
3853.000000	98.818699
3852.000000	98.825650
3851.000000	98.833947
3850.000000	98.840288
3849.000000	98.844087
3848.000000	98.846746
3847.000000	98.849808
3846.000000	98.853659
3845.000000	98.857217
3844.000000	98.858692
3843.000000	98.857343
3842.000000	98.854396
3841.000000	98.852437
3840.000000	98.853574
3839.000000	98.857262
3838.000000	98.860294
3837.000000	98.860319
3836.000000	98.858798
3835.000000	98.858308
3834.000000	98.858863
3833.000000	98.858418
3832.000000	98.855669
3831.000000	98.851210
3830.000000	98.846261
3829.000000	98.841088
3828.000000	98.835534
3827.000000	98.831111
3826.000000	98.830718
3825.000000	98.835511
3824.000000	98.843074
3823.000000	98.849435
3822.000000	98.852432
3821.000000	98.853015
3820.000000	98.853487
3819.000000	98.855402
3818.000000	98.858147
3817.000000	98.859353
3816.000000	98.857208
3815.000000	98.851458
3814.000000	98.843813
3813.000000	98.837178
3812.000000	98.834157
3811.000000	98.836153
3810.000000	98.842066
3809.000000	98.848259
3808.000000	98.851684
3807.000000	98.853166
3806.000000	98.855869
3805.000000	98.860535
3804.000000	98.864147
3803.000000	98.863870
3802.000000	98.861425
3801.000000	98.861081
3800.000000	98.864021
3799.000000	98.867896
3798.000000	98.869283
3797.000000	98.866116
3796.000000	98.859447
3795.000000	98.852258
3794.000000	98.846673
3793.000000	98.842809
3792.000000	98.840021
3791.000000	98.838469
3790.000000	98.838930
3789.000000	98.841245
3788.000000	98.843781
3787.000000	98.844630
3786.000000	98.843304
3785.000000	98.841257
3784.000000	98.840622
3783.000000	98.842614
3782.000000	98.847094
3781.000000	98.853013
3780.000000	98.858568
3779.000000	98.861484
3778.000000	98.860557
3777.000000	98.857158
3776.000000	98.854242
3775.000000	98.854325
3774.000000	98.858005
3773.000000	98.863231
3772.000000	98.866562
3771.000000	98.866466
3770.000000	98.865178
3769.000000	98.866076
3768.000000	98.869609
3767.000000	98.872892
3766.000000	98.872988
3765.000000	98.869691
3764.000000	98.865130
3763.000000	98.861162
3762.000000	98.858324
3761.000000	98.857143
3760.000000	98.858272
3759.000000	98.861093
3758.000000	98.864206
3757.000000	98.867500
3756.000000	98.871807
3755.000000	98.876962
3754.000000	98.882053
3753.000000	98.887055
3752.000000	98.892401
3751.000000	98.896223
3750.000000	98.895009
3749.000000	98.889755
3748.000000	98.885274
3747.000000	98.883169
3746.000000	98.882360
3745.000000	98.882649
3744.000000	98.883742
3743.000000	98.885146
3742.000000	98.886963
3741.000000	98.888031
3740.000000	98.887562
3739.000000	98.886744
3738.000000	98.887471
3737.000000	98.890926
3736.000000	98.896505
3735.000000	98.900714
3734.000000	98.899765
3733.000000	98.894228
3732.000000	98.888376
3731.000000	98.885729
3730.000000	98.886402
3729.000000	98.888037
3728.000000	98.888753
3727.000000	98.888716
3726.000000	98.888776
3725.000000	98.888828
3724.000000	98.888616
3723.000000	98.889093
3722.000000	98.891251
3721.000000	98.894791
3720.000000	98.898394
3719.000000	98.900593
3718.000000	98.900442
3717.000000	98.897609
3716.000000	98.892295
3715.000000	98.885252
3714.000000	98.877731
3713.000000	98.871944
3712.000000	98.870130
3711.000000	98.872291
3710.000000	98.875856
3709.000000	98.878785
3708.000000	98.881019
3707.000000	98.883295
3706.000000	98.886500
3705.000000	98.890976
3704.000000	98.895885
3703.000000	98.898924
3702.000000	98.898220
3701.000000	98.894954
3700.000000	98.892818
3699.000000	98.893345
3698.000000	98.894036
3697.000000	98.891704
3696.000000	98.886078
3695.000000	98.879904
3694.000000	98.876421
3693.000000	98.878040
3692.000000	98.885597
3691.000000	98.897192
3690.000000	98.906603
3689.000000	98.906225
3688.000000	98.895216
3687.000000	98.881476
3686.000000	98.872328
3685.000000	98.868805
3684.000000	98.869004
3683.000000	98.870987
3682.000000	98.873327
3681.000000	98.874657
3680.000000	98.874166
3679.000000	98.871180
3678.000000	98.864374
3677.000000	98.853478
3676.000000	98.842161
3675.000000	98.835219
3674.000000	98.833030
3673.000000	98.832978
3672.000000	98.831841
3671.000000	98.828584
3670.000000	98.825013
3669.000000	98.821710
3668.000000	98.817954
3667.000000	98.814548
3666.000000	98.812373
3665.000000	98.811289
3664.000000	98.810293
3663.000000	98.808006
3662.000000	98.804172
3661.000000	98.800410
3660.000000	98.798905
3659.000000	98.799918
3658.000000	98.801159
3657.000000	98.799938
3656.000000	98.796272
3655.000000	98.793380
3654.000000	98.793722
3653.000000	98.795609
3652.000000	98.794762
3651.000000	98.788008
3650.000000	98.776458
3649.000000	98.765937
3648.000000	98.761198
3647.000000	98.760346
3646.000000	98.758169
3645.000000	98.751964
3644.000000	98.742949
3643.000000	98.734584
3642.000000	98.729734
3641.000000	98.728430
3640.000000	98.728597
3639.000000	98.728562
3638.000000	98.727899
3637.000000	98.726042
3636.000000	98.721838
3635.000000	98.715380
3634.000000	98.709359
3633.000000	98.706798
3632.000000	98.707516
3631.000000	98.707997
3630.000000	98.704386
3629.000000	98.694994
3628.000000	98.681226
3627.000000	98.667167
3626.000000	98.655976
3625.000000	98.647928
3624.000000	98.643296
3623.000000	98.642558
3622.000000	98.643734
3621.000000	98.642066
3620.000000	98.633389
3619.000000	98.618871
3618.000000	98.605333
3617.000000	98.598489
3616.000000	98.597205
3615.000000	98.595180
3614.000000	98.586877
3613.000000	98.572142
3612.000000	98.555808
3611.000000	98.542262
3610.000000	98.531499
3609.000000	98.521451
3608.000000	98.512073
3607.000000	98.505308
3606.000000	98.502193
3605.000000	98.501570
3604.000000	98.501469
3603.000000	98.500064
3602.000000	98.496044
3601.000000	98.489301
3600.000000	98.481336
3599.000000	98.473742
3598.000000	98.466194
3597.000000	98.456833
3596.000000	98.444875
3595.000000	98.432461
3594.000000	98.422631
3593.000000	98.416244
3592.000000	98.411353
3591.000000	98.405417
3590.000000	98.396927
3589.000000	98.386158
3588.000000	98.374892
3587.000000	98.365232
3586.000000	98.358439
3585.000000	98.354072
3584.000000	98.349715
3583.000000	98.342077
3582.000000	98.329503
3581.000000	98.313542
3580.000000	98.298133
3579.000000	98.286763
3578.000000	98.279753
3577.000000	98.274428
3576.000000	98.267230
3575.000000	98.256345
3574.000000	98.242657
3573.000000	98.229113
3572.000000	98.218588
3571.000000	98.211851
3570.000000	98.206861
3569.000000	98.200348
3568.000000	98.190415
3567.000000	98.178291
3566.000000	98.166876
3565.000000	98.157490
3564.000000	98.148725
3563.000000	98.138297
3562.000000	98.125523
3561.000000	98.111962
3560.000000	98.099660
3559.000000	98.088808
3558.000000	98.077462
3557.000000	98.063583
3556.000000	98.046814
3555.000000	98.028470
3554.000000	98.010707
3553.000000	97.995922
3552.000000	97.985888
3551.000000	97.980259
3550.000000	97.976239
3549.000000	97.970684
3548.000000	97.962665
3547.000000	97.953966
3546.000000	97.946832
3545.000000	97.941337
3544.000000	97.935180
3543.000000	97.925602
3542.000000	97.911115
3541.000000	97.892416
3540.000000	97.872325
3539.000000	97.854362
3538.000000	97.840646
3537.000000	97.830786
3536.000000	97.822483
3535.000000	97.813072
3534.000000	97.800920
3533.000000	97.786383
3532.000000	97.771957
3531.000000	97.760900
3530.000000	97.754886
3529.000000	97.752953
3528.000000	97.752942
3527.000000	97.753109
3526.000000	97.751777
3525.000000	97.746552
3524.000000	97.735497
3523.000000	97.719286
3522.000000	97.701143
3521.000000	97.684283
3520.000000	97.670075
3519.000000	97.658498
3518.000000	97.649082
3517.000000	97.640845
3516.000000	97.632231
3515.000000	97.622089
3514.000000	97.610675
3513.000000	97.599194
3512.000000	97.588429
3511.000000	97.578290
3510.000000	97.568650
3509.000000	97.560001
3508.000000	97.552891
3507.000000	97.547019
3506.000000	97.541389
3505.000000	97.535047
3504.000000	97.527214
3503.000000	97.517063
3502.000000	97.504456
3501.000000	97.491047
3500.000000	97.479531
3499.000000	97.471327
3498.000000	97.465479
3497.000000	97.459838
3496.000000	97.452873
3495.000000	97.444046
3494.000000	97.433136
3493.000000	97.420232
3492.000000	97.406380
3491.000000	97.393493
3490.000000	97.383298
3489.000000	97.376460
3488.000000	97.372293
3487.000000	97.368640
3486.000000	97.362341
3485.000000	97.351024
3484.000000	97.335169
3483.000000	97.318418
3482.000000	97.305313
3481.000000	97.298041
3480.000000	97.295207
3479.000000	97.293422
3478.000000	97.289951
3477.000000	97.284085
3476.000000	97.276638
3475.000000	97.268422
3474.000000	97.259379
3473.000000	97.249139
3472.000000	97.237858
3471.000000	97.226100
3470.000000	97.214212
3469.000000	97.202330
3468.000000	97.190748
3467.000000	97.179805
3466.000000	97.169744
3465.000000	97.161237
3464.000000	97.155646
3463.000000	97.153680
3462.000000	97.153639
3461.000000	97.151877
3460.000000	97.145555
3459.000000	97.134600
3458.000000	97.121059
3457.000000	97.107414
3456.000000	97.095652
3455.000000	97.086836
3454.000000	97.080633
3453.000000	97.075618
3452.000000	97.070682
3451.000000	97.066171
3450.000000	97.063361
3449.000000	97.062797
3448.000000	97.063091
3447.000000	97.061080
3446.000000	97.053449
3445.000000	97.038941
3444.000000	97.019522
3443.000000	96.999829
3442.000000	96.985142
3441.000000	96.978670
3440.000000	96.979817
3439.000000	96.984605
3438.000000	96.987920
3437.000000	96.986182
3436.000000	96.978902
3435.000000	96.968181
3434.000000	96.956804
3433.000000	96.946458
3432.000000	96.937008
3431.000000	96.927006
3430.000000	96.915219
3429.000000	96.902213
3428.000000	96.890360
3427.000000	96.881711
3426.000000	96.876066
3425.000000	96.871649
3424.000000	96.867416
3423.000000	96.863667
3422.000000	96.860133
3421.000000	96.854652
3420.000000	96.844925
3419.000000	96.831383
3418.000000	96.817219
3417.000000	96.805419
3416.000000	96.796435
3415.000000	96.788766
3414.000000	96.781145
3413.000000	96.773582
3412.000000	96.766376
3411.000000	96.758905
3410.000000	96.750141
3409.000000	96.740301
3408.000000	96.731221
3407.000000	96.724536
3406.000000	96.719757
3405.000000	96.714515
3404.000000	96.706593
3403.000000	96.695506
3402.000000	96.682481
3401.000000	96.669504
3400.000000	96.658214
3399.000000	96.648928
3398.000000	96.640403
3397.000000	96.631106
3396.000000	96.621060
3395.000000	96.612078
3394.000000	96.605712
3393.000000	96.601192
3392.000000	96.595857
3391.000000	96.587828
3390.000000	96.577910
3389.000000	96.568675
3388.000000	96.561886
3387.000000	96.556952
3386.000000	96.551641
3385.000000	96.544005
3384.000000	96.533502
3383.000000	96.520829
3382.000000	96.507359
3381.000000	96.494826
3380.000000	96.484795
3379.000000	96.477668
3378.000000	96.472195
3377.000000	96.466262
3376.000000	96.458353
3375.000000	96.448341
3374.000000	96.437062
3373.000000	96.425265
3372.000000	96.412912
3371.000000	96.399470
3370.000000	96.384890
3369.000000	96.370079
3368.000000	96.356154
3367.000000	96.343423
3366.000000	96.331561
3365.000000	96.320579
3364.000000	96.310702
3363.000000	96.301109
3362.000000	96.289715
3361.000000	96.274921
3360.000000	96.257251
3359.000000	96.238756
3358.000000	96.221099
3357.000000	96.204594
3356.000000	96.188698
3355.000000	96.172848
3354.000000	96.156985
3353.000000	96.141694
3352.000000	96.127768
3351.000000	96.115375
3350.000000	96.103817
3349.000000	96.092156
3348.000000	96.079696
3347.000000	96.065770
3346.000000	96.049788
3345.000000	96.032004
3344.000000	96.013740
3343.000000	95.996409
3342.000000	95.980718
3341.000000	95.967160
3340.000000	95.956319
3339.000000	95.947689
3338.000000	95.938705
3337.000000	95.926123
3336.000000	95.908677
3335.000000	95.887991
3334.000000	95.866997
3333.000000	95.847920
3332.000000	95.831444
3331.000000	95.816853
3330.000000	95.802782
3329.000000	95.788223
3328.000000	95.772861
3327.000000	95.756487
3326.000000	95.738751
3325.000000	95.720059
3324.000000	95.702218
3323.000000	95.687329
3322.000000	95.676040
3321.000000	95.667297
3320.000000	95.659288
3319.000000	95.650178
3318.000000	95.638664
3317.000000	95.624945
3316.000000	95.611111
3315.000000	95.599665
3314.000000	95.591353
3313.000000	95.584594
3312.000000	95.576604
3311.000000	95.564820
3310.000000	95.548344
3309.000000	95.529309
3308.000000	95.512306
3307.000000	95.500798
3306.000000	95.493835
3305.000000	95.487151
3304.000000	95.477396
3303.000000	95.464656
3302.000000	95.451338
3301.000000	95.439973
3300.000000	95.432169
3299.000000	95.428126
3298.000000	95.426262
3297.000000	95.423975
3296.000000	95.419278
3295.000000	95.411519
3294.000000	95.400836
3293.000000	95.388075
3292.000000	95.375371
3291.000000	95.365471
3290.000000	95.359731
3289.000000	95.357283
3288.000000	95.356463
3287.000000	95.356275
3286.000000	95.356279
3285.000000	95.356082
3284.000000	95.355437
3283.000000	95.354177
3282.000000	95.351857
3281.000000	95.348455
3280.000000	95.345831
3279.000000	95.346955
3278.000000	95.352532
3277.000000	95.359288
3276.000000	95.363185
3275.000000	95.364320
3274.000000	95.367045
3273.000000	95.375129
3272.000000	95.387725
3271.000000	95.400235
3270.000000	95.408387
3269.000000	95.411201
3268.000000	95.411123
3267.000000	95.412107
3266.000000	95.417028
3265.000000	95.426062
3264.000000	95.437302
3263.000000	95.448964
3262.000000	95.460756
3261.000000	95.473000
3260.000000	95.485088
3259.000000	95.495763
3258.000000	95.505095
3257.000000	95.515352
3256.000000	95.529150
3255.000000	95.546803
3254.000000	95.565981
3253.000000	95.583899
3252.000000	95.599136
3251.000000	95.611351
3250.000000	95.620357
3249.000000	95.626636
3248.000000	95.632509
3247.000000	95.641360
3246.000000	95.654666
3245.000000	95.669775
3244.000000	95.681439
3243.000000	95.686126
3242.000000	95.684835
3241.000000	95.682007
3240.000000	95.682078
3239.000000	95.687095
3238.000000	95.696811
3237.000000	95.709783
3236.000000	95.723961
3235.000000	95.737153
3234.000000	95.748148
3233.000000	95.757448
3232.000000	95.766154
3231.000000	95.774048
3230.000000	95.779596
3229.000000	95.782000
3228.000000	95.782632
3227.000000	95.784197
3226.000000	95.788960
3225.000000	95.797740
3224.000000	95.809552
3223.000000	95.821794
3222.000000	95.831982
3221.000000	95.840131
3220.000000	95.848745
3219.000000	95.859504
3218.000000	95.870559
3217.000000	95.878354
3216.000000	95.881633
3215.000000	95.882718
3214.000000	95.884869
3213.000000	95.889328
3212.000000	95.894973
3211.000000	95.899976
3210.000000	95.903535
3209.000000	95.906399
3208.000000	95.909992
3207.000000	95.914989
3206.000000	95.921070
3205.000000	95.928061
3204.000000	95.936343
3203.000000	95.945517
3202.000000	95.953737
3201.000000	95.959668
3200.000000	95.964652
3199.000000	95.971556
3198.000000	95.981456
3197.000000	95.992642
3196.000000	96.002652
3195.000000	96.010091
3194.000000	96.014591
3193.000000	96.016965
3192.000000	96.020080
3191.000000	96.027915
3190.000000	96.042287
3189.000000	96.060927
3188.000000	96.079484
3187.000000	96.095050
3186.000000	96.107497
3185.000000	96.118443
3184.000000	96.129728
3183.000000	96.142334
3182.000000	96.155690
3181.000000	96.168015
3180.000000	96.177761
3179.000000	96.184696
3178.000000	96.189866
3177.000000	96.195221
3176.000000	96.203370
3175.000000	96.216268
3174.000000	96.233039
3173.000000	96.249841
3172.000000	96.263079
3171.000000	96.272722
3170.000000	96.281454
3169.000000	96.291101
3168.000000	96.301099
3167.000000	96.310516
3166.000000	96.319977
3165.000000	96.330721
3164.000000	96.342659
3163.000000	96.354493
3162.000000	96.365528
3161.000000	96.376549
3160.000000	96.388732
3159.000000	96.402282
3158.000000	96.416264
3157.000000	96.429343
3156.000000	96.440452
3155.000000	96.449337
3154.000000	96.457041
3153.000000	96.465601
3152.000000	96.476381
3151.000000	96.488440
3150.000000	96.499209
3149.000000	96.507360
3148.000000	96.514583
3147.000000	96.523928
3146.000000	96.536599
