PE IR       SUBTECH     SPECTRUM    ASCII       PEDS        4.00        
   -1
3C-YYX-C003_1.ASC
23/09/07
11:11:32.00
23/09/07
11:30:09.00
uco
Sample 003 By uco Date Thursday, September 07 2023
450.000000
#HDR
-1
-1
#GR
cm-1
%T
1.0
0.0
4000.000000
-1.000000
3551
8
98.667601
81.101733
#DATA
4000.000000	98.575894
3999.000000	98.572534
3998.000000	98.569208
3997.000000	98.566600
3996.000000	98.568431
3995.000000	98.568288
3994.000000	98.568143
3993.000000	98.567895
3992.000000	98.568019
3991.000000	98.568912
3990.000000	98.570089
3989.000000	98.570438
3988.000000	98.569400
3987.000000	98.567482
3986.000000	98.565371
3985.000000	98.562980
3984.000000	98.559990
3983.000000	98.557088
3982.000000	98.555939
3981.000000	98.557553
3980.000000	98.560938
3979.000000	98.563420
3978.000000	98.562274
3977.000000	98.556394
3976.000000	98.547205
3975.000000	98.538549
3974.000000	98.534824
3973.000000	98.538041
3972.000000	98.545996
3971.000000	98.553617
3970.000000	98.556865
3969.000000	98.555479
3968.000000	98.552272
3967.000000	98.550082
3966.000000	98.549384
3965.000000	98.548718
3964.000000	98.546868
3963.000000	98.544349
3962.000000	98.542940
3961.000000	98.543997
3960.000000	98.547087
3959.000000	98.550288
3958.000000	98.551590
3957.000000	98.549980
3956.000000	98.545830
3955.000000	98.540579
3954.000000	98.535915
3953.000000	98.533062
3952.000000	98.532583
3951.000000	98.534584
3950.000000	98.538699
3949.000000	98.543836
3948.000000	98.548473
3947.000000	98.551268
3946.000000	98.551424
3945.000000	98.548813
3944.000000	98.544556
3943.000000	98.541400
3942.000000	98.541865
3941.000000	98.545646
3940.000000	98.549367
3939.000000	98.549223
3938.000000	98.543959
3937.000000	98.535528
3936.000000	98.527517
3935.000000	98.523085
3934.000000	98.523794
3933.000000	98.529400
3932.000000	98.537975
3931.000000	98.546685
3930.000000	98.553245
3929.000000	98.556827
3928.000000	98.557710
3927.000000	98.556211
3926.000000	98.552900
3925.000000	98.549500
3924.000000	98.548096
3923.000000	98.549457
3922.000000	98.552790
3921.000000	98.556387
3920.000000	98.557793
3919.000000	98.554650
3918.000000	98.547277
3917.000000	98.540002
3916.000000	98.537484
3915.000000	98.539825
3914.000000	98.542675
3913.000000	98.542076
3912.000000	98.537377
3911.000000	98.530903
3910.000000	98.525561
3909.000000	98.522965
3908.000000	98.523118
3907.000000	98.525023
3906.000000	98.527398
3905.000000	98.529730
3904.000000	98.532704
3903.000000	98.537013
3902.000000	98.542048
3901.000000	98.546024
3900.000000	98.547750
3899.000000	98.547068
3898.000000	98.543899
3897.000000	98.538581
3896.000000	98.532620
3895.000000	98.528414
3894.000000	98.527832
3893.000000	98.531494
3892.000000	98.538864
3891.000000	98.548820
3890.000000	98.559225
3889.000000	98.566973
3888.000000	98.568538
3887.000000	98.562275
3886.000000	98.551548
3885.000000	98.543104
3884.000000	98.539887
3883.000000	98.538410
3882.000000	98.534517
3881.000000	98.528384
3880.000000	98.523842
3879.000000	98.523271
3878.000000	98.525048
3877.000000	98.526523
3876.000000	98.526980
3875.000000	98.528209
3874.000000	98.531940
3873.000000	98.535505
3872.000000	98.533058
3871.000000	98.523927
3870.000000	98.516824
3869.000000	98.520441
3868.000000	98.531813
3867.000000	98.540900
3866.000000	98.542303
3865.000000	98.538835
3864.000000	98.536290
3863.000000	98.537166
3862.000000	98.539141
3861.000000	98.539373
3860.000000	98.537637
3859.000000	98.536075
3858.000000	98.536623
3857.000000	98.538812
3856.000000	98.539605
3855.000000	98.535456
3854.000000	98.527243
3853.000000	98.522493
3852.000000	98.524369
3851.000000	98.527964
3850.000000	98.530546
3849.000000	98.533144
3848.000000	98.536892
3847.000000	98.540786
3846.000000	98.542160
3845.000000	98.538644
3844.000000	98.530093
3843.000000	98.519808
3842.000000	98.512088
3841.000000	98.509288
3840.000000	98.511947
3839.000000	98.519834
3838.000000	98.531223
3837.000000	98.543074
3836.000000	98.552731
3835.000000	98.558512
3834.000000	98.559262
3833.000000	98.555058
3832.000000	98.548080
3831.000000	98.540917
3830.000000	98.534397
3829.000000	98.527980
3828.000000	98.521686
3827.000000	98.517554
3826.000000	98.517782
3825.000000	98.521043
3824.000000	98.521855
3823.000000	98.515477
3822.000000	98.503658
3821.000000	98.495853
3820.000000	98.497783
3819.000000	98.503646
3818.000000	98.506672
3817.000000	98.507040
3816.000000	98.509862
3815.000000	98.516674
3814.000000	98.522707
3813.000000	98.523927
3812.000000	98.522090
3811.000000	98.521497
3810.000000	98.523518
3809.000000	98.525114
3808.000000	98.522933
3807.000000	98.518405
3806.000000	98.515951
3805.000000	98.516595
3804.000000	98.517177
3803.000000	98.515752
3802.000000	98.514770
3801.000000	98.517130
3800.000000	98.520216
3799.000000	98.520088
3798.000000	98.517401
3797.000000	98.515993
3796.000000	98.518193
3795.000000	98.521873
3794.000000	98.523614
3793.000000	98.523145
3792.000000	98.522968
3791.000000	98.524846
3790.000000	98.528258
3789.000000	98.531537
3788.000000	98.533366
3787.000000	98.532813
3786.000000	98.529633
3785.000000	98.525544
3784.000000	98.523792
3783.000000	98.526044
3782.000000	98.530716
3781.000000	98.534905
3780.000000	98.537249
3779.000000	98.538423
3778.000000	98.538715
3777.000000	98.537242
3776.000000	98.534174
3775.000000	98.531881
3774.000000	98.532366
3773.000000	98.534503
3772.000000	98.535147
3771.000000	98.533867
3770.000000	98.534313
3769.000000	98.538798
3768.000000	98.544393
3767.000000	98.546649
3766.000000	98.544734
3765.000000	98.541552
3764.000000	98.539644
3763.000000	98.538446
3762.000000	98.536276
3761.000000	98.533096
3760.000000	98.530046
3759.000000	98.527781
3758.000000	98.526697
3757.000000	98.527924
3756.000000	98.531697
3755.000000	98.536117
3754.000000	98.539346
3753.000000	98.542420
3752.000000	98.548406
3751.000000	98.557432
3750.000000	98.564976
3749.000000	98.568751
3748.000000	98.571661
3747.000000	98.574741
3746.000000	98.575513
3745.000000	98.572787
3744.000000	98.568460
3743.000000	98.563994
3742.000000	98.558395
3741.000000	98.551264
3740.000000	98.544385
3739.000000	98.540012
3738.000000	98.538825
3737.000000	98.541363
3736.000000	98.549798
3735.000000	98.564074
3734.000000	98.577387
3733.000000	98.582860
3732.000000	98.581879
3731.000000	98.580201
3730.000000	98.580060
3729.000000	98.578712
3728.000000	98.573325
3727.000000	98.564917
3726.000000	98.557124
3725.000000	98.551914
3724.000000	98.548934
3723.000000	98.548023
3722.000000	98.549131
3721.000000	98.551345
3720.000000	98.553514
3719.000000	98.555207
3718.000000	98.557058
3717.000000	98.560239
3716.000000	98.564991
3715.000000	98.569979
3714.000000	98.572657
3713.000000	98.570893
3712.000000	98.565714
3711.000000	98.561605
3710.000000	98.561050
3709.000000	98.561254
3708.000000	98.558969
3707.000000	98.554693
3706.000000	98.551296
3705.000000	98.551215
3704.000000	98.554897
3703.000000	98.561028
3702.000000	98.567959
3701.000000	98.574742
3700.000000	98.580858
3699.000000	98.585150
3698.000000	98.585911
3697.000000	98.582162
3696.000000	98.574049
3695.000000	98.562332
3694.000000	98.549054
3693.000000	98.538487
3692.000000	98.535461
3691.000000	98.541571
3690.000000	98.552215
3689.000000	98.559028
3688.000000	98.557891
3687.000000	98.552353
3686.000000	98.546640
3685.000000	98.540993
3684.000000	98.534525
3683.000000	98.527405
3682.000000	98.520040
3681.000000	98.512474
3680.000000	98.505615
3679.000000	98.499927
3678.000000	98.492649
3677.000000	98.480235
3676.000000	98.466622
3675.000000	98.462001
3674.000000	98.467163
3673.000000	98.473466
3672.000000	98.475136
3671.000000	98.472782
3670.000000	98.470194
3669.000000	98.468100
3668.000000	98.463061
3667.000000	98.453805
3666.000000	98.442682
3665.000000	98.432414
3664.000000	98.424006
3663.000000	98.417232
3662.000000	98.412449
3661.000000	98.411187
3660.000000	98.414493
3659.000000	98.420457
3658.000000	98.424324
3657.000000	98.422107
3656.000000	98.415535
3655.000000	98.411033
3654.000000	98.412444
3653.000000	98.416985
3652.000000	98.416997
3651.000000	98.404548
3650.000000	98.379815
3649.000000	98.356184
3648.000000	98.346204
3647.000000	98.345952
3646.000000	98.344082
3645.000000	98.335338
3644.000000	98.321857
3643.000000	98.308844
3642.000000	98.300056
3641.000000	98.295105
3640.000000	98.290911
3639.000000	98.286271
3638.000000	98.283208
3637.000000	98.283242
3636.000000	98.284221
3635.000000	98.282643
3634.000000	98.278334
3633.000000	98.274472
3632.000000	98.272737
3631.000000	98.270429
3630.000000	98.263006
3629.000000	98.249750
3628.000000	98.234056
3627.000000	98.217166
3626.000000	98.199395
3625.000000	98.183081
3624.000000	98.171574
3623.000000	98.166525
3622.000000	98.165423
3621.000000	98.162657
3620.000000	98.153797
3619.000000	98.139497
3618.000000	98.124400
3617.000000	98.112024
3616.000000	98.102480
3615.000000	98.093992
3614.000000	98.085202
3613.000000	98.075867
3612.000000	98.065817
3611.000000	98.053652
3610.000000	98.037339
3609.000000	98.017598
3608.000000	97.999847
3607.000000	97.989891
3606.000000	97.988067
3605.000000	97.989652
3604.000000	97.989374
3603.000000	97.983962
3602.000000	97.972963
3601.000000	97.958824
3600.000000	97.945136
3599.000000	97.933296
3598.000000	97.921907
3597.000000	97.908949
3596.000000	97.893818
3595.000000	97.878015
3594.000000	97.864025
3593.000000	97.853408
3592.000000	97.846136
3591.000000	97.840747
3590.000000	97.834311
3589.000000	97.823875
3588.000000	97.809453
3587.000000	97.794685
3586.000000	97.782134
3585.000000	97.771081
3584.000000	97.760343
3583.000000	97.749317
3582.000000	97.737163
3581.000000	97.723074
3580.000000	97.707336
3579.000000	97.691596
3578.000000	97.677774
3577.000000	97.666859
3576.000000	97.658189
3575.000000	97.649476
3574.000000	97.637935
3573.000000	97.622517
3572.000000	97.605509
3571.000000	97.590918
3570.000000	97.580424
3569.000000	97.571228
3568.000000	97.558676
3567.000000	97.541787
3566.000000	97.524327
3565.000000	97.509712
3564.000000	97.498231
3563.000000	97.488361
3562.000000	97.478293
3561.000000	97.466827
3560.000000	97.453687
3559.000000	97.439037
3558.000000	97.423013
3557.000000	97.405934
3556.000000	97.388467
3555.000000	97.370965
3554.000000	97.352978
3553.000000	97.334023
3552.000000	97.314979
3551.000000	97.298120
3550.000000	97.285504
3549.000000	97.277629
3548.000000	97.273086
3547.000000	97.268989
3546.000000	97.262434
3545.000000	97.252619
3544.000000	97.241098
3543.000000	97.229437
3542.000000	97.217038
3541.000000	97.201928
3540.000000	97.183380
3539.000000	97.163078
3538.000000	97.143584
3537.000000	97.126023
3536.000000	97.109436
3535.000000	97.092257
3534.000000	97.074156
3533.000000	97.056617
3532.000000	97.041989
3531.000000	97.031704
3530.000000	97.025160
3529.000000	97.020459
3528.000000	97.016324
3527.000000	97.012492
3526.000000	97.007999
3525.000000	97.000262
3524.000000	96.986852
3523.000000	96.968184
3522.000000	96.947700
3521.000000	96.929056
3520.000000	96.913361
3519.000000	96.898937
3518.000000	96.883212
3517.000000	96.865012
3516.000000	96.845551
3515.000000	96.827481
3514.000000	96.812844
3513.000000	96.801540
3512.000000	96.791586
3511.000000	96.780782
3510.000000	96.768458
3509.000000	96.756051
3508.000000	96.745953
3507.000000	96.739405
3506.000000	96.735319
3505.000000	96.730933
3504.000000	96.723684
3503.000000	96.712958
3502.000000	96.700277
3501.000000	96.687879
3500.000000	96.677014
3499.000000	96.667130
3498.000000	96.656369
3497.000000	96.642997
3496.000000	96.626670
3495.000000	96.608424
3494.000000	96.589869
3493.000000	96.572599
3492.000000	96.557904
3491.000000	96.546289
3490.000000	96.537027
3489.000000	96.528629
3488.000000	96.519855
3487.000000	96.510002
3486.000000	96.498406
3485.000000	96.484432
3484.000000	96.468302
3483.000000	96.451778
3482.000000	96.437533
3481.000000	96.427324
3480.000000	96.420696
3479.000000	96.415610
3478.000000	96.410485
3477.000000	96.405404
3476.000000	96.401237
3475.000000	96.397698
3474.000000	96.392799
3473.000000	96.384441
3472.000000	96.371958
3471.000000	96.356031
3470.000000	96.337973
3469.000000	96.319656
3468.000000	96.303251
3467.000000	96.289912
3466.000000	96.279055
3465.000000	96.269791
3464.000000	96.262548
3463.000000	96.258053
3462.000000	96.254822
3461.000000	96.248999
3460.000000	96.237203
3459.000000	96.218983
3458.000000	96.196699
3457.000000	96.174031
3456.000000	96.154727
3455.000000	96.141346
3454.000000	96.134130
3453.000000	96.131469
3452.000000	96.131564
3451.000000	96.133181
3450.000000	96.134894
3449.000000	96.134613
3448.000000	96.130684
3447.000000	96.123140
3446.000000	96.113161
3445.000000	96.101508
3444.000000	96.088121
3443.000000	96.073197
3442.000000	96.058370
3441.000000	96.046623
3440.000000	96.040551
3439.000000	96.040076
3438.000000	96.041612
3437.000000	96.039999
3436.000000	96.031950
3435.000000	96.017948
3434.000000	96.001120
3433.000000	95.984806
3432.000000	95.970935
3431.000000	95.959720
3430.000000	95.950160
3429.000000	95.940945
3428.000000	95.931357
3427.000000	95.921478
3426.000000	95.911763
3425.000000	95.902493
3424.000000	95.893478
3423.000000	95.884111
3422.000000	95.873912
3421.000000	95.863226
3420.000000	95.853002
3419.000000	95.843533
3418.000000	95.833794
3417.000000	95.822556
3416.000000	95.809883
3415.000000	95.797190
3414.000000	95.785994
3413.000000	95.776833
3412.000000	95.768967
3411.000000	95.760629
3410.000000	95.750197
3409.000000	95.738046
3408.000000	95.726911
3407.000000	95.719222
3406.000000	95.714088
3405.000000	95.707916
3404.000000	95.698213
3403.000000	95.686002
3402.000000	95.674215
3401.000000	95.664603
3400.000000	95.656538
3399.000000	95.647964
3398.000000	95.636925
3397.000000	95.622889
3396.000000	95.607372
3395.000000	95.593087
3394.000000	95.581881
3393.000000	95.573341
3392.000000	95.565444
3391.000000	95.556399
3390.000000	95.545764
3389.000000	95.534137
3388.000000	95.522279
3387.000000	95.510684
3386.000000	95.499728
3385.000000	95.489726
3384.000000	95.480249
3383.000000	95.469502
3382.000000	95.455349
3381.000000	95.437669
3380.000000	95.419257
3379.000000	95.403435
3378.000000	95.390896
3377.000000	95.379564
3376.000000	95.367382
3375.000000	95.354334
3374.000000	95.341783
3373.000000	95.330790
3372.000000	95.321399
3371.000000	95.312722
3370.000000	95.303099
3369.000000	95.290726
3368.000000	95.274887
3367.000000	95.256711
3366.000000	95.238528
3365.000000	95.222445
3364.000000	95.209121
3363.000000	95.197275
3362.000000	95.184274
3361.000000	95.167851
3360.000000	95.147771
3359.000000	95.125707
3358.000000	95.103449
3357.000000	95.081510
3356.000000	95.059509
3355.000000	95.037551
3354.000000	95.016920
3353.000000	94.999319
3352.000000	94.985214
3351.000000	94.972834
3350.000000	94.959212
3349.000000	94.942633
3348.000000	94.923867
3347.000000	94.904733
3346.000000	94.885878
3345.000000	94.866580
3344.000000	94.846286
3343.000000	94.825506
3342.000000	94.805185
3341.000000	94.786004
3340.000000	94.768478
3339.000000	94.752964
3338.000000	94.739083
3337.000000	94.725403
3336.000000	94.710165
3335.000000	94.692494
3334.000000	94.673045
3333.000000	94.653527
3332.000000	94.635421
3331.000000	94.619015
3330.000000	94.603723
3329.000000	94.588997
3328.000000	94.574217
3327.000000	94.557849
3326.000000	94.538138
3325.000000	94.515599
3324.000000	94.493952
3323.000000	94.477284
3322.000000	94.466397
3321.000000	94.458534
3320.000000	94.449884
3319.000000	94.437599
3318.000000	94.420517
3317.000000	94.399902
3316.000000	94.379597
3315.000000	94.363825
3314.000000	94.353860
3313.000000	94.347204
3312.000000	94.339855
3311.000000	94.328890
3310.000000	94.313545
3309.000000	94.295397
3308.000000	94.277670
3307.000000	94.262961
3306.000000	94.251007
3305.000000	94.239319
3304.000000	94.225995
3303.000000	94.211165
3302.000000	94.195894
3301.000000	94.181059
3300.000000	94.167739
3299.000000	94.157403
3298.000000	94.150737
3297.000000	94.146695
3296.000000	94.143142
3295.000000	94.138192
3294.000000	94.130947
3293.000000	94.121806
3292.000000	94.112240
3291.000000	94.103469
3290.000000	94.095138
3289.000000	94.086078
3288.000000	94.076622
3287.000000	94.069186
3286.000000	94.066157
3285.000000	94.067846
3284.000000	94.072451
3283.000000	94.077116
3282.000000	94.079068
3281.000000	94.077300
3280.000000	94.074147
3279.000000	94.074044
3278.000000	94.079691
3277.000000	94.089866
3276.000000	94.101647
3275.000000	94.114030
3274.000000	94.127965
3273.000000	94.143593
3272.000000	94.158929
3271.000000	94.171438
3270.000000	94.179975
3269.000000	94.185033
3268.000000	94.188219
3267.000000	94.191896
3266.000000	94.198550
3265.000000	94.209586
3264.000000	94.224642
3263.000000	94.242169
3262.000000	94.260429
3261.000000	94.277714
3260.000000	94.292237
3259.000000	94.302959
3258.000000	94.311308
3257.000000	94.321606
3256.000000	94.338613
3255.000000	94.363720
3254.000000	94.393581
3253.000000	94.422839
3252.000000	94.447980
3251.000000	94.468500
3250.000000	94.485236
3249.000000	94.498791
3248.000000	94.509795
3247.000000	94.519602
3246.000000	94.529827
3245.000000	94.540909
3244.000000	94.551354
3243.000000	94.558868
3242.000000	94.562724
3241.000000	94.565332
3240.000000	94.571205
3239.000000	94.583817
3238.000000	94.603191
3237.000000	94.626243
3236.000000	94.648861
3235.000000	94.667693
3234.000000	94.681093
3233.000000	94.689666
3232.000000	94.695779
3231.000000	94.701665
3230.000000	94.707859
3229.000000	94.713846
3228.000000	94.719819
3227.000000	94.726968
3226.000000	94.736078
3225.000000	94.746664
3224.000000	94.757561
3223.000000	94.767939
3222.000000	94.778056
3221.000000	94.789431
3220.000000	94.803711
3219.000000	94.820185
3218.000000	94.834866
3217.000000	94.843619
3216.000000	94.846459
3215.000000	94.847796
3214.000000	94.851890
3213.000000	94.859092
3212.000000	94.866981
3211.000000	94.873997
3210.000000	94.880905
3209.000000	94.889151
3208.000000	94.899065
3207.000000	94.909812
3206.000000	94.920563
3205.000000	94.931241
3204.000000	94.942113
3203.000000	94.952905
3202.000000	94.962903
3201.000000	94.972218
3200.000000	94.982440
3199.000000	94.995273
3198.000000	95.010602
3197.000000	95.026507
3196.000000	95.040951
3195.000000	95.052933
3194.000000	95.062429
3193.000000	95.070449
3192.000000	95.079155
3191.000000	95.090649
3190.000000	95.105081
3189.000000	95.120458
3188.000000	95.134517
3187.000000	95.146337
3186.000000	95.156573
3185.000000	95.167247
3184.000000	95.181190
3183.000000	95.200019
3182.000000	95.221818
3181.000000	95.241750
3180.000000	95.255919
3179.000000	95.264346
3178.000000	95.270294
3177.000000	95.277465
3176.000000	95.288278
3175.000000	95.303477
3174.000000	95.322139
3173.000000	95.342230
3172.000000	95.361928
3171.000000	95.380439
3170.000000	95.397455
3169.000000	95.412625
3168.000000	95.426027
3167.000000	95.438461
3166.000000	95.450680
3165.000000	95.462838
3164.000000	95.475123
3163.000000	95.488119
3162.000000	95.501838
3161.000000	95.515270
3160.000000	95.527891
3159.000000	95.541069
3158.000000	95.556675
3157.000000	95.574358
3156.000000	95.591307
3155.000000	95.605181
3154.000000	95.616602
3153.000000	95.628358
3152.000000	95.642308
3151.000000	95.657478
3150.000000	95.671299
3149.000000	95.682704
3148.000000	95.693547
3147.000000	95.706564
3146.000000	95.722083
