PE IR       SUBTECH     SPECTRUM    ASCII       PEDS        4.00        
   -1
3C-YYX-F003_1.ASC
23/09/07
10:55:30.00
23/09/07
11:30:09.00
uco
Sample 003 By uco Date Thursday, September 07 2023
450.000000
#HDR
-1
-1
#GR
cm-1
%T
1.0
0.0
4000.000000
-1.000000
3551
8
98.919817
85.841515
#DATA
4000.000000	98.826553
3999.000000	98.825448
3998.000000	98.823083
3997.000000	98.820231
3996.000000	98.818326
3995.000000	98.818556
3994.000000	98.820924
3993.000000	98.824442
3992.000000	98.827911
3991.000000	98.830522
3990.000000	98.831798
3989.000000	98.831197
3988.000000	98.828029
3987.000000	98.821990
3986.000000	98.813923
3985.000000	98.806038
3984.000000	98.801195
3983.000000	98.801349
3982.000000	98.806221
3981.000000	98.813244
3980.000000	98.818858
3979.000000	98.820385
3978.000000	98.817244
3977.000000	98.811012
3976.000000	98.804408
3975.000000	98.799775
3974.000000	98.797934
3973.000000	98.798158
3972.000000	98.799195
3971.000000	98.800343
3970.000000	98.801596
3969.000000	98.802843
3968.000000	98.803269
3967.000000	98.801889
3966.000000	98.798746
3965.000000	98.795282
3964.000000	98.793264
3963.000000	98.793310
3962.000000	98.794559
3961.000000	98.795706
3960.000000	98.796043
3959.000000	98.795379
3958.000000	98.793424
3957.000000	98.789828
3956.000000	98.784959
3955.000000	98.780309
3954.000000	98.777750
3953.000000	98.778349
3952.000000	98.781947
3951.000000	98.787562
3950.000000	98.793787
3949.000000	98.798814
3948.000000	98.800867
3947.000000	98.799094
3946.000000	98.794032
3945.000000	98.787387
3944.000000	98.781633
3943.000000	98.779223
3942.000000	98.780909
3941.000000	98.785005
3940.000000	98.788762
3939.000000	98.790417
3938.000000	98.790018
3937.000000	98.788670
3936.000000	98.787354
3935.000000	98.786599
3934.000000	98.787017
3933.000000	98.789525
3932.000000	98.794431
3931.000000	98.800388
3930.000000	98.804855
3929.000000	98.805913
3928.000000	98.803502
3927.000000	98.799134
3926.000000	98.795068
3925.000000	98.793362
3924.000000	98.794483
3923.000000	98.796896
3922.000000	98.798610
3921.000000	98.798623
3920.000000	98.796591
3919.000000	98.792022
3918.000000	98.785043
3917.000000	98.777861
3916.000000	98.773596
3915.000000	98.772995
3914.000000	98.773441
3913.000000	98.771933
3912.000000	98.767895
3911.000000	98.763391
3910.000000	98.760974
3909.000000	98.761450
3908.000000	98.763629
3907.000000	98.765707
3906.000000	98.767133
3905.000000	98.769690
3904.000000	98.776219
3903.000000	98.786990
3902.000000	98.798318
3901.000000	98.805706
3900.000000	98.807987
3899.000000	98.807521
3898.000000	98.806671
3897.000000	98.805725
3896.000000	98.803912
3895.000000	98.801100
3894.000000	98.798031
3893.000000	98.796183
3892.000000	98.797401
3891.000000	98.802472
3890.000000	98.809296
3889.000000	98.813582
3888.000000	98.811558
3887.000000	98.802916
3886.000000	98.792427
3885.000000	98.786409
3884.000000	98.786245
3883.000000	98.788261
3882.000000	98.789547
3881.000000	98.790343
3880.000000	98.791637
3879.000000	98.792722
3878.000000	98.791740
3877.000000	98.787617
3876.000000	98.781280
3875.000000	98.775844
3874.000000	98.774289
3873.000000	98.775615
3872.000000	98.775589
3871.000000	98.773302
3870.000000	98.774164
3869.000000	98.782389
3868.000000	98.793247
3867.000000	98.798117
3866.000000	98.794273
3865.000000	98.787586
3864.000000	98.786153
3863.000000	98.791767
3862.000000	98.799028
3861.000000	98.802517
3860.000000	98.801662
3859.000000	98.799892
3858.000000	98.801208
3857.000000	98.806380
3856.000000	98.811398
3855.000000	98.810007
3854.000000	98.801758
3853.000000	98.795557
3852.000000	98.795872
3851.000000	98.797050
3850.000000	98.794864
3849.000000	98.790014
3848.000000	98.784670
3847.000000	98.780062
3846.000000	98.776682
3845.000000	98.774822
3844.000000	98.774170
3843.000000	98.774227
3842.000000	98.775023
3841.000000	98.777412
3840.000000	98.782659
3839.000000	98.790971
3838.000000	98.799999
3837.000000	98.806518
3836.000000	98.809809
3835.000000	98.811285
3834.000000	98.811637
3833.000000	98.809885
3832.000000	98.805074
3831.000000	98.797566
3830.000000	98.788393
3829.000000	98.778437
3828.000000	98.768839
3827.000000	98.762150
3826.000000	98.761160
3825.000000	98.765672
3824.000000	98.771854
3823.000000	98.776274
3822.000000	98.779975
3821.000000	98.786910
3820.000000	98.796447
3819.000000	98.802754
3818.000000	98.802658
3817.000000	98.798306
3816.000000	98.794234
3815.000000	98.791543
3814.000000	98.786728
3813.000000	98.778034
3812.000000	98.769188
3811.000000	98.765753
3810.000000	98.769584
3809.000000	98.777474
3808.000000	98.784763
3807.000000	98.789952
3806.000000	98.794491
3805.000000	98.798953
3804.000000	98.802232
3803.000000	98.804539
3802.000000	98.808687
3801.000000	98.815646
3800.000000	98.820047
3799.000000	98.815749
3798.000000	98.802784
3797.000000	98.786931
3796.000000	98.774924
3795.000000	98.768927
3794.000000	98.765921
3793.000000	98.762802
3792.000000	98.759884
3791.000000	98.759237
3790.000000	98.761438
3789.000000	98.764600
3788.000000	98.766390
3787.000000	98.766189
3786.000000	98.765250
3785.000000	98.765172
3784.000000	98.766318
3783.000000	98.767750
3782.000000	98.768460
3781.000000	98.768493
3780.000000	98.768435
3779.000000	98.767948
3778.000000	98.765408
3777.000000	98.760095
3776.000000	98.753883
3775.000000	98.750153
3774.000000	98.750699
3773.000000	98.753782
3772.000000	98.756258
3771.000000	98.758399
3770.000000	98.764480
3769.000000	98.776181
3768.000000	98.788762
3767.000000	98.796211
3766.000000	98.797271
3765.000000	98.794790
3764.000000	98.790869
3763.000000	98.784434
3762.000000	98.774214
3761.000000	98.762497
3760.000000	98.754039
3759.000000	98.751433
3758.000000	98.753626
3757.000000	98.759458
3756.000000	98.768945
3755.000000	98.781183
3754.000000	98.794083
3753.000000	98.806379
3752.000000	98.817825
3751.000000	98.826430
3750.000000	98.828642
3749.000000	98.825467
3748.000000	98.822886
3747.000000	98.824247
3746.000000	98.828470
3745.000000	98.833172
3744.000000	98.835687
3743.000000	98.832802
3742.000000	98.822616
3741.000000	98.807049
3740.000000	98.791353
3739.000000	98.780528
3738.000000	98.777154
3737.000000	98.782581
3736.000000	98.797114
3735.000000	98.815904
3734.000000	98.829836
3733.000000	98.834727
3732.000000	98.834465
3731.000000	98.833906
3730.000000	98.833305
3729.000000	98.830010
3728.000000	98.822967
3727.000000	98.814475
3726.000000	98.807661
3725.000000	98.803024
3724.000000	98.799241
3723.000000	98.796538
3722.000000	98.796375
3721.000000	98.799352
3720.000000	98.804793
3719.000000	98.811266
3718.000000	98.817052
3717.000000	98.820794
3716.000000	98.821863
3715.000000	98.820252
3714.000000	98.816421
3713.000000	98.811725
3712.000000	98.808525
3711.000000	98.808093
3710.000000	98.808346
3709.000000	98.806350
3708.000000	98.802335
3707.000000	98.799579
3706.000000	98.801155
3705.000000	98.806906
3704.000000	98.812965
3703.000000	98.814371
3702.000000	98.809545
3701.000000	98.802280
3700.000000	98.797749
3699.000000	98.797286
3698.000000	98.798658
3697.000000	98.799483
3696.000000	98.798567
3695.000000	98.795032
3694.000000	98.788889
3693.000000	98.782804
3692.000000	98.781451
3691.000000	98.787972
3690.000000	98.800452
3689.000000	98.812471
3688.000000	98.818535
3687.000000	98.818334
3686.000000	98.814204
3685.000000	98.807739
3684.000000	98.800120
3683.000000	98.792131
3682.000000	98.783736
3681.000000	98.774766
3680.000000	98.766393
3679.000000	98.759798
3678.000000	98.753703
3677.000000	98.747022
3676.000000	98.744502
3675.000000	98.751161
3674.000000	98.761324
3673.000000	98.766282
3672.000000	98.764442
3671.000000	98.760458
3670.000000	98.759280
3669.000000	98.759123
3668.000000	98.754203
3667.000000	98.743832
3666.000000	98.732039
3665.000000	98.722384
3664.000000	98.715847
3663.000000	98.711491
3662.000000	98.708617
3661.000000	98.707919
3660.000000	98.710326
3659.000000	98.714503
3658.000000	98.716610
3657.000000	98.713733
3656.000000	98.708087
3655.000000	98.705081
3654.000000	98.706745
3653.000000	98.710249
3652.000000	98.711417
3651.000000	98.707890
3650.000000	98.700465
3649.000000	98.692012
3648.000000	98.684253
3647.000000	98.676753
3646.000000	98.668383
3645.000000	98.658380
3644.000000	98.647162
3643.000000	98.636757
3642.000000	98.629574
3641.000000	98.625960
3640.000000	98.623596
3639.000000	98.619972
3638.000000	98.614629
3637.000000	98.608458
3636.000000	98.602135
3635.000000	98.596364
3634.000000	98.592600
3633.000000	98.591526
3632.000000	98.591051
3631.000000	98.587718
3630.000000	98.581362
3629.000000	98.577653
3628.000000	98.580027
3627.000000	98.582631
3626.000000	98.579154
3625.000000	98.569348
3624.000000	98.557087
3623.000000	98.546290
3622.000000	98.537619
3621.000000	98.528485
3620.000000	98.516577
3619.000000	98.503317
3618.000000	98.492730
3617.000000	98.486978
3616.000000	98.484811
3615.000000	98.483498
3614.000000	98.481006
3613.000000	98.476440
3612.000000	98.469417
3611.000000	98.459425
3610.000000	98.446143
3609.000000	98.431232
3608.000000	98.418742
3607.000000	98.411664
3606.000000	98.408844
3605.000000	98.406613
3604.000000	98.402479
3603.000000	98.396706
3602.000000	98.391526
3601.000000	98.388836
3600.000000	98.387984
3599.000000	98.385499
3598.000000	98.377614
3597.000000	98.362890
3596.000000	98.342950
3595.000000	98.322150
3594.000000	98.305579
3593.000000	98.295484
3592.000000	98.289549
3591.000000	98.283088
3590.000000	98.272529
3589.000000	98.258270
3588.000000	98.244750
3587.000000	98.236102
3586.000000	98.231850
3585.000000	98.229358
3584.000000	98.227429
3583.000000	98.225367
3582.000000	98.221577
3581.000000	98.214632
3580.000000	98.204935
3579.000000	98.194159
3578.000000	98.183099
3577.000000	98.171190
3576.000000	98.157784
3575.000000	98.143170
3574.000000	98.128383
3573.000000	98.114948
3572.000000	98.104796
3571.000000	98.099361
3570.000000	98.097874
3569.000000	98.096909
3568.000000	98.092105
3567.000000	98.081247
3566.000000	98.065801
3565.000000	98.049144
3564.000000	98.033825
3563.000000	98.020608
3562.000000	98.008914
3561.000000	97.997737
3560.000000	97.986493
3559.000000	97.975179
3558.000000	97.963880
3557.000000	97.952610
3556.000000	97.941381
3555.000000	97.929851
3554.000000	97.917190
3553.000000	97.903177
3552.000000	97.889492
3551.000000	97.878758
3550.000000	97.871850
3549.000000	97.867040
3548.000000	97.861777
3547.000000	97.854998
3546.000000	97.847944
3545.000000	97.842901
3544.000000	97.840372
3543.000000	97.837336
3542.000000	97.828674
3541.000000	97.811424
3540.000000	97.788132
3539.000000	97.765631
3538.000000	97.749583
3537.000000	97.739983
3536.000000	97.732069
3535.000000	97.721522
3534.000000	97.707967
3533.000000	97.693868
3532.000000	97.681492
3531.000000	97.671259
3530.000000	97.662327
3529.000000	97.654513
3528.000000	97.649351
3527.000000	97.648419
3526.000000	97.650357
3525.000000	97.650589
3524.000000	97.644552
3523.000000	97.631167
3522.000000	97.612990
3521.000000	97.593518
3520.000000	97.575171
3519.000000	97.559252
3518.000000	97.546288
3517.000000	97.535788
3516.000000	97.526502
3515.000000	97.517476
3514.000000	97.508623
3513.000000	97.500083
3512.000000	97.491578
3511.000000	97.482787
3510.000000	97.474057
3509.000000	97.466323
3508.000000	97.460316
3507.000000	97.455942
3506.000000	97.452283
3505.000000	97.447982
3504.000000	97.441776
3503.000000	97.433090
3502.000000	97.422269
3501.000000	97.410086
3500.000000	97.397065
3499.000000	97.383544
3498.000000	97.370405
3497.000000	97.359295
3496.000000	97.351352
3495.000000	97.345570
3494.000000	97.339011
3493.000000	97.329238
3492.000000	97.316530
3491.000000	97.303607
3490.000000	97.293351
3489.000000	97.286664
3488.000000	97.282016
3487.000000	97.276441
3486.000000	97.267121
3485.000000	97.252910
3484.000000	97.235308
3483.000000	97.218213
3482.000000	97.205895
3481.000000	97.200014
3480.000000	97.198593
3479.000000	97.198243
3478.000000	97.197238
3477.000000	97.195821
3476.000000	97.193836
3475.000000	97.189211
3474.000000	97.179873
3473.000000	97.166726
3472.000000	97.153256
3471.000000	97.141982
3470.000000	97.132372
3469.000000	97.122599
3468.000000	97.112094
3467.000000	97.101662
3466.000000	97.092194
3465.000000	97.084568
3464.000000	97.080064
3463.000000	97.079136
3462.000000	97.079690
3461.000000	97.077968
3460.000000	97.071646
3459.000000	97.061278
3458.000000	97.048688
3457.000000	97.035221
3456.000000	97.022037
3455.000000	97.011009
3454.000000	97.004175
3453.000000	97.002242
3452.000000	97.003785
3451.000000	97.005695
3450.000000	97.004666
3449.000000	96.999132
3448.000000	96.990369
3447.000000	96.981283
3446.000000	96.973401
3445.000000	96.965473
3444.000000	96.955400
3443.000000	96.943039
3442.000000	96.930920
3441.000000	96.922406
3440.000000	96.919055
3439.000000	96.919412
3438.000000	96.920168
3437.000000	96.918640
3436.000000	96.914226
3435.000000	96.907619
3434.000000	96.899357
3433.000000	96.889871
3432.000000	96.880333
3431.000000	96.872015
3430.000000	96.864618
3429.000000	96.856286
3428.000000	96.845784
3427.000000	96.833900
3426.000000	96.822456
3425.000000	96.812731
3424.000000	96.805153
3423.000000	96.799627
3422.000000	96.795358
3421.000000	96.790788
3420.000000	96.784557
3419.000000	96.776572
3418.000000	96.767888
3417.000000	96.759898
3416.000000	96.753825
3415.000000	96.750309
3414.000000	96.748691
3413.000000	96.746730
3412.000000	96.741624
3411.000000	96.731762
3410.000000	96.717973
3409.000000	96.703461
3408.000000	96.692220
3407.000000	96.686460
3406.000000	96.684866
3405.000000	96.683452
3404.000000	96.678554
3403.000000	96.669418
3402.000000	96.658394
3401.000000	96.649015
3400.000000	96.643436
3399.000000	96.640652
3398.000000	96.636849
3397.000000	96.628272
3396.000000	96.614396
3395.000000	96.598123
3394.000000	96.582871
3393.000000	96.570096
3392.000000	96.559644
3391.000000	96.551425
3390.000000	96.545756
3389.000000	96.542344
3388.000000	96.539867
3387.000000	96.536782
3386.000000	96.532296
3385.000000	96.526481
3384.000000	96.519617
3383.000000	96.511489
3382.000000	96.501360
3381.000000	96.488837
3380.000000	96.474863
3379.000000	96.461547
3378.000000	96.450779
3377.000000	96.442984
3376.000000	96.437051
3375.000000	96.431124
3374.000000	96.423562
3373.000000	96.413873
3372.000000	96.403313
3371.000000	96.394207
3370.000000	96.387994
3369.000000	96.383700
3368.000000	96.378500
3367.000000	96.369887
3366.000000	96.357452
3365.000000	96.342923
3364.000000	96.328726
3363.000000	96.316309
3362.000000	96.305436
3361.000000	96.294887
3360.000000	96.283746
3359.000000	96.271786
3358.000000	96.258742
3357.000000	96.243828
3356.000000	96.226539
3355.000000	96.207760
3354.000000	96.189528
3353.000000	96.173506
3352.000000	96.159916
3351.000000	96.148012
3350.000000	96.137167
3349.000000	96.127154
3348.000000	96.117532
3347.000000	96.107185
3346.000000	96.094748
3345.000000	96.079433
3344.000000	96.061535
3343.000000	96.042572
3342.000000	96.025122
3341.000000	96.011762
3340.000000	96.003076
3339.000000	95.996578
3338.000000	95.988429
3337.000000	95.976717
3336.000000	95.962595
3335.000000	95.947999
3334.000000	95.933180
3333.000000	95.917314
3332.000000	95.900849
3331.000000	95.885979
3330.000000	95.874733
3329.000000	95.867167
3328.000000	95.861200
3327.000000	95.853575
3326.000000	95.841391
3325.000000	95.823946
3324.000000	95.803650
3323.000000	95.784554
3322.000000	95.769485
3321.000000	95.758677
3320.000000	95.750825
3319.000000	95.744718
3318.000000	95.739624
3317.000000	95.734658
3316.000000	95.728428
3315.000000	95.719573
3314.000000	95.707842
3313.000000	95.694708
3312.000000	95.682437
3311.000000	95.672171
3310.000000	95.663221
3309.000000	95.654573
3308.000000	95.646362
3307.000000	95.638850
3306.000000	95.630480
3305.000000	95.618515
3304.000000	95.602139
3303.000000	95.584078
3302.000000	95.568589
3301.000000	95.558174
3300.000000	95.552416
3299.000000	95.549154
3298.000000	95.546162
3297.000000	95.542146
3296.000000	95.536836
3295.000000	95.530289
3294.000000	95.522237
3293.000000	95.512494
3292.000000	95.501882
3291.000000	95.492061
3290.000000	95.484247
3289.000000	95.478515
3288.000000	95.474455
3287.000000	95.471893
3286.000000	95.470811
3285.000000	95.471147
3284.000000	95.472682
3283.000000	95.474554
3282.000000	95.474980
3281.000000	95.472647
3280.000000	95.468897
3279.000000	95.467328
3278.000000	95.470395
3277.000000	95.477049
3276.000000	95.484630
3275.000000	95.492496
3274.000000	95.502184
3273.000000	95.514260
3272.000000	95.526437
3271.000000	95.535359
3270.000000	95.539577
3269.000000	95.540376
3268.000000	95.540512
3267.000000	95.542608
3266.000000	95.548060
3265.000000	95.556636
3264.000000	95.567058
3263.000000	95.578285
3262.000000	95.590169
3261.000000	95.602693
3260.000000	95.614977
3259.000000	95.625702
3258.000000	95.634645
3257.000000	95.643215
3256.000000	95.653130
3255.000000	95.664874
3254.000000	95.677886
3253.000000	95.691995
3252.000000	95.707713
3251.000000	95.724792
3250.000000	95.741241
3249.000000	95.754696
3248.000000	95.764733
3247.000000	95.772972
3246.000000	95.780656
3245.000000	95.786718
3244.000000	95.789198
3243.000000	95.788470
3242.000000	95.788194
3241.000000	95.792593
3240.000000	95.802962
3239.000000	95.817138
3238.000000	95.832082
3237.000000	95.846302
3236.000000	95.859747
3235.000000	95.872335
3234.000000	95.883587
3233.000000	95.893413
3232.000000	95.902229
3231.000000	95.910055
3230.000000	95.916207
3229.000000	95.920226
3228.000000	95.922613
3227.000000	95.924407
3226.000000	95.926658
3225.000000	95.930514
3224.000000	95.936880
3223.000000	95.945326
3222.000000	95.954185
3221.000000	95.962695
3220.000000	95.972338
3219.000000	95.984702
3218.000000	95.998234
3217.000000	96.008933
3216.000000	96.014575
3215.000000	96.017094
3214.000000	96.019928
3213.000000	96.023992
3212.000000	96.027418
3211.000000	96.028806
3210.000000	96.029478
3209.000000	96.031962
3208.000000	96.037116
3207.000000	96.043510
3206.000000	96.049729
3205.000000	96.056385
3204.000000	96.065136
3203.000000	96.075952
3202.000000	96.086531
3201.000000	96.094902
3200.000000	96.101746
3199.000000	96.109250
3198.000000	96.118119
3197.000000	96.126951
3196.000000	96.134414
3195.000000	96.141002
3194.000000	96.148417
3193.000000	96.158201
3192.000000	96.171111
3191.000000	96.186738
3190.000000	96.203144
3189.000000	96.217561
3188.000000	96.228201
3187.000000	96.235207
3186.000000	96.239968
3185.000000	96.244179
3184.000000	96.249609
3183.000000	96.257641
3182.000000	96.268174
3181.000000	96.279531
3180.000000	96.290086
3179.000000	96.299627
3178.000000	96.308871
3177.000000	96.318404
3176.000000	96.328813
3175.000000	96.341062
3174.000000	96.355589
3173.000000	96.371220
3172.000000	96.385855
3171.000000	96.398313
3170.000000	96.408891
3169.000000	96.418359
3168.000000	96.427206
3167.000000	96.435804
3166.000000	96.444476
3165.000000	96.453234
3164.000000	96.462115
3163.000000	96.471868
3162.000000	96.483524
3161.000000	96.497021
3160.000000	96.510951
3159.000000	96.524056
3158.000000	96.536326
3157.000000	96.547963
3156.000000	96.557971
3155.000000	96.565026
3154.000000	96.569901
3153.000000	96.575975
3152.000000	96.586329
3151.000000	96.600565
3150.000000	96.615163
3149.000000	96.627102
3148.000000	96.636525
3147.000000	96.645713
3146.000000	96.656148
