PE IR       SUBTECH     SPECTRUM    ASCII       PEDS        4.00        
   -1
3C-XXX-F002_1.ASC
23/09/07
10:37:32.00
23/09/07
11:30:09.00
uco
Sample 002 By uco Date Thursday, September 07 2023
450.000000
#HDR
-1
-1
#GR
cm-1
%T
1.0
0.0
4000.000000
-1.000000
3551
8
98.937230
90.996216
#DATA
4000.000000	98.861408
3999.000000	98.860591
3998.000000	98.858360
3997.000000	98.855160
3996.000000	98.852138
3995.000000	98.850177
3994.000000	98.849405
3993.000000	98.849633
3992.000000	98.850796
3991.000000	98.852627
3990.000000	98.854166
3989.000000	98.854179
3988.000000	98.852232
3987.000000	98.849112
3986.000000	98.846048
3985.000000	98.843724
3984.000000	98.842355
3983.000000	98.842428
3982.000000	98.844774
3981.000000	98.849553
3980.000000	98.855374
3979.000000	98.859747
3978.000000	98.860580
3977.000000	98.857415
3976.000000	98.851585
3975.000000	98.845525
3974.000000	98.841659
3973.000000	98.841178
3972.000000	98.843246
3971.000000	98.845295
3970.000000	98.844791
3969.000000	98.841145
3968.000000	98.836128
3967.000000	98.832318
3966.000000	98.830945
3965.000000	98.831285
3964.000000	98.831767
3963.000000	98.831386
3962.000000	98.830117
3961.000000	98.828323
3960.000000	98.826267
3959.000000	98.824169
3958.000000	98.822367
3957.000000	98.821114
3956.000000	98.820303
3955.000000	98.819643
3954.000000	98.819016
3953.000000	98.818674
3952.000000	98.819121
3951.000000	98.820914
3950.000000	98.824329
3949.000000	98.828953
3948.000000	98.833639
3947.000000	98.836943
3946.000000	98.837824
3945.000000	98.836209
3944.000000	98.833535
3943.000000	98.832446
3942.000000	98.834666
3941.000000	98.839085
3940.000000	98.842610
3939.000000	98.842751
3938.000000	98.839493
3937.000000	98.834983
3936.000000	98.831561
3935.000000	98.830504
3934.000000	98.832257
3933.000000	98.837013
3932.000000	98.843975
3931.000000	98.850443
3930.000000	98.853287
3929.000000	98.851239
3928.000000	98.845301
3927.000000	98.837633
3926.000000	98.830579
3925.000000	98.826182
3924.000000	98.825522
3923.000000	98.828533
3922.000000	98.834382
3921.000000	98.841160
3920.000000	98.845423
3919.000000	98.843381
3918.000000	98.834283
3917.000000	98.822469
3916.000000	98.814127
3915.000000	98.811462
3914.000000	98.811476
3913.000000	98.809765
3912.000000	98.804815
3911.000000	98.798993
3910.000000	98.796304
3909.000000	98.799100
3908.000000	98.806426
3907.000000	98.814993
3906.000000	98.821819
3905.000000	98.827019
3904.000000	98.833437
3903.000000	98.842391
3902.000000	98.850886
3901.000000	98.854280
3900.000000	98.850993
3899.000000	98.843642
3898.000000	98.836113
3897.000000	98.830359
3896.000000	98.826162
3895.000000	98.822243
3894.000000	98.817585
3893.000000	98.812714
3892.000000	98.810465
3891.000000	98.813407
3890.000000	98.820345
3889.000000	98.827388
3888.000000	98.830607
3887.000000	98.829097
3886.000000	98.826872
3885.000000	98.827837
3884.000000	98.830799
3883.000000	98.832232
3882.000000	98.830563
3881.000000	98.827252
3880.000000	98.823901
3879.000000	98.819575
3878.000000	98.813024
3877.000000	98.804867
3876.000000	98.797687
3875.000000	98.795482
3874.000000	98.799630
3873.000000	98.805678
3872.000000	98.807148
3871.000000	98.803219
3870.000000	98.800722
3869.000000	98.804637
3868.000000	98.811428
3867.000000	98.814698
3866.000000	98.812709
3865.000000	98.809683
3864.000000	98.810393
3863.000000	98.814136
3862.000000	98.816635
3861.000000	98.815104
3860.000000	98.810179
3859.000000	98.804683
3858.000000	98.801466
3857.000000	98.800502
3856.000000	98.796657
3855.000000	98.785945
3854.000000	98.776846
3853.000000	98.780985
3852.000000	98.793895
3851.000000	98.804491
3850.000000	98.809352
3849.000000	98.810246
3848.000000	98.808868
3847.000000	98.805169
3846.000000	98.798699
3845.000000	98.790191
3844.000000	98.781540
3843.000000	98.774196
3842.000000	98.768510
3841.000000	98.765143
3840.000000	98.766639
3839.000000	98.776087
3838.000000	98.793055
3837.000000	98.812184
3836.000000	98.827145
3835.000000	98.834439
3834.000000	98.833438
3833.000000	98.825844
3832.000000	98.815778
3831.000000	98.807486
3830.000000	98.802108
3829.000000	98.797340
3828.000000	98.790886
3827.000000	98.783611
3826.000000	98.778618
3825.000000	98.777145
3824.000000	98.776948
3823.000000	98.775861
3822.000000	98.776936
3821.000000	98.784025
3820.000000	98.792916
3819.000000	98.796751
3818.000000	98.793812
3817.000000	98.787885
3816.000000	98.785693
3815.000000	98.789256
3814.000000	98.793688
3813.000000	98.794803
3812.000000	98.793147
3811.000000	98.791547
3810.000000	98.790984
3809.000000	98.789630
3808.000000	98.786778
3807.000000	98.785078
3806.000000	98.786005
3805.000000	98.787028
3804.000000	98.785360
3803.000000	98.782811
3802.000000	98.786744
3801.000000	98.799814
3800.000000	98.812375
3799.000000	98.814575
3798.000000	98.806071
3797.000000	98.794061
3796.000000	98.786213
3795.000000	98.783899
3794.000000	98.782968
3793.000000	98.780113
3792.000000	98.776377
3791.000000	98.775126
3790.000000	98.778380
3789.000000	98.785031
3788.000000	98.792222
3787.000000	98.797711
3786.000000	98.801069
3785.000000	98.803113
3784.000000	98.804666
3783.000000	98.805879
3782.000000	98.806661
3781.000000	98.807409
3780.000000	98.808734
3779.000000	98.809973
3778.000000	98.809273
3777.000000	98.806065
3776.000000	98.802290
3775.000000	98.800890
3774.000000	98.802905
3773.000000	98.805653
3772.000000	98.805063
3771.000000	98.800916
3770.000000	98.798343
3769.000000	98.801901
3768.000000	98.810349
3767.000000	98.818835
3766.000000	98.823892
3765.000000	98.824836
3764.000000	98.822193
3763.000000	98.816473
3762.000000	98.808880
3761.000000	98.802216
3760.000000	98.799216
3759.000000	98.799422
3758.000000	98.800338
3757.000000	98.801687
3756.000000	98.805260
3755.000000	98.811764
3754.000000	98.819922
3753.000000	98.828208
3752.000000	98.834876
3751.000000	98.836303
3750.000000	98.830788
3749.000000	98.823471
3748.000000	98.821526
3747.000000	98.826313
3746.000000	98.833404
3745.000000	98.841403
3744.000000	98.850333
3743.000000	98.854122
3742.000000	98.849762
3741.000000	98.841872
3740.000000	98.837224
3739.000000	98.839320
3738.000000	98.845878
3737.000000	98.852653
3736.000000	98.858018
3735.000000	98.861387
3734.000000	98.861742
3733.000000	98.860200
3732.000000	98.860021
3731.000000	98.862879
3730.000000	98.867051
3729.000000	98.869037
3728.000000	98.866150
3727.000000	98.858685
3726.000000	98.849163
3725.000000	98.840066
3724.000000	98.833265
3723.000000	98.829932
3722.000000	98.829663
3721.000000	98.830480
3720.000000	98.830765
3719.000000	98.830637
3718.000000	98.831418
3717.000000	98.834048
3716.000000	98.837766
3715.000000	98.840258
3714.000000	98.839521
3713.000000	98.836443
3712.000000	98.834300
3711.000000	98.834277
3710.000000	98.833978
3709.000000	98.831534
3708.000000	98.828195
3707.000000	98.826670
3706.000000	98.828601
3705.000000	98.833591
3704.000000	98.839913
3703.000000	98.845927
3702.000000	98.851001
3701.000000	98.855474
3700.000000	98.859730
3699.000000	98.862986
3698.000000	98.863392
3697.000000	98.859872
3696.000000	98.853160
3695.000000	98.844717
3694.000000	98.835907
3693.000000	98.828840
3692.000000	98.827080
3691.000000	98.833310
3690.000000	98.844783
3689.000000	98.853441
3688.000000	98.853859
3687.000000	98.848569
3686.000000	98.843204
3685.000000	98.840874
3684.000000	98.841556
3683.000000	98.843174
3682.000000	98.842620
3681.000000	98.838299
3680.000000	98.832030
3679.000000	98.826830
3678.000000	98.822567
3677.000000	98.817529
3676.000000	98.814423
3675.000000	98.815903
3674.000000	98.818051
3673.000000	98.816413
3672.000000	98.810221
3671.000000	98.803048
3670.000000	98.800234
3669.000000	98.800405
3668.000000	98.797500
3667.000000	98.790442
3666.000000	98.782931
3665.000000	98.778320
3664.000000	98.777216
3663.000000	98.778038
3662.000000	98.779140
3661.000000	98.780379
3660.000000	98.782365
3659.000000	98.784844
3658.000000	98.786336
3657.000000	98.786146
3656.000000	98.785231
3655.000000	98.784652
3654.000000	98.784685
3653.000000	98.784222
3652.000000	98.781289
3651.000000	98.775454
3650.000000	98.767643
3649.000000	98.758718
3648.000000	98.751233
3647.000000	98.747354
3646.000000	98.745240
3645.000000	98.741301
3644.000000	98.734308
3643.000000	98.726719
3642.000000	98.722341
3641.000000	98.722276
3640.000000	98.723753
3639.000000	98.723547
3638.000000	98.720895
3637.000000	98.716594
3636.000000	98.711230
3635.000000	98.705947
3634.000000	98.703422
3633.000000	98.705408
3632.000000	98.709429
3631.000000	98.709469
3630.000000	98.703757
3629.000000	98.698736
3628.000000	98.697674
3627.000000	98.695668
3626.000000	98.689306
3625.000000	98.679908
3624.000000	98.670486
3623.000000	98.662657
3622.000000	98.655264
3621.000000	98.646452
3620.000000	98.636849
3619.000000	98.628850
3618.000000	98.623012
3617.000000	98.617900
3616.000000	98.612300
3615.000000	98.605871
3614.000000	98.598981
3613.000000	98.592031
3612.000000	98.584825
3611.000000	98.576607
3610.000000	98.566649
3609.000000	98.555456
3608.000000	98.544748
3607.000000	98.535884
3606.000000	98.529186
3605.000000	98.524496
3604.000000	98.521562
3603.000000	98.519933
3602.000000	98.518635
3601.000000	98.516580
3600.000000	98.513368
3599.000000	98.509732
3598.000000	98.506374
3597.000000	98.502509
3596.000000	98.496168
3595.000000	98.486579
3594.000000	98.475765
3593.000000	98.466817
3592.000000	98.460687
3591.000000	98.454881
3590.000000	98.445199
3589.000000	98.429892
3588.000000	98.412255
3587.000000	98.397347
3586.000000	98.387024
3585.000000	98.380065
3584.000000	98.374530
3583.000000	98.368628
3582.000000	98.361119
3581.000000	98.352007
3580.000000	98.342694
3579.000000	98.335110
3578.000000	98.330392
3577.000000	98.327849
3576.000000	98.324860
3575.000000	98.318168
3574.000000	98.306387
3573.000000	98.291805
3572.000000	98.279090
3571.000000	98.271403
3570.000000	98.267657
3569.000000	98.264093
3568.000000	98.258180
3567.000000	98.249652
3566.000000	98.238720
3565.000000	98.225815
3564.000000	98.212081
3563.000000	98.198538
3562.000000	98.185391
3561.000000	98.172340
3560.000000	98.159518
3559.000000	98.147801
3558.000000	98.137786
3557.000000	98.128469
3556.000000	98.117482
3555.000000	98.103085
3554.000000	98.086115
3553.000000	98.069894
3552.000000	98.057672
3551.000000	98.050040
3550.000000	98.045129
3549.000000	98.040879
3548.000000	98.036714
3547.000000	98.033237
3546.000000	98.030524
3545.000000	98.027178
3544.000000	98.021525
3543.000000	98.012971
3542.000000	98.001941
3541.000000	97.989321
3540.000000	97.976184
3539.000000	97.963504
3538.000000	97.951572
3537.000000	97.939763
3536.000000	97.926999
3535.000000	97.912776
3534.000000	97.897857
3533.000000	97.884086
3532.000000	97.873503
3531.000000	97.867059
3530.000000	97.863639
3529.000000	97.860596
3528.000000	97.855961
3527.000000	97.850069
3526.000000	97.844471
3525.000000	97.839283
3524.000000	97.832238
3523.000000	97.820782
3522.000000	97.805016
3521.000000	97.788124
3520.000000	97.773764
3519.000000	97.763227
3518.000000	97.754812
3517.000000	97.745553
3516.000000	97.733838
3515.000000	97.720666
3514.000000	97.708486
3513.000000	97.698935
3512.000000	97.691975
3511.000000	97.687013
3510.000000	97.683881
3509.000000	97.682094
3508.000000	97.679983
3507.000000	97.675827
3506.000000	97.669666
3505.000000	97.662962
3504.000000	97.656230
3503.000000	97.647820
3502.000000	97.636103
3501.000000	97.622010
3500.000000	97.608002
3499.000000	97.595286
3498.000000	97.583479
3497.000000	97.572646
3496.000000	97.564117
3495.000000	97.558609
3494.000000	97.554375
3493.000000	97.548260
3492.000000	97.538545
3491.000000	97.526587
3490.000000	97.515941
3489.000000	97.509761
3488.000000	97.508254
3487.000000	97.508083
3486.000000	97.504473
3485.000000	97.494398
3484.000000	97.478144
3483.000000	97.458640
3482.000000	97.439687
3481.000000	97.424273
3480.000000	97.413798
3479.000000	97.408402
3478.000000	97.407667
3477.000000	97.410521
3476.000000	97.414493
3475.000000	97.416054
3474.000000	97.412798
3473.000000	97.405094
3472.000000	97.394841
3471.000000	97.383091
3470.000000	97.369969
3469.000000	97.356580
3468.000000	97.345283
3467.000000	97.337382
3466.000000	97.331726
3465.000000	97.326558
3464.000000	97.321805
3463.000000	97.318392
3462.000000	97.315778
3461.000000	97.311528
3460.000000	97.303549
3459.000000	97.292014
3458.000000	97.278955
3457.000000	97.266617
3456.000000	97.256362
3455.000000	97.248570
3454.000000	97.243088
3453.000000	97.239641
3452.000000	97.237746
3451.000000	97.236464
3450.000000	97.234799
3449.000000	97.232431
3448.000000	97.229435
3447.000000	97.224925
3446.000000	97.216852
3445.000000	97.204125
3444.000000	97.188509
3443.000000	97.173832
3442.000000	97.163321
3441.000000	97.157652
3440.000000	97.155076
3439.000000	97.152959
3438.000000	97.149334
3437.000000	97.143684
3436.000000	97.136617
3435.000000	97.128914
3434.000000	97.121052
3433.000000	97.113449
3432.000000	97.106459
3431.000000	97.099823
3430.000000	97.092923
3429.000000	97.086080
3428.000000	97.080851
3427.000000	97.078225
3426.000000	97.077045
3425.000000	97.074989
3424.000000	97.070640
3423.000000	97.063812
3422.000000	97.054406
3421.000000	97.042261
3420.000000	97.028241
3419.000000	97.014374
3418.000000	97.002455
3417.000000	96.993050
3416.000000	96.985894
3415.000000	96.980601
3414.000000	96.976738
3413.000000	96.973485
3412.000000	96.969380
3411.000000	96.962568
3410.000000	96.952143
3409.000000	96.939916
3408.000000	96.930081
3407.000000	96.925731
3406.000000	96.925466
3405.000000	96.924227
3404.000000	96.917786
3403.000000	96.906147
3402.000000	96.892692
3401.000000	96.880775
3400.000000	96.871237
3399.000000	96.862343
3398.000000	96.851630
3397.000000	96.838234
3396.000000	96.823863
3395.000000	96.811439
3394.000000	96.802705
3393.000000	96.797174
3392.000000	96.793084
3391.000000	96.788887
3390.000000	96.783884
3389.000000	96.778095
3388.000000	96.771996
3387.000000	96.766102
3386.000000	96.760422
3385.000000	96.754263
3384.000000	96.746688
3383.000000	96.737266
3382.000000	96.726563
3381.000000	96.716072
3380.000000	96.707406
3379.000000	96.701080
3378.000000	96.695908
3377.000000	96.689676
3376.000000	96.680479
3375.000000	96.667623
3374.000000	96.651913
3373.000000	96.635577
3372.000000	96.621591
3371.000000	96.612118
3370.000000	96.606997
3369.000000	96.603635
3368.000000	96.598487
3367.000000	96.588971
3366.000000	96.574750
3365.000000	96.557912
3364.000000	96.541757
3363.000000	96.528694
3362.000000	96.518755
3361.000000	96.509993
3360.000000	96.500218
3359.000000	96.488286
3358.000000	96.474063
3357.000000	96.457761
3356.000000	96.439688
3355.000000	96.420618
3354.000000	96.402178
3353.000000	96.386393
3352.000000	96.374258
3351.000000	96.364522
3350.000000	96.354247
3349.000000	96.340968
3348.000000	96.324428
3347.000000	96.306340
3346.000000	96.288744
3345.000000	96.272550
3344.000000	96.257174
3343.000000	96.241366
3342.000000	96.224737
3341.000000	96.208579
3340.000000	96.194742
3339.000000	96.183589
3338.000000	96.173467
3337.000000	96.162305
3336.000000	96.149215
3335.000000	96.134380
3334.000000	96.118166
3333.000000	96.100965
3332.000000	96.083499
3331.000000	96.066739
3330.000000	96.051653
3329.000000	96.038918
3328.000000	96.028103
3327.000000	96.017021
3326.000000	96.003036
3325.000000	95.985768
3324.000000	95.967760
3323.000000	95.951705
3322.000000	95.937952
3321.000000	95.925575
3320.000000	95.914615
3319.000000	95.905576
3318.000000	95.897216
3317.000000	95.886759
3316.000000	95.873078
3315.000000	95.858670
3314.000000	95.847617
3313.000000	95.841613
3312.000000	95.837902
3311.000000	95.831026
3310.000000	95.817269
3309.000000	95.798302
3308.000000	95.780278
3307.000000	95.768602
3306.000000	95.763649
3305.000000	95.761634
3304.000000	95.758523
3303.000000	95.752276
3302.000000	95.742583
3301.000000	95.730507
3300.000000	95.718550
3299.000000	95.709315
3298.000000	95.703270
3297.000000	95.698532
3296.000000	95.693143
3295.000000	95.686867
3294.000000	95.680566
3293.000000	95.674751
3292.000000	95.669103
3291.000000	95.662725
3290.000000	95.654776
3289.000000	95.645625
3288.000000	95.637452
3287.000000	95.632597
3286.000000	95.630882
3285.000000	95.629466
3284.000000	95.625746
3283.000000	95.619863
3282.000000	95.614143
3281.000000	95.610974
3280.000000	95.611768
3279.000000	95.616779
3278.000000	95.624740
3277.000000	95.633061
3276.000000	95.639547
3275.000000	95.644245
3274.000000	95.649059
3273.000000	95.655525
3272.000000	95.663264
3271.000000	95.670530
3270.000000	95.675941
3269.000000	95.679572
3268.000000	95.682573
3267.000000	95.686007
3266.000000	95.690246
3265.000000	95.695437
3264.000000	95.701915
3263.000000	95.709522
3262.000000	95.716900
3261.000000	95.722448
3260.000000	95.726349
3259.000000	95.731086
3258.000000	95.739574
3257.000000	95.753020
3256.000000	95.770377
3255.000000	95.789051
3254.000000	95.805921
3253.000000	95.818619
3252.000000	95.826817
3251.000000	95.832283
3250.000000	95.837399
3249.000000	95.843726
3248.000000	95.851953
3247.000000	95.862317
3246.000000	95.874153
3245.000000	95.885228
3244.000000	95.892643
3243.000000	95.895190
3242.000000	95.894654
3241.000000	95.894662
3240.000000	95.898277
3239.000000	95.906618
3238.000000	95.919028
3237.000000	95.933587
3236.000000	95.947406
3235.000000	95.957769
3234.000000	95.964423
3233.000000	95.970419
3232.000000	95.979129
3231.000000	95.989814
3230.000000	95.997569
3229.000000	95.998682
3228.000000	95.995210
3227.000000	95.993059
3226.000000	95.996100
3225.000000	96.003589
3224.000000	96.012660
3223.000000	96.021417
3222.000000	96.029522
3221.000000	96.037662
3220.000000	96.047381
3219.000000	96.059833
3218.000000	96.073352
3217.000000	96.083319
3216.000000	96.085919
3215.000000	96.082029
3214.000000	96.076493
3213.000000	96.073713
3212.000000	96.074772
3211.000000	96.078512
3210.000000	96.084044
3209.000000	96.091500
3208.000000	96.101015
3207.000000	96.111855
3206.000000	96.122684
3205.000000	96.132424
3204.000000	96.140712
3203.000000	96.147582
3202.000000	96.153005
3201.000000	96.157068
3200.000000	96.160533
3199.000000	96.164734
3198.000000	96.170620
3197.000000	96.177994
3196.000000	96.185757
3195.000000	96.192828
3194.000000	96.198969
3193.000000	96.205122
3192.000000	96.213008
3191.000000	96.223848
3190.000000	96.237202
3189.000000	96.251174
3188.000000	96.263789
3187.000000	96.274003
3186.000000	96.281817
3185.000000	96.288278
3184.000000	96.295302
3183.000000	96.304426
3182.000000	96.315114
3181.000000	96.324984
3180.000000	96.332336
3179.000000	96.337934
3178.000000	96.343942
3177.000000	96.351766
3176.000000	96.361731
3175.000000	96.374031
3174.000000	96.388578
3173.000000	96.403921
3172.000000	96.417502
3171.000000	96.427638
3170.000000	96.434872
3169.000000	96.441323
3168.000000	96.449091
3167.000000	96.459128
3166.000000	96.470778
3165.000000	96.482036
3164.000000	96.490794
3163.000000	96.496460
3162.000000	96.500561
3161.000000	96.505876
3160.000000	96.514987
3159.000000	96.528844
3158.000000	96.545636
3157.000000	96.561155
3156.000000	96.571616
3155.000000	96.577110
3154.000000	96.581777
3153.000000	96.589844
3152.000000	96.601638
3151.000000	96.614112
3150.000000	96.624921
3149.000000	96.635081
3148.000000	96.647392
3147.000000	96.662906
3146.000000	96.679473
