PE IR       SUBTECH     SPECTRUM    ASCII       PEDS        4.00        
   -1
3C-XXX-C010_1.ASC
23/09/07
10:27:12.00
23/09/07
11:30:09.00
uco
Sample 010 By uco Date Thursday, September 07 2023
450.000000
#HDR
-1
-1
#GR
cm-1
%T
1.0
0.0
4000.000000
-1.000000
3551
8
99.150595
90.909109
#DATA
4000.000000	99.041430
3999.000000	99.041351
3998.000000	99.041273
3997.000000	99.041194
3996.000000	99.041120
3995.000000	99.040265
3994.000000	99.038211
3993.000000	99.035168
3992.000000	99.031708
3991.000000	99.028002
3990.000000	99.023987
3989.000000	99.019882
3988.000000	99.016179
3987.000000	99.013038
3986.000000	99.010034
3985.000000	99.006966
3984.000000	99.004862
3983.000000	99.005648
3982.000000	99.010273
3981.000000	99.017096
3980.000000	99.022447
3979.000000	99.023125
3978.000000	99.018632
3977.000000	99.011403
3976.000000	99.005070
3975.000000	99.002179
3974.000000	99.002900
3973.000000	99.005394
3972.000000	99.007351
3971.000000	99.007434
3970.000000	99.005756
3969.000000	99.003399
3968.000000	99.001560
3967.000000	99.000966
3966.000000	99.001743
3965.000000	99.003592
3964.000000	99.005962
3963.000000	99.007986
3962.000000	99.008524
3961.000000	99.006708
3960.000000	99.002813
3959.000000	98.998387
3958.000000	98.995127
3957.000000	98.993496
3956.000000	98.992552
3955.000000	98.991208
3954.000000	98.989520
3953.000000	98.988684
3952.000000	98.989970
3951.000000	98.993765
3950.000000	98.999218
3949.000000	99.004520
3948.000000	99.007668
3947.000000	99.007323
3946.000000	99.003464
3945.000000	98.997524
3944.000000	98.991981
3943.000000	98.989330
3942.000000	98.990681
3941.000000	98.995344
3940.000000	99.001721
3939.000000	99.007895
3938.000000	99.011555
3937.000000	99.010604
3936.000000	99.004967
3935.000000	98.997610
3934.000000	98.993193
3933.000000	98.995124
3932.000000	99.002926
3931.000000	99.012381
3930.000000	99.018598
3929.000000	99.018969
3928.000000	99.013821
3927.000000	99.005637
3926.000000	98.997869
3925.000000	98.993227
3924.000000	98.992083
3923.000000	98.992805
3922.000000	98.993771
3921.000000	98.994041
3920.000000	98.992634
3919.000000	98.989128
3918.000000	98.985492
3917.000000	98.985656
3916.000000	98.991827
3915.000000	99.001810
3914.000000	99.010747
3913.000000	99.014822
3912.000000	99.012999
3911.000000	99.006635
3910.000000	98.998217
3909.000000	98.989713
3908.000000	98.981948
3907.000000	98.975171
3906.000000	98.970361
3905.000000	98.969857
3904.000000	98.976138
3903.000000	98.989432
3902.000000	99.007003
3901.000000	99.024756
3900.000000	99.038369
3899.000000	99.043958
3898.000000	99.040148
3897.000000	99.029493
3896.000000	99.016794
3895.000000	99.005906
3894.000000	98.998414
3893.000000	98.994790
3892.000000	98.994984
3891.000000	98.997196
3890.000000	98.998113
3889.000000	98.995864
3888.000000	98.992055
3887.000000	98.990005
3886.000000	98.991900
3885.000000	98.996872
3884.000000	99.001692
3883.000000	99.004917
3882.000000	99.007874
3881.000000	99.010584
3880.000000	99.010532
3879.000000	99.006087
3878.000000	98.999053
3877.000000	98.993652
3876.000000	98.992906
3875.000000	98.996288
3874.000000	99.000573
3873.000000	99.002348
3872.000000	99.001096
3871.000000	99.000007
3870.000000	99.002085
3869.000000	99.006026
3868.000000	99.008431
3867.000000	99.009254
3866.000000	99.010818
3865.000000	99.012387
3864.000000	99.011095
3863.000000	99.006838
3862.000000	99.002552
3861.000000	99.000435
3860.000000	98.999811
3859.000000	98.998952
3858.000000	98.997579
3857.000000	98.996251
3856.000000	98.995444
3855.000000	98.996070
3854.000000	98.999528
3853.000000	99.004632
3852.000000	99.006751
3851.000000	99.005434
3850.000000	99.006662
3849.000000	99.012216
3848.000000	99.016645
3847.000000	99.016453
3846.000000	99.012721
3845.000000	99.007417
3844.000000	99.001518
3843.000000	98.995410
3842.000000	98.990011
3841.000000	98.986944
3840.000000	98.987801
3839.000000	98.992320
3838.000000	98.997836
3837.000000	99.001762
3836.000000	99.004343
3835.000000	99.007368
3834.000000	99.011153
3833.000000	99.013764
3832.000000	99.012945
3831.000000	99.008276
3830.000000	99.001507
3829.000000	98.995367
3828.000000	98.991477
3827.000000	98.988742
3826.000000	98.984313
3825.000000	98.976817
3824.000000	98.969084
3823.000000	98.967283
3822.000000	98.975774
3821.000000	98.990216
3820.000000	98.999369
3819.000000	98.998424
3818.000000	98.994551
3817.000000	98.995956
3816.000000	99.001824
3815.000000	99.005672
3814.000000	99.004267
3813.000000	99.001243
3812.000000	99.001256
3811.000000	99.003516
3810.000000	99.004576
3809.000000	99.003802
3808.000000	99.002743
3807.000000	99.001770
3806.000000	98.999106
3805.000000	98.993533
3804.000000	98.987640
3803.000000	98.985977
3802.000000	98.990062
3801.000000	98.996132
3800.000000	98.998426
3799.000000	98.996981
3798.000000	98.997887
3797.000000	99.003263
3796.000000	99.007720
3795.000000	99.005970
3794.000000	98.998739
3793.000000	98.991241
3792.000000	98.987891
3791.000000	98.989412
3790.000000	98.994275
3789.000000	99.000551
3788.000000	99.006113
3787.000000	99.008879
3786.000000	99.008032
3785.000000	99.004906
3784.000000	99.001940
3783.000000	99.000644
3782.000000	99.001002
3781.000000	99.002115
3780.000000	99.002658
3779.000000	99.001306
3778.000000	98.997702
3777.000000	98.993333
3776.000000	98.990953
3775.000000	98.991950
3774.000000	98.994723
3773.000000	98.996369
3772.000000	98.995567
3771.000000	98.993666
3770.000000	98.993265
3769.000000	98.995644
3768.000000	99.000453
3767.000000	99.007463
3766.000000	99.015952
3765.000000	99.022544
3764.000000	99.023004
3763.000000	99.016348
3762.000000	99.005885
3761.000000	98.996374
3760.000000	98.990899
3759.000000	98.989893
3758.000000	98.991986
3757.000000	98.995734
3756.000000	99.000207
3755.000000	99.004823
3754.000000	99.010120
3753.000000	99.017756
3752.000000	99.028186
3751.000000	99.037735
3750.000000	99.040495
3749.000000	99.035505
3748.000000	99.028041
3747.000000	99.024383
3746.000000	99.028320
3745.000000	99.038764
3744.000000	99.047770
3743.000000	99.046791
3742.000000	99.037148
3741.000000	99.027310
3740.000000	99.020107
3739.000000	99.011996
3738.000000	99.003420
3737.000000	98.999440
3736.000000	99.002569
3735.000000	99.009427
3734.000000	99.015535
3733.000000	99.021141
3732.000000	99.028608
3731.000000	99.037237
3730.000000	99.044560
3729.000000	99.050091
3728.000000	99.054060
3727.000000	99.054523
3726.000000	99.048488
3725.000000	99.036253
3724.000000	99.023250
3723.000000	99.016249
3722.000000	99.017659
3721.000000	99.024834
3720.000000	99.034093
3719.000000	99.043191
3718.000000	99.050537
3717.000000	99.054226
3716.000000	99.052850
3715.000000	99.046797
3714.000000	99.038325
3713.000000	99.030653
3712.000000	99.026479
3711.000000	99.026276
3710.000000	99.028053
3709.000000	99.030236
3708.000000	99.032816
3707.000000	99.035495
3706.000000	99.037151
3705.000000	99.036936
3704.000000	99.035202
3703.000000	99.032966
3702.000000	99.031385
3701.000000	99.031057
3700.000000	99.031829
3699.000000	99.032976
3698.000000	99.033360
3697.000000	99.031329
3696.000000	99.025749
3695.000000	99.017602
3694.000000	99.009909
3693.000000	99.006052
3692.000000	99.007755
3691.000000	99.014890
3690.000000	99.025654
3689.000000	99.036700
3688.000000	99.044533
3687.000000	99.048074
3686.000000	99.048621
3685.000000	99.046918
3684.000000	99.041878
3683.000000	99.032799
3682.000000	99.021534
3681.000000	99.010623
3680.000000	99.000089
3679.000000	98.987076
3678.000000	98.970454
3677.000000	98.956259
3676.000000	98.955698
3675.000000	98.970115
3674.000000	98.984941
3673.000000	98.990243
3672.000000	98.990379
3671.000000	98.991326
3670.000000	98.993704
3669.000000	98.994396
3668.000000	98.990706
3667.000000	98.985318
3666.000000	98.982502
3665.000000	98.982026
3664.000000	98.980798
3663.000000	98.976091
3662.000000	98.966779
3661.000000	98.954483
3660.000000	98.943236
3659.000000	98.937294
3658.000000	98.938943
3657.000000	98.947305
3656.000000	98.958129
3655.000000	98.965999
3654.000000	98.968014
3653.000000	98.964276
3652.000000	98.954813
3651.000000	98.939483
3650.000000	98.921800
3649.000000	98.908368
3648.000000	98.902516
3647.000000	98.902003
3646.000000	98.902570
3645.000000	98.900995
3644.000000	98.896699
3643.000000	98.891541
3642.000000	98.887609
3641.000000	98.885420
3640.000000	98.884016
3639.000000	98.881901
3638.000000	98.877507
3637.000000	98.869734
3636.000000	98.859283
3635.000000	98.848911
3634.000000	98.841270
3633.000000	98.836746
3632.000000	98.834257
3631.000000	98.833147
3630.000000	98.832649
3629.000000	98.830633
3628.000000	98.824906
3627.000000	98.815832
3626.000000	98.806949
3625.000000	98.800479
3624.000000	98.794205
3623.000000	98.786657
3622.000000	98.780322
3621.000000	98.777816
3620.000000	98.778372
3619.000000	98.778440
3618.000000	98.775342
3617.000000	98.769586
3616.000000	98.763058
3615.000000	98.755687
3614.000000	98.744884
3613.000000	98.728591
3612.000000	98.708280
3611.000000	98.688419
3610.000000	98.672987
3609.000000	98.662746
3608.000000	98.655642
3607.000000	98.649501
3606.000000	98.643990
3605.000000	98.639914
3604.000000	98.637264
3603.000000	98.634541
3602.000000	98.630022
3601.000000	98.622929
3600.000000	98.613796
3599.000000	98.603909
3598.000000	98.594195
3597.000000	98.584522
3596.000000	98.574180
3595.000000	98.563470
3594.000000	98.554028
3593.000000	98.547473
3592.000000	98.544125
3591.000000	98.543197
3590.000000	98.542830
3589.000000	98.540113
3588.000000	98.532098
3587.000000	98.518658
3586.000000	98.503713
3585.000000	98.491719
3584.000000	98.483552
3583.000000	98.476048
3582.000000	98.465481
3581.000000	98.451404
3580.000000	98.436973
3579.000000	98.425620
3578.000000	98.417877
3577.000000	98.411507
3576.000000	98.403872
3575.000000	98.393822
3574.000000	98.381718
3573.000000	98.368910
3572.000000	98.357401
3571.000000	98.349258
3570.000000	98.344913
3569.000000	98.341447
3568.000000	98.332825
3567.000000	98.314714
3566.000000	98.290217
3565.000000	98.267442
3564.000000	98.251494
3563.000000	98.241602
3562.000000	98.234199
3561.000000	98.226903
3560.000000	98.219426
3559.000000	98.211688
3558.000000	98.202544
3557.000000	98.190769
3556.000000	98.176453
3555.000000	98.160775
3554.000000	98.144945
3553.000000	98.130037
3552.000000	98.117652
3551.000000	98.109511
3550.000000	98.105802
3549.000000	98.104227
3548.000000	98.100923
3547.000000	98.092973
3546.000000	98.080896
3545.000000	98.068312
3544.000000	98.058114
3543.000000	98.049356
3542.000000	98.038411
3541.000000	98.022896
3540.000000	98.004171
3539.000000	97.986067
3538.000000	97.971342
3537.000000	97.959545
3536.000000	97.948210
3535.000000	97.935563
3534.000000	97.921708
3533.000000	97.907910
3532.000000	97.895657
3531.000000	97.886123
3530.000000	97.879523
3529.000000	97.874611
3528.000000	97.869235
3527.000000	97.861643
3526.000000	97.851065
3525.000000	97.837272
3524.000000	97.820449
3523.000000	97.801934
3522.000000	97.784362
3521.000000	97.770196
3520.000000	97.759918
3519.000000	97.751695
3518.000000	97.742729
3517.000000	97.731221
3516.000000	97.717493
3515.000000	97.703374
3514.000000	97.690567
3513.000000	97.679485
3512.000000	97.669483
3511.000000	97.660137
3510.000000	97.652205
3509.000000	97.647213
3508.000000	97.645770
3507.000000	97.646150
3506.000000	97.644652
3505.000000	97.637600
3504.000000	97.623927
3503.000000	97.606478
3502.000000	97.590089
3501.000000	97.577707
3500.000000	97.568524
3499.000000	97.559764
3498.000000	97.549817
3497.000000	97.539697
3496.000000	97.531527
3495.000000	97.525735
3494.000000	97.520167
3493.000000	97.512161
3492.000000	97.501244
3491.000000	97.489589
3490.000000	97.479956
3489.000000	97.473291
3488.000000	97.468283
3487.000000	97.462935
3486.000000	97.456184
3485.000000	97.447955
3484.000000	97.438307
3483.000000	97.427332
3482.000000	97.416002
3481.000000	97.406371
3480.000000	97.400281
3479.000000	97.397828
3478.000000	97.397167
3477.000000	97.395584
3476.000000	97.390900
3475.000000	97.382656
3474.000000	97.372377
3473.000000	97.362198
3472.000000	97.352784
3471.000000	97.342964
3470.000000	97.331759
3469.000000	97.320154
3468.000000	97.310058
3467.000000	97.301916
3466.000000	97.294576
3465.000000	97.287560
3464.000000	97.281977
3463.000000	97.278517
3462.000000	97.275675
3461.000000	97.271151
3460.000000	97.264465
3459.000000	97.257033
3458.000000	97.249874
3457.000000	97.242305
3456.000000	97.233089
3455.000000	97.222199
3454.000000	97.211294
3453.000000	97.202864
3452.000000	97.198817
3451.000000	97.199089
3450.000000	97.201071
3449.000000	97.200633
3448.000000	97.194546
3447.000000	97.182884
3446.000000	97.169056
3445.000000	97.156814
3444.000000	97.147350
3443.000000	97.139677
3442.000000	97.133536
3441.000000	97.130759
3440.000000	97.132763
3439.000000	97.137232
3438.000000	97.138703
3437.000000	97.133041
3436.000000	97.120705
3435.000000	97.105469
3434.000000	97.090961
3433.000000	97.078927
3432.000000	97.069479
3431.000000	97.061537
3430.000000	97.053245
3429.000000	97.043255
3428.000000	97.032109
3427.000000	97.022042
3426.000000	97.015367
3425.000000	97.012959
3424.000000	97.013548
3423.000000	97.013742
3422.000000	97.009394
3421.000000	96.998515
3420.000000	96.983503
3419.000000	96.969700
3418.000000	96.961058
3417.000000	96.957253
3416.000000	96.954676
3415.000000	96.949663
3414.000000	96.941021
3413.000000	96.930156
3412.000000	96.919203
3411.000000	96.909159
3410.000000	96.899944
3409.000000	96.892020
3408.000000	96.887025
3407.000000	96.885909
3406.000000	96.886661
3405.000000	96.884837
3404.000000	96.876929
3403.000000	96.863223
3402.000000	96.847349
3401.000000	96.833363
3400.000000	96.823156
3399.000000	96.815818
3398.000000	96.808797
3397.000000	96.799905
3396.000000	96.788855
3395.000000	96.777176
3394.000000	96.766673
3393.000000	96.758018
3392.000000	96.750812
3391.000000	96.744610
3390.000000	96.739401
3389.000000	96.735072
3388.000000	96.730900
3387.000000	96.725942
3386.000000	96.719768
3385.000000	96.712418
3384.000000	96.703682
3383.000000	96.693030
3382.000000	96.680530
3381.000000	96.667536
3380.000000	96.655985
3379.000000	96.646957
3378.000000	96.639935
3377.000000	96.633208
3376.000000	96.624840
3375.000000	96.613762
3374.000000	96.600624
3373.000000	96.587548
3372.000000	96.576423
3371.000000	96.567260
3370.000000	96.558443
3369.000000	96.548463
3368.000000	96.536936
3367.000000	96.524100
3366.000000	96.510162
3365.000000	96.495514
3364.000000	96.480901
3363.000000	96.466833
3362.000000	96.453127
3361.000000	96.439304
3360.000000	96.425112
3359.000000	96.410337
3358.000000	96.394437
3357.000000	96.376863
3356.000000	96.357804
3355.000000	96.338453
3354.000000	96.320395
3353.000000	96.304500
3352.000000	96.290182
3351.000000	96.275905
3350.000000	96.260693
3349.000000	96.244883
3348.000000	96.229084
3347.000000	96.212921
3346.000000	96.195565
3345.000000	96.177162
3344.000000	96.158733
3343.000000	96.140811
3342.000000	96.123346
3341.000000	96.106923
3340.000000	96.092487
3339.000000	96.079352
3338.000000	96.064959
3337.000000	96.047696
3336.000000	96.028996
3335.000000	96.011490
3334.000000	95.995841
3333.000000	95.980667
3332.000000	95.965043
3331.000000	95.949497
3330.000000	95.934534
3329.000000	95.919416
3328.000000	95.902972
3327.000000	95.885207
3326.000000	95.867825
3325.000000	95.853140
3324.000000	95.842217
3323.000000	95.833903
3322.000000	95.825891
3321.000000	95.816836
3320.000000	95.806953
3319.000000	95.796527
3318.000000	95.784849
3317.000000	95.771391
3316.000000	95.757555
3315.000000	95.746151
3314.000000	95.738915
3313.000000	95.734759
3312.000000	95.730280
3311.000000	95.721984
3310.000000	95.708858
3309.000000	95.693446
3308.000000	95.679943
3307.000000	95.670564
3306.000000	95.664052
3305.000000	95.657913
3304.000000	95.651220
3303.000000	95.644795
3302.000000	95.639632
3301.000000	95.636288
3300.000000	95.635207
3299.000000	95.636141
3298.000000	95.637277
3297.000000	95.636058
3296.000000	95.631168
3295.000000	95.623158
3294.000000	95.613239
3293.000000	95.602363
3292.000000	95.591562
3291.000000	95.582270
3290.000000	95.575876
3289.000000	95.573235
3288.000000	95.574487
3287.000000	95.578785
3286.000000	95.584276
3285.000000	95.588943
3284.000000	95.591443
3283.000000	95.590956
3282.000000	95.586953
3281.000000	95.580328
3280.000000	95.574637
3279.000000	95.574408
3278.000000	95.581148
3277.000000	95.591493
3276.000000	95.600253
3275.000000	95.605332
3274.000000	95.608973
3273.000000	95.614486
3272.000000	95.622459
3271.000000	95.630308
3270.000000	95.635006
3269.000000	95.635722
3268.000000	95.634004
3267.000000	95.632150
3266.000000	95.631782
3265.000000	95.633752
3264.000000	95.638671
3263.000000	95.646849
3262.000000	95.657598
3261.000000	95.668874
3260.000000	95.678121
3259.000000	95.684041
3258.000000	95.687794
3257.000000	95.692156
3256.000000	95.699124
3255.000000	95.708481
3254.000000	95.718992
3253.000000	95.730474
3252.000000	95.743708
3251.000000	95.758502
3250.000000	95.772898
3249.000000	95.784702
3248.000000	95.793003
3247.000000	95.797845
3246.000000	95.799415
3245.000000	95.798347
3244.000000	95.796282
3243.000000	95.795153
3242.000000	95.795965
3241.000000	95.798781
3240.000000	95.803786
3239.000000	95.811836
3238.000000	95.823739
3237.000000	95.838854
3236.000000	95.854254
3235.000000	95.866019
3234.000000	95.872341
3233.000000	95.875289
3232.000000	95.878489
3231.000000	95.882935
3230.000000	95.886481
3229.000000	95.887720
3228.000000	95.888676
3227.000000	95.892544
3226.000000	95.899963
3225.000000	95.908913
3224.000000	95.917287
3223.000000	95.924162
3222.000000	95.929538
3221.000000	95.934696
3220.000000	95.942416
3219.000000	95.954592
3218.000000	95.969166
3217.000000	95.981228
3216.000000	95.987863
3215.000000	95.990891
3214.000000	95.994074
3213.000000	95.998568
3212.000000	96.002063
3211.000000	96.001888
3210.000000	95.998124
3209.000000	95.993653
3208.000000	95.991930
3207.000000	95.994958
3206.000000	96.003003
3205.000000	96.015363
3204.000000	96.030621
3203.000000	96.046436
3202.000000	96.060211
3201.000000	96.070603
3200.000000	96.078003
3199.000000	96.083335
3198.000000	96.087130
3197.000000	96.090242
3196.000000	96.094374
3195.000000	96.100743
3194.000000	96.108803
3193.000000	96.117396
3192.000000	96.126857
3191.000000	96.138807
3190.000000	96.153868
3189.000000	96.170542
3188.000000	96.186401
3187.000000	96.199758
3186.000000	96.210469
3185.000000	96.220005
3184.000000	96.230485
3183.000000	96.242597
3182.000000	96.254441
3181.000000	96.263371
3180.000000	96.268989
3179.000000	96.273470
3178.000000	96.279186
3177.000000	96.287196
3176.000000	96.298073
3175.000000	96.312451
3174.000000	96.329810
3173.000000	96.347658
3172.000000	96.362887
3171.000000	96.373844
3170.000000	96.380941
3169.000000	96.386141
3168.000000	96.392249
3167.000000	96.401684
3166.000000	96.414925
3165.000000	96.430281
3164.000000	96.445661
3163.000000	96.460254
3162.000000	96.474317
3161.000000	96.488036
3160.000000	96.501285
3159.000000	96.514158
3158.000000	96.526951
3157.000000	96.539531
3156.000000	96.551076
3155.000000	96.560719
3154.000000	96.568492
3153.000000	96.575684
3152.000000	96.583950
3151.000000	96.593725
3150.000000	96.603783
3149.000000	96.612929
3148.000000	96.621920
3147.000000	96.632856
3146.000000	96.646546
