PE IR       SUBTECH     SPECTRUM    ASCII       PEDS        4.00        
   -1
3C-YYX-F007_1.ASC
23/09/07
10:58:36.00
23/09/07
11:30:09.00
uco
Sample 007 By uco Date Thursday, September 07 2023
450.000000
#HDR
-1
-1
#GR
cm-1
%T
1.0
0.0
4000.000000
-1.000000
3551
8
98.893219
85.131537
#DATA
4000.000000	98.781150
3999.000000	98.782028
3998.000000	98.779474
3997.000000	98.775177
3996.000000	98.771138
3995.000000	98.768460
3994.000000	98.767018
3993.000000	98.766083
3992.000000	98.764858
3991.000000	98.762669
3990.000000	98.759220
3989.000000	98.755081
3988.000000	98.751645
3987.000000	98.750056
3986.000000	98.750164
3985.000000	98.750895
3984.000000	98.751746
3983.000000	98.753516
3982.000000	98.757070
3981.000000	98.761565
3980.000000	98.764410
3979.000000	98.763145
3978.000000	98.757356
3977.000000	98.749034
3976.000000	98.741493
3975.000000	98.737841
3974.000000	98.739640
3973.000000	98.746153
3972.000000	98.754591
3971.000000	98.761558
3970.000000	98.764992
3969.000000	98.765017
3968.000000	98.763082
3967.000000	98.760385
3966.000000	98.757090
3965.000000	98.753004
3964.000000	98.748578
3963.000000	98.744949
3962.000000	98.742989
3961.000000	98.742542
3960.000000	98.742686
3959.000000	98.742695
3958.000000	98.742564
3957.000000	98.742660
3956.000000	98.743141
3955.000000	98.743807
3954.000000	98.744317
3953.000000	98.744377
3952.000000	98.743919
3951.000000	98.743236
3950.000000	98.742836
3949.000000	98.742970
3948.000000	98.743199
3947.000000	98.742277
3946.000000	98.738709
3945.000000	98.732162
3944.000000	98.725048
3943.000000	98.722028
3942.000000	98.726157
3941.000000	98.735446
3940.000000	98.743986
3939.000000	98.746449
3938.000000	98.741462
3937.000000	98.731409
3936.000000	98.720063
3935.000000	98.711038
3934.000000	98.707844
3933.000000	98.713511
3932.000000	98.728168
3931.000000	98.746897
3930.000000	98.761711
3929.000000	98.766516
3928.000000	98.760403
3927.000000	98.747455
3926.000000	98.734439
3925.000000	98.727350
3924.000000	98.727677
3923.000000	98.731975
3922.000000	98.735735
3921.000000	98.736819
3920.000000	98.735455
3919.000000	98.732622
3918.000000	98.729588
3917.000000	98.728226
3916.000000	98.729704
3915.000000	98.732628
3914.000000	98.733673
3913.000000	98.730882
3912.000000	98.725378
3911.000000	98.720283
3910.000000	98.717727
3909.000000	98.717023
3908.000000	98.715327
3907.000000	98.710121
3906.000000	98.701834
3905.000000	98.694704
3904.000000	98.693871
3903.000000	98.700090
3902.000000	98.708764
3901.000000	98.715008
3900.000000	98.718442
3899.000000	98.721997
3898.000000	98.727261
3897.000000	98.732907
3896.000000	98.736639
3895.000000	98.737240
3894.000000	98.734583
3893.000000	98.729715
3892.000000	98.725390
3891.000000	98.725377
3890.000000	98.730792
3889.000000	98.738003
3888.000000	98.741554
3887.000000	98.739296
3886.000000	98.734602
3885.000000	98.732383
3884.000000	98.732800
3883.000000	98.731617
3882.000000	98.726367
3881.000000	98.719574
3880.000000	98.715780
3879.000000	98.716442
3878.000000	98.718677
3877.000000	98.718955
3876.000000	98.717333
3875.000000	98.717921
3874.000000	98.723749
3873.000000	98.731215
3872.000000	98.732829
3871.000000	98.726793
3870.000000	98.721172
3869.000000	98.724739
3868.000000	98.735549
3867.000000	98.744444
3866.000000	98.746195
3865.000000	98.743165
3864.000000	98.740141
3863.000000	98.739026
3862.000000	98.738650
3861.000000	98.738142
3860.000000	98.737958
3859.000000	98.739296
3858.000000	98.742867
3857.000000	98.747238
3856.000000	98.748232
3855.000000	98.741698
3854.000000	98.729893
3853.000000	98.720938
3852.000000	98.717321
3851.000000	98.714944
3850.000000	98.712193
3849.000000	98.711326
3848.000000	98.714082
3847.000000	98.718701
3846.000000	98.721413
3845.000000	98.719929
3844.000000	98.715647
3843.000000	98.713227
3842.000000	98.716682
3841.000000	98.726301
3840.000000	98.739393
3839.000000	98.752417
3838.000000	98.762124
3837.000000	98.766881
3836.000000	98.767417
3835.000000	98.765356
3834.000000	98.761265
3833.000000	98.754814
3832.000000	98.746497
3831.000000	98.738013
3830.000000	98.730740
3829.000000	98.724867
3828.000000	98.720352
3827.000000	98.718519
3826.000000	98.720803
3825.000000	98.725824
3824.000000	98.729263
3823.000000	98.728371
3822.000000	98.725906
3821.000000	98.727248
3820.000000	98.732000
3819.000000	98.734208
3818.000000	98.730825
3817.000000	98.725061
3816.000000	98.723503
3815.000000	98.727603
3814.000000	98.731332
3813.000000	98.729746
3812.000000	98.724461
3811.000000	98.720122
3810.000000	98.718678
3809.000000	98.718285
3808.000000	98.717454
3807.000000	98.718668
3806.000000	98.724813
3805.000000	98.734061
3804.000000	98.741650
3803.000000	98.745476
3802.000000	98.747740
3801.000000	98.750176
3800.000000	98.749357
3799.000000	98.741681
3798.000000	98.729255
3797.000000	98.718506
3796.000000	98.714248
3795.000000	98.714886
3794.000000	98.715200
3793.000000	98.712678
3792.000000	98.709314
3791.000000	98.708072
3790.000000	98.709548
3789.000000	98.711994
3788.000000	98.713903
3787.000000	98.715750
3786.000000	98.719456
3785.000000	98.726269
3784.000000	98.734801
3783.000000	98.741412
3782.000000	98.742892
3781.000000	98.739034
3780.000000	98.732590
3779.000000	98.726602
3778.000000	98.721570
3777.000000	98.716580
3776.000000	98.712042
3775.000000	98.710106
3774.000000	98.711904
3773.000000	98.715406
3772.000000	98.717365
3771.000000	98.717988
3770.000000	98.721448
3769.000000	98.729927
3768.000000	98.739844
3767.000000	98.745661
3766.000000	98.745279
3765.000000	98.740865
3764.000000	98.735585
3763.000000	98.730593
3762.000000	98.726003
3761.000000	98.723387
3760.000000	98.724149
3759.000000	98.726336
3758.000000	98.726523
3757.000000	98.724816
3756.000000	98.724131
3755.000000	98.726304
3754.000000	98.731794
3753.000000	98.741294
3752.000000	98.754174
3751.000000	98.764806
3750.000000	98.766581
3749.000000	98.761892
3748.000000	98.758785
3747.000000	98.760071
3746.000000	98.763381
3745.000000	98.766253
3744.000000	98.767534
3743.000000	98.765900
3742.000000	98.759516
3741.000000	98.748816
3740.000000	98.737433
3739.000000	98.728474
3738.000000	98.722590
3737.000000	98.721829
3736.000000	98.731857
3735.000000	98.753991
3734.000000	98.778531
3733.000000	98.793693
3732.000000	98.797137
3731.000000	98.794361
3730.000000	98.790274
3729.000000	98.785374
3728.000000	98.778454
3727.000000	98.769665
3726.000000	98.760356
3725.000000	98.751317
3724.000000	98.743370
3723.000000	98.738644
3722.000000	98.738750
3721.000000	98.742767
3720.000000	98.747938
3719.000000	98.751724
3718.000000	98.753176
3717.000000	98.753092
3716.000000	98.752888
3715.000000	98.753434
3714.000000	98.754452
3713.000000	98.755190
3712.000000	98.755852
3711.000000	98.758046
3710.000000	98.762116
3709.000000	98.765496
3708.000000	98.765493
3707.000000	98.762249
3706.000000	98.758528
3705.000000	98.756997
3704.000000	98.758437
3703.000000	98.761951
3702.000000	98.766820
3701.000000	98.773218
3700.000000	98.780857
3699.000000	98.787211
3698.000000	98.788984
3697.000000	98.785414
3696.000000	98.778719
3695.000000	98.771474
3694.000000	98.765108
3693.000000	98.761446
3692.000000	98.763013
3691.000000	98.770571
3690.000000	98.779844
3689.000000	98.783405
3688.000000	98.778285
3687.000000	98.768562
3686.000000	98.758243
3685.000000	98.747499
3684.000000	98.735955
3683.000000	98.724696
3682.000000	98.715770
3681.000000	98.710598
3680.000000	98.709376
3679.000000	98.710048
3678.000000	98.708790
3677.000000	98.704525
3676.000000	98.702866
3675.000000	98.708215
3674.000000	98.714905
3673.000000	98.715388
3672.000000	98.708096
3671.000000	98.698316
3670.000000	98.693968
3669.000000	98.695918
3668.000000	98.697417
3667.000000	98.694124
3666.000000	98.686759
3665.000000	98.677816
3664.000000	98.668901
3663.000000	98.659922
3662.000000	98.650626
3661.000000	98.642302
3660.000000	98.637205
3659.000000	98.635965
3658.000000	98.636968
3657.000000	98.638335
3656.000000	98.639965
3655.000000	98.642386
3654.000000	98.644439
3653.000000	98.643428
3652.000000	98.637366
3651.000000	98.625755
3650.000000	98.608986
3649.000000	98.589385
3648.000000	98.572341
3647.000000	98.561994
3646.000000	98.557182
3645.000000	98.553999
3644.000000	98.550266
3643.000000	98.547036
3642.000000	98.546302
3641.000000	98.547647
3640.000000	98.548150
3639.000000	98.545609
3638.000000	98.540315
3637.000000	98.533265
3636.000000	98.524698
3635.000000	98.515494
3634.000000	98.508330
3633.000000	98.504932
3632.000000	98.502917
3631.000000	98.497370
3630.000000	98.485824
3629.000000	98.471284
3628.000000	98.458802
3627.000000	98.450407
3626.000000	98.445478
3625.000000	98.443541
3624.000000	98.444880
3623.000000	98.448298
3622.000000	98.449735
3621.000000	98.444489
3620.000000	98.430987
3619.000000	98.412699
3618.000000	98.395589
3617.000000	98.383020
3616.000000	98.374167
3615.000000	98.366762
3614.000000	98.359711
3613.000000	98.352683
3612.000000	98.344769
3611.000000	98.334631
3610.000000	98.321843
3609.000000	98.308642
3608.000000	98.299093
3607.000000	98.295153
3606.000000	98.295024
3605.000000	98.295406
3604.000000	98.294233
3603.000000	98.291072
3602.000000	98.286686
3601.000000	98.282480
3600.000000	98.279297
3599.000000	98.275662
3598.000000	98.268184
3597.000000	98.254119
3596.000000	98.234066
3595.000000	98.212739
3594.000000	98.196029
3593.000000	98.186276
3592.000000	98.180424
3591.000000	98.172841
3590.000000	98.159191
3589.000000	98.139622
3588.000000	98.119500
3587.000000	98.105767
3586.000000	98.101068
3585.000000	98.102344
3584.000000	98.104150
3583.000000	98.101547
3582.000000	98.091992
3581.000000	98.076703
3580.000000	98.060312
3579.000000	98.047578
3578.000000	98.039622
3577.000000	98.033921
3576.000000	98.027211
3575.000000	98.018028
3574.000000	98.006508
3573.000000	97.993366
3572.000000	97.979539
3571.000000	97.966121
3570.000000	97.953557
3569.000000	97.941394
3568.000000	97.928857
3567.000000	97.915915
3566.000000	97.903862
3565.000000	97.894204
3564.000000	97.886809
3563.000000	97.880183
3562.000000	97.872994
3561.000000	97.864741
3560.000000	97.855266
3559.000000	97.844113
3558.000000	97.830514
3557.000000	97.814173
3556.000000	97.795799
3555.000000	97.776820
3554.000000	97.758793
3553.000000	97.742975
3552.000000	97.729899
3551.000000	97.718885
3550.000000	97.708466
3549.000000	97.697959
3548.000000	97.688530
3547.000000	97.682147
3546.000000	97.679257
3545.000000	97.677945
3544.000000	97.675311
3543.000000	97.668876
3542.000000	97.657201
3541.000000	97.640766
3540.000000	97.622294
3539.000000	97.605006
3538.000000	97.590036
3537.000000	97.576220
3536.000000	97.562702
3535.000000	97.550553
3534.000000	97.540763
3533.000000	97.531852
3532.000000	97.521113
3531.000000	97.507900
3530.000000	97.494841
3529.000000	97.485425
3528.000000	97.480657
3527.000000	97.478114
3526.000000	97.473896
3525.000000	97.465294
3524.000000	97.452112
3523.000000	97.436276
3522.000000	97.420203
3521.000000	97.405340
3520.000000	97.392077
3519.000000	97.380391
3518.000000	97.369931
3517.000000	97.359722
3516.000000	97.348801
3515.000000	97.337431
3514.000000	97.327015
3513.000000	97.318301
3512.000000	97.310278
3511.000000	97.301416
3510.000000	97.291635
3509.000000	97.282326
3508.000000	97.274482
3507.000000	97.267572
3506.000000	97.260498
3505.000000	97.252797
3504.000000	97.244459
3503.000000	97.235130
3502.000000	97.224410
3501.000000	97.212704
3500.000000	97.200931
3499.000000	97.189611
3498.000000	97.178853
3497.000000	97.168849
3496.000000	97.159460
3495.000000	97.149398
3494.000000	97.136843
3493.000000	97.121457
3492.000000	97.105202
3491.000000	97.090787
3490.000000	97.079621
3489.000000	97.071434
3488.000000	97.065274
3487.000000	97.060019
3486.000000	97.054195
3485.000000	97.046266
3484.000000	97.035554
3483.000000	97.022773
3482.000000	97.009615
3481.000000	96.997859
3480.000000	96.988763
3479.000000	96.982822
3478.000000	96.979591
3477.000000	96.977504
3476.000000	96.974087
3475.000000	96.967131
3474.000000	96.956503
3473.000000	96.944589
3472.000000	96.934056
3471.000000	96.924934
3470.000000	96.914579
3469.000000	96.900844
3468.000000	96.884807
3467.000000	96.869942
3466.000000	96.859092
3465.000000	96.852939
3464.000000	96.850706
3463.000000	96.850978
3462.000000	96.851655
3461.000000	96.850143
3460.000000	96.844427
3459.000000	96.833985
3458.000000	96.819766
3457.000000	96.803700
3456.000000	96.788175
3455.000000	96.775306
3454.000000	96.766225
3453.000000	96.761029
3452.000000	96.759051
3451.000000	96.758934
3450.000000	96.758875
3449.000000	96.757526
3448.000000	96.754734
3447.000000	96.750900
3446.000000	96.745494
3445.000000	96.737004
3444.000000	96.724732
3443.000000	96.710500
3442.000000	96.698327
3441.000000	96.691889
3440.000000	96.691654
3439.000000	96.694234
3438.000000	96.694710
3437.000000	96.690104
3436.000000	96.680940
3435.000000	96.669723
3434.000000	96.658431
3433.000000	96.647634
3432.000000	96.637150
3431.000000	96.626601
3430.000000	96.615639
3429.000000	96.604487
3428.000000	96.594269
3427.000000	96.586091
3426.000000	96.579808
3425.000000	96.574187
3424.000000	96.568166
3423.000000	96.561301
3422.000000	96.553041
3421.000000	96.542492
3420.000000	96.529536
3419.000000	96.515925
3418.000000	96.504681
3417.000000	96.498042
3416.000000	96.495576
3415.000000	96.494068
3414.000000	96.489767
3413.000000	96.481342
3412.000000	96.470406
3411.000000	96.459163
3410.000000	96.448599
3409.000000	96.439552
3408.000000	96.434085
3407.000000	96.433692
3406.000000	96.436282
3405.000000	96.436835
3404.000000	96.431936
3403.000000	96.422815
3402.000000	96.413304
3401.000000	96.405666
3400.000000	96.398973
3399.000000	96.390697
3398.000000	96.378971
3397.000000	96.363847
3396.000000	96.347335
3395.000000	96.332178
3394.000000	96.319818
3393.000000	96.309345
3392.000000	96.298802
3391.000000	96.287563
3390.000000	96.277064
3389.000000	96.269189
3388.000000	96.264446
3387.000000	96.261849
3386.000000	96.260078
3385.000000	96.258078
3384.000000	96.254485
3383.000000	96.247252
3382.000000	96.234856
3381.000000	96.218175
3380.000000	96.200679
3379.000000	96.186020
3378.000000	96.175255
3377.000000	96.166480
3376.000000	96.157005
3375.000000	96.145619
3374.000000	96.132995
3373.000000	96.120576
3372.000000	96.109442
3371.000000	96.099878
3370.000000	96.091318
3369.000000	96.082438
3368.000000	96.071675
3367.000000	96.058380
3366.000000	96.043795
3365.000000	96.030515
3364.000000	96.020308
3363.000000	96.012386
3362.000000	96.004111
3361.000000	95.993475
3360.000000	95.980616
3359.000000	95.966964
3358.000000	95.953428
3357.000000	95.939608
3356.000000	95.924391
3355.000000	95.907051
3354.000000	95.888062
3353.000000	95.869028
3352.000000	95.851587
3351.000000	95.836233
3350.000000	95.822305
3349.000000	95.808821
3348.000000	95.794813
3347.000000	95.779174
3346.000000	95.761270
3345.000000	95.742110
3344.000000	95.724120
3343.000000	95.709194
3342.000000	95.697265
3341.000000	95.686919
3340.000000	95.676557
3339.000000	95.664837
3338.000000	95.651110
3337.000000	95.636113
3336.000000	95.621379
3335.000000	95.607256
3334.000000	95.592349
3333.000000	95.575683
3332.000000	95.558472
3331.000000	95.542748
3330.000000	95.529119
3329.000000	95.516817
3328.000000	95.504980
3327.000000	95.492617
3326.000000	95.478172
3325.000000	95.460985
3324.000000	95.443075
3323.000000	95.427757
3322.000000	95.416187
3321.000000	95.406441
3320.000000	95.395902
3319.000000	95.383304
3318.000000	95.368550
3317.000000	95.352190
3316.000000	95.335833
3315.000000	95.321860
3314.000000	95.311595
3313.000000	95.303962
3312.000000	95.296272
3311.000000	95.286088
3310.000000	95.272640
3309.000000	95.257357
3308.000000	95.243129
3307.000000	95.232016
3306.000000	95.223194
3305.000000	95.213644
3304.000000	95.200945
3303.000000	95.185112
3302.000000	95.168216
3301.000000	95.153328
3300.000000	95.143653
3299.000000	95.140824
3298.000000	95.142977
3297.000000	95.145382
3296.000000	95.143987
3295.000000	95.138212
3294.000000	95.130024
3293.000000	95.121295
3292.000000	95.112803
3291.000000	95.104876
3290.000000	95.097716
3289.000000	95.091112
3288.000000	95.084756
3287.000000	95.079085
3286.000000	95.075323
3285.000000	95.074410
3284.000000	95.075893
3283.000000	95.077968
3282.000000	95.078844
3281.000000	95.078428
3280.000000	95.078768
3279.000000	95.082329
3278.000000	95.089608
3277.000000	95.098617
3276.000000	95.106944
3275.000000	95.114091
3274.000000	95.121411
3273.000000	95.130136
3272.000000	95.139921
3271.000000	95.149214
3270.000000	95.156588
3269.000000	95.161529
3268.000000	95.164325
3267.000000	95.165774
3266.000000	95.167249
3265.000000	95.170764
3264.000000	95.178190
3263.000000	95.189933
3262.000000	95.204465
3261.000000	95.219349
3260.000000	95.232818
3259.000000	95.244489
3258.000000	95.255232
3257.000000	95.266867
3256.000000	95.281468
3255.000000	95.299998
3254.000000	95.321207
3253.000000	95.342190
3252.000000	95.360154
3251.000000	95.373667
3250.000000	95.382694
3249.000000	95.388301
3248.000000	95.392623
3247.000000	95.398418
3246.000000	95.407774
3245.000000	95.420599
3244.000000	95.434303
3243.000000	95.445381
3242.000000	95.451821
3241.000000	95.454408
3240.000000	95.455960
3239.000000	95.459525
3238.000000	95.467164
3237.000000	95.479483
3236.000000	95.495158
3235.000000	95.511172
3234.000000	95.525008
3233.000000	95.537111
3232.000000	95.550056
3231.000000	95.564544
3230.000000	95.577487
3229.000000	95.585185
3228.000000	95.587527
3227.000000	95.587841
3226.000000	95.589275
3225.000000	95.592908
3224.000000	95.598756
3223.000000	95.606688
3222.000000	95.616059
3221.000000	95.625948
3220.000000	95.636254
3219.000000	95.647361
3218.000000	95.658345
3217.000000	95.666910
3216.000000	95.671805
3215.000000	95.674369
3214.000000	95.676808
3213.000000	95.679747
3212.000000	95.682430
3211.000000	95.684789
3210.000000	95.688220
3209.000000	95.694167
3208.000000	95.702618
3207.000000	95.712237
3206.000000	95.721779
3205.000000	95.731143
3204.000000	95.741022
3203.000000	95.751600
3202.000000	95.761961
3201.000000	95.771005
3200.000000	95.778645
3199.000000	95.785695
3198.000000	95.792814
3197.000000	95.799971
3196.000000	95.806649
3195.000000	95.812167
3194.000000	95.816352
3193.000000	95.820742
3192.000000	95.828709
3191.000000	95.842903
3190.000000	95.862225
3189.000000	95.882102
3188.000000	95.898210
3187.000000	95.909537
3186.000000	95.918156
3185.000000	95.927109
3184.000000	95.938537
3183.000000	95.952629
3182.000000	95.967484
3181.000000	95.980614
3180.000000	95.991114
3179.000000	96.000056
3178.000000	96.008857
3177.000000	96.018174
3176.000000	96.028707
3175.000000	96.041714
3174.000000	96.057544
3173.000000	96.074171
3172.000000	96.088183
3171.000000	96.097419
3170.000000	96.102445
3169.000000	96.106059
3168.000000	96.111813
3167.000000	96.122180
3166.000000	96.137061
3165.000000	96.153830
3164.000000	96.169574
3163.000000	96.183459
3162.000000	96.196853
3161.000000	96.211360
3160.000000	96.227126
3159.000000	96.242866
3158.000000	96.257082
3157.000000	96.269218
3156.000000	96.280033
3155.000000	96.290999
3154.000000	96.303184
3153.000000	96.316452
3152.000000	96.329467
3151.000000	96.340418
3150.000000	96.348225
3149.000000	96.353683
3148.000000	96.359298
3147.000000	96.367315
3146.000000	96.377541
