PE IR       SUBTECH     SPECTRUM    ASCII       PEDS        4.00        
   -1
3C-XXX-F017_1.ASC
23/09/07
10:50:15.00
23/09/07
11:30:09.00
uco
Sample 017 By uco Date Thursday, September 07 2023
450.000000
#HDR
-1
-1
#GR
cm-1
%T
1.0
0.0
4000.000000
-1.000000
3551
8
98.809141
86.149551
#DATA
4000.000000	98.739570
3999.000000	98.739204
3998.000000	98.738974
3997.000000	98.739817
3996.000000	98.742434
3995.000000	98.746366
3994.000000	98.749667
3993.000000	98.749901
3992.000000	98.745874
3991.000000	98.738505
3990.000000	98.730100
3989.000000	98.722762
3988.000000	98.717571
3987.000000	98.714763
3986.000000	98.714089
3985.000000	98.714889
3984.000000	98.716150
3983.000000	98.716994
3982.000000	98.717260
3981.000000	98.717511
3980.000000	98.718232
3979.000000	98.718837
3978.000000	98.717582
3977.000000	98.712849
3976.000000	98.704942
3975.000000	98.696724
3974.000000	98.691897
3973.000000	98.692221
3972.000000	98.696251
3971.000000	98.700712
3970.000000	98.703305
3969.000000	98.704234
3968.000000	98.705315
3967.000000	98.707752
3966.000000	98.710846
3965.000000	98.712844
3964.000000	98.712777
3963.000000	98.711163
3962.000000	98.709037
3961.000000	98.706757
3960.000000	98.704222
3959.000000	98.701864
3958.000000	98.700588
3957.000000	98.700621
3956.000000	98.700852
3955.000000	98.699726
3954.000000	98.696685
3953.000000	98.692714
3952.000000	98.689653
3951.000000	98.689114
3950.000000	98.691578
3949.000000	98.696032
3948.000000	98.700295
3947.000000	98.701938
3946.000000	98.699632
3945.000000	98.694213
3944.000000	98.688815
3943.000000	98.687358
3942.000000	98.691583
3941.000000	98.699430
3940.000000	98.706733
3939.000000	98.709977
3938.000000	98.707679
3937.000000	98.700382
3936.000000	98.690364
3935.000000	98.681352
3934.000000	98.677309
3933.000000	98.680346
3932.000000	98.689054
3931.000000	98.699131
3930.000000	98.706359
3929.000000	98.708664
3928.000000	98.706069
3927.000000	98.700371
3926.000000	98.694908
3925.000000	98.693106
3924.000000	98.696112
3923.000000	98.702272
3922.000000	98.709035
3921.000000	98.714198
3920.000000	98.715792
3919.000000	98.712867
3918.000000	98.707433
3917.000000	98.704106
3916.000000	98.705994
3915.000000	98.711216
3914.000000	98.714622
3913.000000	98.712161
3912.000000	98.703706
3911.000000	98.692873
3910.000000	98.684207
3909.000000	98.679788
3908.000000	98.678059
3907.000000	98.675879
3906.000000	98.672099
3905.000000	98.669517
3904.000000	98.672162
3903.000000	98.679865
3902.000000	98.687582
3901.000000	98.691199
3900.000000	98.691736
3899.000000	98.692943
3898.000000	98.696915
3897.000000	98.702933
3896.000000	98.709245
3895.000000	98.713985
3894.000000	98.715366
3893.000000	98.712976
3892.000000	98.709491
3891.000000	98.708671
3890.000000	98.710731
3889.000000	98.712496
3888.000000	98.711502
3887.000000	98.708660
3886.000000	98.706917
3885.000000	98.706757
3884.000000	98.705301
3883.000000	98.700734
3882.000000	98.694785
3881.000000	98.691128
3880.000000	98.691252
3879.000000	98.692435
3878.000000	98.691456
3877.000000	98.688178
3876.000000	98.685325
3875.000000	98.686074
3874.000000	98.689901
3873.000000	98.691742
3872.000000	98.688063
3871.000000	98.682921
3870.000000	98.684856
3869.000000	98.695522
3868.000000	98.707198
3867.000000	98.713098
3866.000000	98.713210
3865.000000	98.710819
3864.000000	98.708169
3863.000000	98.705241
3862.000000	98.701750
3861.000000	98.698683
3860.000000	98.697686
3859.000000	98.699469
3858.000000	98.702610
3857.000000	98.703527
3856.000000	98.698132
3855.000000	98.686070
3854.000000	98.676480
3853.000000	98.679982
3852.000000	98.690553
3851.000000	98.696983
3850.000000	98.698623
3849.000000	98.699678
3848.000000	98.701982
3847.000000	98.704317
3846.000000	98.704880
3845.000000	98.703641
3844.000000	98.702958
3843.000000	98.704967
3842.000000	98.709122
3841.000000	98.713301
3840.000000	98.716154
3839.000000	98.717785
3838.000000	98.718765
3837.000000	98.719185
3836.000000	98.718621
3835.000000	98.716360
3834.000000	98.712001
3833.000000	98.706340
3832.000000	98.700957
3831.000000	98.696503
3830.000000	98.692230
3829.000000	98.687245
3828.000000	98.682542
3827.000000	98.680845
3826.000000	98.683244
3825.000000	98.687181
3824.000000	98.689088
3823.000000	98.688708
3822.000000	98.691059
3821.000000	98.700732
3820.000000	98.712329
3819.000000	98.716208
3818.000000	98.710377
3817.000000	98.701005
3816.000000	98.695702
3815.000000	98.695153
3814.000000	98.694301
3813.000000	98.691252
3812.000000	98.688966
3811.000000	98.690507
3810.000000	98.695376
3809.000000	98.700590
3808.000000	98.704612
3807.000000	98.708242
3806.000000	98.711386
3805.000000	98.712184
3804.000000	98.710029
3803.000000	98.707993
3802.000000	98.710946
3801.000000	98.718092
3800.000000	98.721562
3799.000000	98.717228
3798.000000	98.708148
3797.000000	98.699130
3796.000000	98.691774
3795.000000	98.684260
3794.000000	98.675902
3793.000000	98.669261
3792.000000	98.667402
3791.000000	98.670598
3790.000000	98.676225
3789.000000	98.681246
3788.000000	98.684217
3787.000000	98.685190
3786.000000	98.684945
3785.000000	98.684575
3784.000000	98.684970
3783.000000	98.686199
3782.000000	98.687441
3781.000000	98.687636
3780.000000	98.686675
3779.000000	98.685623
3778.000000	98.685205
3777.000000	98.685181
3776.000000	98.685571
3775.000000	98.687153
3774.000000	98.690074
3773.000000	98.692750
3772.000000	98.693191
3771.000000	98.691383
3770.000000	98.689508
3769.000000	98.689477
3768.000000	98.691273
3767.000000	98.694335
3766.000000	98.698686
3765.000000	98.703223
3764.000000	98.704901
3763.000000	98.701376
3762.000000	98.693899
3761.000000	98.686413
3760.000000	98.682072
3759.000000	98.681411
3758.000000	98.683488
3757.000000	98.687996
3756.000000	98.694890
3755.000000	98.703552
3754.000000	98.713265
3753.000000	98.723389
3752.000000	98.732566
3751.000000	98.738971
3750.000000	98.741704
3749.000000	98.741995
3748.000000	98.741834
3747.000000	98.742048
3746.000000	98.743395
3745.000000	98.746985
3744.000000	98.749903
3743.000000	98.746091
3742.000000	98.735826
3741.000000	98.724619
3740.000000	98.716586
3739.000000	98.712526
3738.000000	98.711908
3737.000000	98.715882
3736.000000	98.725752
3735.000000	98.737704
3734.000000	98.745022
3733.000000	98.746356
3732.000000	98.746132
3731.000000	98.747596
3730.000000	98.749272
3729.000000	98.747849
3728.000000	98.741700
3727.000000	98.731514
3726.000000	98.719128
3725.000000	98.707280
3724.000000	98.699535
3723.000000	98.697938
3722.000000	98.701041
3721.000000	98.705432
3720.000000	98.709036
3719.000000	98.712556
3718.000000	98.717674
3717.000000	98.724495
3716.000000	98.731443
3715.000000	98.736843
3714.000000	98.739797
3713.000000	98.740619
3712.000000	98.741447
3711.000000	98.744461
3710.000000	98.747943
3709.000000	98.748109
3708.000000	98.744224
3707.000000	98.738884
3706.000000	98.734848
3705.000000	98.732652
3704.000000	98.730548
3703.000000	98.726222
3702.000000	98.719464
3701.000000	98.713015
3700.000000	98.709764
3699.000000	98.710081
3698.000000	98.712497
3697.000000	98.715166
3696.000000	98.716680
3695.000000	98.716878
3694.000000	98.717226
3693.000000	98.719394
3692.000000	98.722843
3691.000000	98.724473
3690.000000	98.721358
3689.000000	98.714464
3688.000000	98.707721
3687.000000	98.703570
3686.000000	98.701875
3685.000000	98.701960
3684.000000	98.703319
3683.000000	98.704757
3682.000000	98.704712
3681.000000	98.703325
3680.000000	98.702377
3679.000000	98.701768
3678.000000	98.698623
3677.000000	98.692084
3676.000000	98.688093
3675.000000	98.691457
3674.000000	98.695590
3673.000000	98.692402
3672.000000	98.682553
3671.000000	98.673465
3670.000000	98.671388
3669.000000	98.672781
3668.000000	98.668879
3667.000000	98.657554
3666.000000	98.643477
3665.000000	98.632074
3664.000000	98.626051
3663.000000	98.625205
3662.000000	98.627607
3661.000000	98.630951
3660.000000	98.633297
3659.000000	98.633699
3658.000000	98.633068
3657.000000	98.634463
3656.000000	98.640302
3655.000000	98.648934
3654.000000	98.656448
3653.000000	98.659904
3652.000000	98.657247
3651.000000	98.646375
3650.000000	98.627610
3649.000000	98.607582
3648.000000	98.594901
3647.000000	98.590594
3646.000000	98.589007
3645.000000	98.585565
3644.000000	98.580129
3643.000000	98.575173
3642.000000	98.572075
3641.000000	98.569700
3640.000000	98.566726
3639.000000	98.563894
3638.000000	98.562119
3637.000000	98.559797
3636.000000	98.554523
3635.000000	98.547176
3634.000000	98.541663
3633.000000	98.539671
3632.000000	98.537991
3631.000000	98.532193
3630.000000	98.522852
3629.000000	98.516430
3628.000000	98.515074
3627.000000	98.512951
3626.000000	98.506690
3625.000000	98.498430
3624.000000	98.491308
3623.000000	98.486160
3622.000000	98.481689
3621.000000	98.476541
3620.000000	98.470391
3619.000000	98.463332
3618.000000	98.455064
3617.000000	98.445631
3616.000000	98.436153
3615.000000	98.427973
3614.000000	98.421342
3613.000000	98.414876
3612.000000	98.406955
3611.000000	98.397618
3610.000000	98.388656
3609.000000	98.382033
3608.000000	98.377624
3607.000000	98.372986
3606.000000	98.366505
3605.000000	98.359686
3604.000000	98.355441
3603.000000	98.354618
3602.000000	98.354768
3601.000000	98.352483
3600.000000	98.346437
3599.000000	98.337937
3598.000000	98.328400
3597.000000	98.317637
3596.000000	98.305362
3595.000000	98.292966
3594.000000	98.282321
3593.000000	98.273375
3592.000000	98.264148
3591.000000	98.252856
3590.000000	98.239240
3589.000000	98.224735
3588.000000	98.211832
3587.000000	98.202359
3586.000000	98.196063
3585.000000	98.191380
3584.000000	98.186682
3583.000000	98.180748
3582.000000	98.173314
3581.000000	98.165380
3580.000000	98.158361
3579.000000	98.152569
3578.000000	98.146965
3577.000000	98.140541
3576.000000	98.133452
3575.000000	98.126376
3574.000000	98.119100
3573.000000	98.110670
3572.000000	98.100816
3571.000000	98.090360
3570.000000	98.080162
3569.000000	98.070330
3568.000000	98.060417
3567.000000	98.050051
3566.000000	98.039379
3565.000000	98.029018
3564.000000	98.019385
3563.000000	98.010263
3562.000000	98.001051
3561.000000	97.991328
3560.000000	97.981040
3559.000000	97.970167
3558.000000	97.958548
3557.000000	97.946319
3556.000000	97.934049
3555.000000	97.922011
3554.000000	97.909536
3553.000000	97.895898
3552.000000	97.882102
3551.000000	97.870796
3550.000000	97.863783
3549.000000	97.860147
3548.000000	97.856976
3547.000000	97.851821
3546.000000	97.844800
3545.000000	97.838054
3544.000000	97.832504
3543.000000	97.825885
3542.000000	97.814839
3541.000000	97.798831
3540.000000	97.781349
3539.000000	97.767196
3538.000000	97.758443
3537.000000	97.753090
3536.000000	97.747268
3535.000000	97.738438
3534.000000	97.726666
3533.000000	97.714024
3532.000000	97.703282
3531.000000	97.696026
3530.000000	97.690988
3529.000000	97.684774
3528.000000	97.675311
3527.000000	97.664188
3526.000000	97.654696
3525.000000	97.647937
3524.000000	97.641786
3523.000000	97.633416
3522.000000	97.622073
3521.000000	97.609252
3520.000000	97.596893
3519.000000	97.585791
3518.000000	97.575324
3517.000000	97.564439
3516.000000	97.553242
3515.000000	97.543392
3514.000000	97.536377
3513.000000	97.531358
3512.000000	97.525302
3511.000000	97.515594
3510.000000	97.502590
3509.000000	97.489537
3508.000000	97.479924
3507.000000	97.474878
3506.000000	97.472680
3505.000000	97.470124
3504.000000	97.464555
3503.000000	97.455655
3502.000000	97.445459
3501.000000	97.436176
3500.000000	97.427978
3499.000000	97.419191
3498.000000	97.408397
3497.000000	97.396081
3496.000000	97.384111
3495.000000	97.373679
3494.000000	97.364195
3493.000000	97.354456
3492.000000	97.344501
3491.000000	97.335707
3490.000000	97.329023
3489.000000	97.323570
3488.000000	97.317308
3487.000000	97.308812
3486.000000	97.298033
3485.000000	97.285611
3484.000000	97.272437
3483.000000	97.260177
3482.000000	97.251196
3481.000000	97.246700
3480.000000	97.245030
3479.000000	97.242707
3478.000000	97.237518
3477.000000	97.230129
3476.000000	97.222820
3475.000000	97.217111
3474.000000	97.212679
3473.000000	97.207986
3472.000000	97.201332
3471.000000	97.191678
3470.000000	97.179374
3469.000000	97.166292
3468.000000	97.154645
3467.000000	97.145314
3466.000000	97.137804
3465.000000	97.131934
3464.000000	97.128594
3463.000000	97.127970
3462.000000	97.127471
3461.000000	97.122727
3460.000000	97.111339
3459.000000	97.095335
3458.000000	97.079506
3457.000000	97.067551
3456.000000	97.059814
3455.000000	97.054256
3454.000000	97.049053
3453.000000	97.043885
3452.000000	97.039087
3451.000000	97.034494
3450.000000	97.029831
3449.000000	97.025802
3448.000000	97.023764
3447.000000	97.023755
3446.000000	97.023392
3445.000000	97.019566
3444.000000	97.011032
3443.000000	96.999319
3442.000000	96.987700
3441.000000	96.979195
3440.000000	96.974643
3439.000000	96.972111
3438.000000	96.968326
3437.000000	96.961126
3436.000000	96.950689
3435.000000	96.938626
3434.000000	96.926625
3433.000000	96.916126
3432.000000	96.908286
3431.000000	96.903211
3430.000000	96.899519
3429.000000	96.895400
3428.000000	96.890059
3427.000000	96.883680
3426.000000	96.876455
3425.000000	96.868417
3424.000000	96.859949
3423.000000	96.851503
3422.000000	96.842827
3421.000000	96.833459
3420.000000	96.824303
3419.000000	96.817681
3418.000000	96.814895
3417.000000	96.814126
3416.000000	96.811397
3415.000000	96.803772
3414.000000	96.791648
3413.000000	96.778110
3412.000000	96.766208
3411.000000	96.756857
3410.000000	96.749146
3409.000000	96.742344
3408.000000	96.737157
3407.000000	96.734705
3406.000000	96.734360
3405.000000	96.733062
3404.000000	96.727297
3403.000000	96.716134
3402.000000	96.702358
3401.000000	96.690250
3400.000000	96.681823
3399.000000	96.675040
3398.000000	96.665847
3397.000000	96.652101
3396.000000	96.635438
3395.000000	96.619511
3394.000000	96.606942
3393.000000	96.598124
3392.000000	96.592156
3391.000000	96.588043
3390.000000	96.584957
3389.000000	96.582098
3388.000000	96.578942
3387.000000	96.575654
3386.000000	96.572857
3385.000000	96.570551
3384.000000	96.567306
3383.000000	96.561023
3382.000000	96.551020
3381.000000	96.539261
3380.000000	96.528942
3379.000000	96.521503
3378.000000	96.515293
3377.000000	96.507294
3376.000000	96.495813
3375.000000	96.481352
3374.000000	96.465545
3373.000000	96.450105
3372.000000	96.436660
3371.000000	96.426519
3370.000000	96.419641
3369.000000	96.413808
3368.000000	96.405418
3367.000000	96.391856
3366.000000	96.373762
3365.000000	96.355137
3364.000000	96.340805
3363.000000	96.332935
3362.000000	96.329299
3361.000000	96.324721
3360.000000	96.314725
3359.000000	96.298590
3358.000000	96.279405
3357.000000	96.261163
3356.000000	96.245545
3355.000000	96.231348
3354.000000	96.216822
3353.000000	96.202012
3352.000000	96.188414
3351.000000	96.176747
3350.000000	96.165785
3349.000000	96.153433
3348.000000	96.138549
3347.000000	96.121766
3346.000000	96.104883
3345.000000	96.089304
3344.000000	96.074689
3343.000000	96.059400
3342.000000	96.042831
3341.000000	96.026922
3340.000000	96.014399
3339.000000	96.005634
3338.000000	95.998124
3337.000000	95.989021
3336.000000	95.977211
3335.000000	95.962963
3334.000000	95.947031
3333.000000	95.930803
3332.000000	95.916065
3331.000000	95.903505
3330.000000	95.892117
3329.000000	95.880810
3328.000000	95.869786
3327.000000	95.859405
3326.000000	95.848547
3325.000000	95.835424
3324.000000	95.819934
3323.000000	95.804091
3322.000000	95.790051
3321.000000	95.778392
3320.000000	95.768163
3319.000000	95.757840
3318.000000	95.746342
3317.000000	95.733714
3316.000000	95.720900
3315.000000	95.708598
3314.000000	95.696649
3313.000000	95.684892
3312.000000	95.673916
3311.000000	95.664223
3310.000000	95.655159
3309.000000	95.645646
3308.000000	95.635760
3307.000000	95.626462
3306.000000	95.617680
3305.000000	95.607625
3304.000000	95.594481
3303.000000	95.578482
3302.000000	95.562234
3301.000000	95.549152
3300.000000	95.541243
3299.000000	95.537715
3298.000000	95.535623
3297.000000	95.532161
3296.000000	95.526425
3295.000000	95.519014
3294.000000	95.510585
3293.000000	95.501557
3292.000000	95.492819
3291.000000	95.485686
3290.000000	95.480907
3289.000000	95.478108
3288.000000	95.476318
3287.000000	95.474842
3286.000000	95.473836
3285.000000	95.474183
3284.000000	95.476233
3283.000000	95.478285
3282.000000	95.477140
3281.000000	95.471349
3280.000000	95.463718
3279.000000	95.459381
3278.000000	95.461182
3277.000000	95.467485
3276.000000	95.474645
3275.000000	95.480940
3274.000000	95.487583
3273.000000	95.496602
3272.000000	95.508294
3271.000000	95.520536
3270.000000	95.530291
3269.000000	95.535928
3268.000000	95.538471
3267.000000	95.540808
3266.000000	95.545574
3265.000000	95.553398
3264.000000	95.562823
3263.000000	95.571914
3262.000000	95.580307
3261.000000	95.589770
3260.000000	95.602361
3259.000000	95.617856
3258.000000	95.633733
3257.000000	95.648013
3256.000000	95.661281
3255.000000	95.675288
3254.000000	95.690214
3253.000000	95.704394
3252.000000	95.716449
3251.000000	95.726548
3250.000000	95.735575
3249.000000	95.744099
3248.000000	95.752484
3247.000000	95.761175
3246.000000	95.770337
3245.000000	95.779512
3244.000000	95.788047
3243.000000	95.795724
3242.000000	95.802788
3241.000000	95.809632
3240.000000	95.816803
3239.000000	95.825365
3238.000000	95.836888
3237.000000	95.852442
3236.000000	95.870957
3235.000000	95.888865
3234.000000	95.902359
3233.000000	95.910395
3232.000000	95.914935
3231.000000	95.918039
3230.000000	95.919716
3229.000000	95.919393
3228.000000	95.918524
3227.000000	95.920305
3226.000000	95.926710
3225.000000	95.936609
3224.000000	95.946681
3223.000000	95.953758
3222.000000	95.957005
3221.000000	95.958916
3220.000000	95.963885
3219.000000	95.974178
3218.000000	95.986923
3217.000000	95.996379
3216.000000	95.999585
3215.000000	95.999216
3214.000000	96.000450
3213.000000	96.005841
3212.000000	96.013907
3211.000000	96.021843
3210.000000	96.028477
3209.000000	96.034547
3208.000000	96.041204
3207.000000	96.048896
3206.000000	96.057479
3205.000000	96.066706
3204.000000	96.076161
3203.000000	96.085008
3202.000000	96.092417
3201.000000	96.098385
3200.000000	96.103678
3199.000000	96.108818
3198.000000	96.113729
3197.000000	96.118580
3196.000000	96.124159
3195.000000	96.130773
3194.000000	96.137612
3193.000000	96.144154
3192.000000	96.151744
3191.000000	96.162584
3190.000000	96.177109
3189.000000	96.193137
3188.000000	96.207551
3187.000000	96.218265
3186.000000	96.225101
3185.000000	96.230143
3184.000000	96.237142
3183.000000	96.248975
3182.000000	96.264798
3181.000000	96.280404
3180.000000	96.292018
3179.000000	96.299316
3178.000000	96.304853
3177.000000	96.311503
3176.000000	96.321071
3175.000000	96.334177
3174.000000	96.349969
3173.000000	96.365889
3172.000000	96.378805
3171.000000	96.387150
3170.000000	96.392013
3169.000000	96.396248
3168.000000	96.402410
3167.000000	96.411062
3166.000000	96.420612
3165.000000	96.428929
3164.000000	96.435525
3163.000000	96.442212
3162.000000	96.451474
3161.000000	96.464136
3160.000000	96.478642
3159.000000	96.492556
3158.000000	96.504758
3157.000000	96.516113
3156.000000	96.528024
3155.000000	96.540477
3154.000000	96.551929
3153.000000	96.561064
3152.000000	96.568101
3151.000000	96.574098
3150.000000	96.579868
3149.000000	96.586292
3148.000000	96.594889
3147.000000	96.606542
3146.000000	96.619597
