PE IR       SUBTECH     SPECTRUM    ASCII       PEDS        4.00        
   -1
3C-YYX-C018_1.ASC
23/09/07
11:25:58.00
23/09/07
11:30:09.00
uco
Sample 018 By uco Date Thursday, September 07 2023
450.000000
#HDR
-1
-1
#GR
cm-1
%T
1.0
0.0
4000.000000
-1.000000
3551
8
98.527730
76.803354
#DATA
4000.000000	98.455024
3999.000000	98.455889
3998.000000	98.454813
3997.000000	98.452181
3996.000000	98.448804
3995.000000	98.445399
3994.000000	98.442199
3993.000000	98.439028
3992.000000	98.435879
3991.000000	98.433207
3990.000000	98.431459
3989.000000	98.430403
3988.000000	98.429265
3987.000000	98.427521
3986.000000	98.425388
3985.000000	98.423651
3984.000000	98.423313
3983.000000	98.425183
3982.000000	98.429336
3981.000000	98.434728
3980.000000	98.439497
3979.000000	98.441768
3978.000000	98.440299
3977.000000	98.434841
3976.000000	98.426584
3975.000000	98.418502
3974.000000	98.414380
3973.000000	98.416580
3972.000000	98.424135
3971.000000	98.432950
3970.000000	98.438444
3969.000000	98.438318
3968.000000	98.433691
3967.000000	98.427849
3966.000000	98.423748
3965.000000	98.422496
3964.000000	98.423316
3963.000000	98.424497
3962.000000	98.424608
3961.000000	98.423432
3960.000000	98.421897
3959.000000	98.420993
3958.000000	98.420698
3957.000000	98.419957
3956.000000	98.418056
3955.000000	98.415547
3954.000000	98.413698
3953.000000	98.413183
3952.000000	98.413512
3951.000000	98.413900
3950.000000	98.414233
3949.000000	98.415005
3948.000000	98.416245
3947.000000	98.416813
3946.000000	98.415271
3945.000000	98.411230
3944.000000	98.406003
3943.000000	98.402338
3942.000000	98.402796
3941.000000	98.408392
3940.000000	98.417871
3939.000000	98.427627
3938.000000	98.433030
3937.000000	98.430666
3936.000000	98.420927
3935.000000	98.408156
3934.000000	98.398166
3933.000000	98.395542
3932.000000	98.401193
3931.000000	98.411788
3930.000000	98.421619
3929.000000	98.426318
3928.000000	98.425780
3927.000000	98.422877
3926.000000	98.420000
3925.000000	98.417045
3924.000000	98.412969
3923.000000	98.408250
3922.000000	98.404291
3921.000000	98.401177
3920.000000	98.397885
3919.000000	98.394404
3918.000000	98.392883
3917.000000	98.395945
3916.000000	98.403920
3915.000000	98.414220
3914.000000	98.422729
3913.000000	98.425999
3912.000000	98.422846
3911.000000	98.414587
3910.000000	98.403722
3909.000000	98.391902
3908.000000	98.380071
3907.000000	98.369279
3906.000000	98.360848
3905.000000	98.355534
3904.000000	98.353405
3903.000000	98.355112
3902.000000	98.361896
3901.000000	98.373391
3900.000000	98.387007
3899.000000	98.399365
3898.000000	98.408119
3897.000000	98.412488
3896.000000	98.412315
3895.000000	98.408340
3894.000000	98.403358
3893.000000	98.401131
3892.000000	98.402937
3891.000000	98.405333
3890.000000	98.404321
3889.000000	98.400072
3888.000000	98.395615
3887.000000	98.393042
3886.000000	98.391611
3885.000000	98.389374
3884.000000	98.387368
3883.000000	98.388548
3882.000000	98.393367
3881.000000	98.398311
3880.000000	98.399091
3879.000000	98.395753
3878.000000	98.392881
3877.000000	98.394478
3876.000000	98.401203
3875.000000	98.409729
3874.000000	98.414163
3873.000000	98.411536
3872.000000	98.404909
3871.000000	98.399308
3870.000000	98.396077
3869.000000	98.393424
3868.000000	98.391560
3867.000000	98.391911
3866.000000	98.393397
3865.000000	98.393443
3864.000000	98.391602
3863.000000	98.389886
3862.000000	98.389156
3861.000000	98.387750
3860.000000	98.384918
3859.000000	98.381165
3858.000000	98.376875
3857.000000	98.371741
3856.000000	98.367038
3855.000000	98.365538
3854.000000	98.365325
3853.000000	98.362113
3852.000000	98.360337
3851.000000	98.365778
3850.000000	98.375579
3849.000000	98.384163
3848.000000	98.389287
3847.000000	98.392253
3846.000000	98.394700
3845.000000	98.396311
3844.000000	98.395081
3843.000000	98.389530
3842.000000	98.380934
3841.000000	98.373053
3840.000000	98.369790
3839.000000	98.372396
3838.000000	98.379093
3837.000000	98.387109
3836.000000	98.395507
3835.000000	98.404631
3834.000000	98.413664
3833.000000	98.420207
3832.000000	98.422283
3831.000000	98.420110
3830.000000	98.416129
3829.000000	98.412772
3828.000000	98.410660
3827.000000	98.407777
3826.000000	98.400937
3825.000000	98.389418
3824.000000	98.376772
3823.000000	98.368930
3822.000000	98.368547
3821.000000	98.371031
3820.000000	98.370913
3819.000000	98.369802
3818.000000	98.372423
3817.000000	98.379266
3816.000000	98.386232
3815.000000	98.389779
3814.000000	98.391527
3813.000000	98.393760
3812.000000	98.395274
3811.000000	98.394476
3810.000000	98.392358
3809.000000	98.391996
3808.000000	98.394828
3807.000000	98.398135
3806.000000	98.398497
3805.000000	98.397279
3804.000000	98.399268
3803.000000	98.407568
3802.000000	98.418222
3801.000000	98.421503
3800.000000	98.414854
3799.000000	98.406702
3798.000000	98.403596
3797.000000	98.405064
3796.000000	98.407394
3795.000000	98.408862
3794.000000	98.410738
3793.000000	98.414349
3792.000000	98.419386
3791.000000	98.424614
3790.000000	98.428101
3789.000000	98.427934
3788.000000	98.424377
3787.000000	98.420342
3786.000000	98.418664
3785.000000	98.419233
3784.000000	98.419919
3783.000000	98.419956
3782.000000	98.420649
3781.000000	98.422775
3780.000000	98.425069
3779.000000	98.425578
3778.000000	98.424069
3777.000000	98.422092
3776.000000	98.420872
3775.000000	98.419980
3774.000000	98.417852
3773.000000	98.413460
3772.000000	98.407447
3771.000000	98.401936
3770.000000	98.399644
3769.000000	98.402447
3768.000000	98.410973
3767.000000	98.423541
3766.000000	98.435480
3765.000000	98.441175
3764.000000	98.438684
3763.000000	98.431029
3762.000000	98.422295
3761.000000	98.414385
3760.000000	98.408202
3759.000000	98.405059
3758.000000	98.405163
3757.000000	98.406225
3756.000000	98.405868
3755.000000	98.403815
3754.000000	98.400616
3753.000000	98.395759
3752.000000	98.388246
3751.000000	98.378504
3750.000000	98.368508
3749.000000	98.360546
3748.000000	98.357487
3747.000000	98.362562
3746.000000	98.376635
3745.000000	98.393405
3744.000000	98.402891
3743.000000	98.406822
3742.000000	98.412625
3741.000000	98.417679
3740.000000	98.415723
3739.000000	98.406373
3738.000000	98.395563
3737.000000	98.390911
3736.000000	98.398907
3735.000000	98.421345
3734.000000	98.449628
3733.000000	98.470081
3732.000000	98.476473
3731.000000	98.472692
3730.000000	98.465174
3729.000000	98.456589
3728.000000	98.446867
3727.000000	98.436329
3726.000000	98.427195
3725.000000	98.423288
3724.000000	98.427350
3723.000000	98.437788
3722.000000	98.447895
3721.000000	98.451367
3720.000000	98.448484
3719.000000	98.444279
3718.000000	98.441831
3717.000000	98.439887
3716.000000	98.437422
3715.000000	98.435955
3714.000000	98.435591
3713.000000	98.432802
3712.000000	98.425395
3711.000000	98.418071
3710.000000	98.416890
3709.000000	98.421179
3708.000000	98.427303
3707.000000	98.433403
3706.000000	98.439058
3705.000000	98.444497
3704.000000	98.450366
3703.000000	98.456777
3702.000000	98.462119
3701.000000	98.464001
3700.000000	98.462501
3699.000000	98.459963
3698.000000	98.457039
3697.000000	98.451450
3696.000000	98.441057
3695.000000	98.426759
3694.000000	98.411810
3693.000000	98.400496
3692.000000	98.397657
3691.000000	98.406754
3690.000000	98.424034
3689.000000	98.437427
3688.000000	98.438666
3687.000000	98.432249
3686.000000	98.425956
3685.000000	98.420798
3684.000000	98.413337
3683.000000	98.401478
3682.000000	98.386105
3681.000000	98.368633
3680.000000	98.349815
3679.000000	98.332230
3678.000000	98.321186
3677.000000	98.320974
3676.000000	98.327413
3675.000000	98.328430
3674.000000	98.319235
3673.000000	98.307623
3672.000000	98.301751
3671.000000	98.304819
3670.000000	98.313335
3669.000000	98.319188
3668.000000	98.319520
3667.000000	98.317819
3666.000000	98.316050
3665.000000	98.313258
3664.000000	98.308290
3663.000000	98.301393
3662.000000	98.293251
3661.000000	98.284241
3660.000000	98.275638
3659.000000	98.269737
3658.000000	98.266791
3657.000000	98.262810
3656.000000	98.253393
3655.000000	98.240635
3654.000000	98.230232
3653.000000	98.224010
3652.000000	98.219069
3651.000000	98.211105
3650.000000	98.198608
3649.000000	98.186545
3648.000000	98.180862
3647.000000	98.179597
3646.000000	98.176983
3645.000000	98.171154
3644.000000	98.164848
3643.000000	98.161886
3642.000000	98.163546
3641.000000	98.167264
3640.000000	98.169331
3639.000000	98.167633
3638.000000	98.161261
3637.000000	98.149906
3636.000000	98.134264
3635.000000	98.116131
3634.000000	98.097294
3633.000000	98.078899
3632.000000	98.061920
3631.000000	98.047685
3630.000000	98.036877
3629.000000	98.029024
3628.000000	98.025020
3627.000000	98.026438
3626.000000	98.031158
3625.000000	98.033753
3624.000000	98.032013
3623.000000	98.028683
3622.000000	98.027229
3621.000000	98.026740
3620.000000	98.021151
3619.000000	98.004853
3618.000000	97.979798
3617.000000	97.954030
3616.000000	97.933828
3615.000000	97.919200
3614.000000	97.904607
3613.000000	97.884637
3612.000000	97.860883
3611.000000	97.840287
3610.000000	97.826451
3609.000000	97.818128
3608.000000	97.814478
3607.000000	97.816362
3606.000000	97.822370
3605.000000	97.827696
3604.000000	97.828654
3603.000000	97.824793
3602.000000	97.817085
3601.000000	97.806398
3600.000000	97.794164
3599.000000	97.782197
3598.000000	97.769846
3597.000000	97.754040
3596.000000	97.733359
3595.000000	97.710994
3594.000000	97.691268
3593.000000	97.675528
3592.000000	97.662479
3591.000000	97.651607
3590.000000	97.643082
3589.000000	97.635780
3588.000000	97.626832
3587.000000	97.614864
3586.000000	97.601602
3585.000000	97.589430
3584.000000	97.579396
3583.000000	97.570855
3582.000000	97.561766
3581.000000	97.550054
3580.000000	97.535571
3579.000000	97.520782
3578.000000	97.507947
3577.000000	97.496947
3576.000000	97.486098
3575.000000	97.474098
3574.000000	97.460242
3573.000000	97.444258
3572.000000	97.427253
3571.000000	97.411389
3570.000000	97.397542
3569.000000	97.383364
3568.000000	97.365433
3567.000000	97.344378
3566.000000	97.325272
3565.000000	97.311441
3564.000000	97.302236
3563.000000	97.295064
3562.000000	97.286956
3561.000000	97.275877
3560.000000	97.262095
3559.000000	97.247347
3558.000000	97.232400
3557.000000	97.216374
3556.000000	97.198896
3555.000000	97.181088
3554.000000	97.164060
3553.000000	97.147856
3552.000000	97.133078
3551.000000	97.121433
3550.000000	97.113141
3549.000000	97.105558
3548.000000	97.095591
3547.000000	97.082830
3546.000000	97.069389
3545.000000	97.057152
3544.000000	97.045955
3543.000000	97.033980
3542.000000	97.018723
3541.000000	96.999055
3540.000000	96.977362
3539.000000	96.958141
3538.000000	96.943302
3537.000000	96.929914
3536.000000	96.913847
3535.000000	96.894658
3534.000000	96.875247
3533.000000	96.858732
3532.000000	96.846914
3531.000000	96.840016
3530.000000	96.835565
3529.000000	96.829047
3528.000000	96.817995
3527.000000	96.804877
3526.000000	96.793812
3525.000000	96.785405
3524.000000	96.776411
3523.000000	96.763650
3522.000000	96.747020
3521.000000	96.729159
3520.000000	96.713210
3519.000000	96.700445
3518.000000	96.689209
3517.000000	96.676688
3516.000000	96.661998
3515.000000	96.646636
3514.000000	96.631570
3513.000000	96.615694
3512.000000	96.597829
3511.000000	96.579022
3510.000000	96.561864
3509.000000	96.548420
3508.000000	96.539467
3507.000000	96.534370
3506.000000	96.530409
3505.000000	96.523118
3504.000000	96.509183
3503.000000	96.489475
3502.000000	96.468488
3501.000000	96.450926
3500.000000	96.438887
3499.000000	96.431006
3498.000000	96.423368
3497.000000	96.412561
3496.000000	96.398636
3495.000000	96.384046
3494.000000	96.369841
3493.000000	96.354924
3492.000000	96.339201
3491.000000	96.324831
3490.000000	96.313423
3489.000000	96.303864
3488.000000	96.293869
3487.000000	96.282023
3486.000000	96.267517
3485.000000	96.249860
3484.000000	96.230287
3483.000000	96.212224
3482.000000	96.198893
3481.000000	96.190893
3480.000000	96.186661
3479.000000	96.183790
3478.000000	96.179310
3477.000000	96.170505
3476.000000	96.157058
3475.000000	96.141580
3474.000000	96.127146
3473.000000	96.115050
3472.000000	96.104961
3471.000000	96.095568
3470.000000	96.084726
3469.000000	96.070959
3468.000000	96.055590
3467.000000	96.041769
3466.000000	96.030884
3465.000000	96.021657
3464.000000	96.012956
3463.000000	96.005180
3462.000000	95.997808
3461.000000	95.987947
3460.000000	95.973143
3459.000000	95.954449
3458.000000	95.935603
3457.000000	95.920153
3456.000000	95.909903
3455.000000	95.904519
3454.000000	95.901475
3453.000000	95.897733
3452.000000	95.892245
3451.000000	95.886288
3450.000000	95.881008
3449.000000	95.875936
3448.000000	95.870064
3447.000000	95.862759
3446.000000	95.853061
3445.000000	95.840029
3444.000000	95.824603
3443.000000	95.809640
3442.000000	95.797449
3441.000000	95.788394
3440.000000	95.782100
3439.000000	95.778038
3438.000000	95.774259
3437.000000	95.767669
3436.000000	95.756858
3435.000000	95.743278
3434.000000	95.728871
3433.000000	95.714336
3432.000000	95.700355
3431.000000	95.688534
3430.000000	95.679576
3429.000000	95.672102
3428.000000	95.664610
3427.000000	95.657070
3426.000000	95.649618
3425.000000	95.641343
3424.000000	95.631585
3423.000000	95.620827
3422.000000	95.608955
3421.000000	95.594386
3420.000000	95.576603
3419.000000	95.558292
3418.000000	95.543130
3417.000000	95.532350
3416.000000	95.524485
3415.000000	95.517365
3414.000000	95.509391
3413.000000	95.499909
3412.000000	95.489283
3411.000000	95.477960
3410.000000	95.465490
3409.000000	95.451797
3408.000000	95.439361
3407.000000	95.431665
3406.000000	95.428726
3405.000000	95.426181
3404.000000	95.419860
3403.000000	95.409436
3402.000000	95.396618
3401.000000	95.382274
3400.000000	95.366774
3399.000000	95.351266
3398.000000	95.336776
3397.000000	95.323271
3396.000000	95.310790
3395.000000	95.299898
3394.000000	95.289786
3393.000000	95.277748
3392.000000	95.262321
3391.000000	95.245609
3390.000000	95.230908
3389.000000	95.219182
3388.000000	95.209159
3387.000000	95.199604
3386.000000	95.190070
3385.000000	95.180239
3384.000000	95.169729
3383.000000	95.157996
3382.000000	95.144010
3381.000000	95.127371
3380.000000	95.110112
3379.000000	95.095550
3378.000000	95.084385
3377.000000	95.073631
3376.000000	95.060446
3375.000000	95.045365
3374.000000	95.030516
3373.000000	95.016306
3372.000000	95.001699
3371.000000	94.986630
3370.000000	94.972292
3369.000000	94.959310
3368.000000	94.946885
3367.000000	94.933509
3366.000000	94.917882
3365.000000	94.899590
3364.000000	94.879522
3363.000000	94.859294
3362.000000	94.839912
3361.000000	94.821297
3360.000000	94.802912
3359.000000	94.783999
3358.000000	94.763598
3357.000000	94.741543
3356.000000	94.719338
3355.000000	94.698742
3354.000000	94.679623
3353.000000	94.660604
3352.000000	94.641676
3351.000000	94.624239
3350.000000	94.608555
3349.000000	94.593144
3348.000000	94.576903
3347.000000	94.559922
3346.000000	94.541751
3345.000000	94.520798
3344.000000	94.496452
3343.000000	94.470595
3342.000000	94.446285
3341.000000	94.425813
3340.000000	94.409809
3339.000000	94.396622
3338.000000	94.382662
3337.000000	94.365278
3336.000000	94.345515
3335.000000	94.326407
3334.000000	94.308654
3333.000000	94.290015
3332.000000	94.268978
3331.000000	94.246526
3330.000000	94.224160
3329.000000	94.202667
3328.000000	94.183201
3327.000000	94.167085
3326.000000	94.153618
3325.000000	94.140154
3324.000000	94.125205
3323.000000	94.109708
3322.000000	94.094695
3321.000000	94.080041
3320.000000	94.065819
3319.000000	94.052409
3318.000000	94.038539
3317.000000	94.021675
3316.000000	94.001486
3315.000000	93.980833
3314.000000	93.962182
3313.000000	93.945085
3312.000000	93.928094
3311.000000	93.910947
3310.000000	93.893909
3309.000000	93.877011
3308.000000	93.861145
3307.000000	93.847749
3306.000000	93.836090
3305.000000	93.822803
3304.000000	93.805356
3303.000000	93.784635
3302.000000	93.763554
3301.000000	93.744958
3300.000000	93.731379
3299.000000	93.724093
3298.000000	93.720866
3297.000000	93.716835
3296.000000	93.708983
3295.000000	93.698184
3294.000000	93.686014
3293.000000	93.672275
3292.000000	93.657160
3291.000000	93.643209
3290.000000	93.632924
3289.000000	93.626067
3288.000000	93.621159
3287.000000	93.618056
3286.000000	93.617146
3285.000000	93.617485
3284.000000	93.617456
3283.000000	93.616321
3282.000000	93.614027
3281.000000	93.610728
3280.000000	93.607961
3279.000000	93.608705
3278.000000	93.614901
3277.000000	93.625874
3276.000000	93.640115
3275.000000	93.657193
3274.000000	93.676327
3273.000000	93.694796
3272.000000	93.709488
3271.000000	93.719423
3270.000000	93.725748
3269.000000	93.730412
3268.000000	93.735812
3267.000000	93.744226
3266.000000	93.756130
3265.000000	93.769808
3264.000000	93.783710
3263.000000	93.798221
3262.000000	93.814454
3261.000000	93.832406
3260.000000	93.851173
3259.000000	93.869968
3258.000000	93.888462
3257.000000	93.907282
3256.000000	93.928426
3255.000000	93.953592
3254.000000	93.981480
3253.000000	94.008464
3252.000000	94.032479
3251.000000	94.054473
3250.000000	94.075489
3249.000000	94.094542
3248.000000	94.110677
3247.000000	94.125004
3246.000000	94.139206
3245.000000	94.153361
3244.000000	94.166661
3243.000000	94.179103
3242.000000	94.191214
3241.000000	94.203369
3240.000000	94.216473
3239.000000	94.232042
3238.000000	94.250437
3237.000000	94.270003
3236.000000	94.288809
3235.000000	94.306315
3234.000000	94.322611
3233.000000	94.337398
3232.000000	94.350456
3231.000000	94.361979
3230.000000	94.371741
3229.000000	94.379286
3228.000000	94.385695
3227.000000	94.393729
3226.000000	94.405191
3225.000000	94.419230
3224.000000	94.433667
3223.000000	94.446819
3222.000000	94.457799
3221.000000	94.466858
3220.000000	94.476024
3219.000000	94.487450
3218.000000	94.500197
3217.000000	94.510561
3216.000000	94.516524
3215.000000	94.520389
3214.000000	94.525925
3213.000000	94.534434
3212.000000	94.544717
3211.000000	94.555179
3210.000000	94.564551
3209.000000	94.571756
3208.000000	94.576962
3207.000000	94.582350
3206.000000	94.590728
3205.000000	94.603371
3204.000000	94.619216
3203.000000	94.635379
3202.000000	94.648770
3201.000000	94.658492
3200.000000	94.667047
3199.000000	94.677960
3198.000000	94.692089
3197.000000	94.707381
3196.000000	94.721729
3195.000000	94.734347
3194.000000	94.744788
3193.000000	94.753376
3192.000000	94.762955
3191.000000	94.777338
3190.000000	94.796752
3189.000000	94.816774
3188.000000	94.832992
3187.000000	94.845067
3186.000000	94.855749
3185.000000	94.867910
3184.000000	94.883361
3183.000000	94.902253
3182.000000	94.922138
3181.000000	94.939318
3180.000000	94.952407
3179.000000	94.963351
3178.000000	94.974376
3177.000000	94.985786
3176.000000	94.997783
3175.000000	95.012070
3174.000000	95.029942
3173.000000	95.050278
3172.000000	95.070792
3171.000000	95.089998
3170.000000	95.106982
3169.000000	95.121103
3168.000000	95.133380
3167.000000	95.146555
3166.000000	95.162199
3165.000000	95.178852
3164.000000	95.194290
3163.000000	95.208275
3162.000000	95.222007
3161.000000	95.236321
3160.000000	95.251855
3159.000000	95.269531
3158.000000	95.289123
3157.000000	95.308309
3156.000000	95.324747
3155.000000	95.338589
3154.000000	95.351882
3153.000000	95.366291
3152.000000	95.382157
3151.000000	95.398718
3150.000000	95.414186
3149.000000	95.426723
3148.000000	95.436390
3147.000000	95.445435
3146.000000	95.455916
