PE IR       SUBTECH     SPECTRUM    ASCII       PEDS        4.00        
   -1
3C-YYX-F019_1.ASC
23/09/07
11:08:02.00
23/09/07
11:30:09.00
uco
Sample 019 By uco Date Thursday, September 07 2023
450.000000
#HDR
-1
-1
#GR
cm-1
%T
1.0
0.0
4000.000000
-1.000000
3551
8
98.717067
81.718847
#DATA
4000.000000	98.644870
3999.000000	98.641488
3998.000000	98.637812
3997.000000	98.635714
3996.000000	98.635801
3995.000000	98.642283
3994.000000	98.643372
3993.000000	98.642193
3992.000000	98.638773
3991.000000	98.634030
3990.000000	98.629038
3989.000000	98.624496
3988.000000	98.620595
3987.000000	98.617094
3986.000000	98.613729
3985.000000	98.610969
3984.000000	98.610370
3983.000000	98.613615
3982.000000	98.620745
3981.000000	98.629473
3980.000000	98.636486
3979.000000	98.639488
3978.000000	98.638032
3977.000000	98.633020
3976.000000	98.626045
3975.000000	98.619221
3974.000000	98.614819
3973.000000	98.614302
3972.000000	98.617434
3971.000000	98.622386
3970.000000	98.626833
3969.000000	98.628987
3968.000000	98.628258
3967.000000	98.625355
3966.000000	98.621726
3965.000000	98.618709
3964.000000	98.616806
3963.000000	98.615572
3962.000000	98.614025
3961.000000	98.611211
3960.000000	98.606750
3959.000000	98.601368
3958.000000	98.596804
3957.000000	98.594607
3956.000000	98.594658
3955.000000	98.595102
3954.000000	98.594004
3953.000000	98.591042
3952.000000	98.587639
3951.000000	98.585782
3950.000000	98.586653
3949.000000	98.590086
3948.000000	98.594935
3947.000000	98.599644
3946.000000	98.602858
3945.000000	98.604000
3944.000000	98.603701
3943.000000	98.603342
3942.000000	98.603820
3941.000000	98.605237
3940.000000	98.607028
3939.000000	98.608034
3938.000000	98.606945
3937.000000	98.602963
3936.000000	98.596638
3935.000000	98.590359
3934.000000	98.587737
3933.000000	98.591636
3932.000000	98.601536
3931.000000	98.613062
3930.000000	98.620856
3929.000000	98.622089
3928.000000	98.617605
3927.000000	98.610515
3926.000000	98.604064
3925.000000	98.599871
3924.000000	98.597604
3923.000000	98.596447
3922.000000	98.596053
3921.000000	98.595671
3920.000000	98.593396
3919.000000	98.587414
3918.000000	98.578679
3917.000000	98.571623
3916.000000	98.570524
3915.000000	98.575291
3914.000000	98.581647
3913.000000	98.585137
3912.000000	98.584163
3911.000000	98.580799
3910.000000	98.578961
3909.000000	98.581376
3908.000000	98.587446
3907.000000	98.593396
3906.000000	98.594847
3905.000000	98.590279
3904.000000	98.583058
3903.000000	98.579342
3902.000000	98.582543
3901.000000	98.589901
3900.000000	98.595779
3899.000000	98.597036
3898.000000	98.595125
3897.000000	98.593477
3896.000000	98.593807
3895.000000	98.595763
3894.000000	98.598289
3893.000000	98.600416
3892.000000	98.601102
3891.000000	98.600047
3890.000000	98.598359
3889.000000	98.596331
3888.000000	98.592198
3887.000000	98.586086
3886.000000	98.582524
3885.000000	98.585757
3884.000000	98.594497
3883.000000	98.602860
3882.000000	98.605108
3881.000000	98.599050
3880.000000	98.587238
3879.000000	98.576357
3878.000000	98.572110
3877.000000	98.574775
3876.000000	98.582074
3875.000000	98.592549
3874.000000	98.603901
3873.000000	98.611784
3872.000000	98.612815
3871.000000	98.607878
3870.000000	98.601834
3869.000000	98.599437
3868.000000	98.601511
3867.000000	98.604893
3866.000000	98.606523
3865.000000	98.606443
3864.000000	98.605648
3863.000000	98.604096
3862.000000	98.601603
3861.000000	98.599113
3860.000000	98.598139
3859.000000	98.599620
3858.000000	98.602672
3857.000000	98.603693
3856.000000	98.597863
3855.000000	98.583677
3854.000000	98.566643
3853.000000	98.554310
3852.000000	98.551527
3851.000000	98.558027
3850.000000	98.568288
3849.000000	98.577770
3848.000000	98.585536
3847.000000	98.591975
3846.000000	98.597185
3845.000000	98.600939
3844.000000	98.603693
3843.000000	98.607481
3842.000000	98.614658
3841.000000	98.625988
3840.000000	98.639389
3839.000000	98.650158
3838.000000	98.653771
3837.000000	98.650027
3836.000000	98.642753
3835.000000	98.634778
3834.000000	98.625403
3833.000000	98.613262
3832.000000	98.600063
3831.000000	98.590318
3830.000000	98.587440
3829.000000	98.590739
3828.000000	98.596694
3827.000000	98.602356
3826.000000	98.606816
3825.000000	98.610192
3824.000000	98.612171
3823.000000	98.613109
3822.000000	98.614489
3821.000000	98.615185
3820.000000	98.612092
3819.000000	98.605829
3818.000000	98.598545
3817.000000	98.591522
3816.000000	98.586502
3815.000000	98.583336
3814.000000	98.580233
3813.000000	98.576455
3812.000000	98.573159
3811.000000	98.572533
3810.000000	98.575481
3809.000000	98.580782
3808.000000	98.586765
3807.000000	98.592629
3806.000000	98.598373
3805.000000	98.604399
3804.000000	98.610204
3803.000000	98.615357
3802.000000	98.619902
3801.000000	98.622006
3800.000000	98.620382
3799.000000	98.617147
3798.000000	98.613444
3797.000000	98.607831
3796.000000	98.598462
3795.000000	98.585543
3794.000000	98.572306
3793.000000	98.562836
3792.000000	98.559740
3791.000000	98.562879
3790.000000	98.569275
3789.000000	98.575113
3788.000000	98.578842
3787.000000	98.581767
3786.000000	98.585675
3785.000000	98.590243
3784.000000	98.593229
3783.000000	98.593214
3782.000000	98.591145
3781.000000	98.589269
3780.000000	98.588724
3779.000000	98.588336
3778.000000	98.586552
3777.000000	98.584052
3776.000000	98.582757
3775.000000	98.584044
3774.000000	98.587617
3773.000000	98.591309
3772.000000	98.592757
3771.000000	98.592183
3770.000000	98.592331
3769.000000	98.595112
3768.000000	98.599661
3767.000000	98.603451
3766.000000	98.604865
3765.000000	98.604334
3764.000000	98.602958
3763.000000	98.600761
3762.000000	98.597583
3761.000000	98.595036
3760.000000	98.595017
3759.000000	98.596886
3758.000000	98.598942
3757.000000	98.601914
3756.000000	98.607489
3755.000000	98.615403
3754.000000	98.624015
3753.000000	98.631826
3752.000000	98.636211
3751.000000	98.632078
3750.000000	98.618375
3749.000000	98.604174
3748.000000	98.598075
3747.000000	98.599020
3746.000000	98.602430
3745.000000	98.606279
3744.000000	98.609767
3743.000000	98.613785
3742.000000	98.618494
3741.000000	98.620525
3740.000000	98.618072
3739.000000	98.613260
3738.000000	98.610658
3737.000000	98.615739
3736.000000	98.630530
3735.000000	98.648130
3734.000000	98.658185
3733.000000	98.658211
3732.000000	98.653432
3731.000000	98.648744
3730.000000	98.644152
3729.000000	98.636881
3728.000000	98.626742
3727.000000	98.618113
3726.000000	98.615993
3725.000000	98.620662
3724.000000	98.627737
3723.000000	98.632128
3722.000000	98.630954
3721.000000	98.625266
3720.000000	98.619076
3719.000000	98.615903
3718.000000	98.616320
3717.000000	98.618339
3716.000000	98.619464
3715.000000	98.618339
3714.000000	98.615157
3713.000000	98.611503
3712.000000	98.609393
3711.000000	98.609530
3710.000000	98.611287
3709.000000	98.613680
3708.000000	98.616027
3707.000000	98.618062
3706.000000	98.619721
3705.000000	98.621113
3704.000000	98.622062
3703.000000	98.621885
3702.000000	98.620049
3701.000000	98.617700
3700.000000	98.617483
3699.000000	98.620057
3698.000000	98.622720
3697.000000	98.622322
3696.000000	98.617735
3695.000000	98.609972
3694.000000	98.602109
3693.000000	98.599420
3692.000000	98.607195
3691.000000	98.625190
3690.000000	98.643188
3689.000000	98.646945
3688.000000	98.634223
3687.000000	98.617064
3686.000000	98.605241
3685.000000	98.599213
3684.000000	98.595854
3683.000000	98.592844
3682.000000	98.589480
3681.000000	98.586235
3680.000000	98.584285
3679.000000	98.583767
3678.000000	98.583240
3677.000000	98.581971
3676.000000	98.579985
3675.000000	98.574121
3674.000000	98.563961
3673.000000	98.554477
3672.000000	98.547930
3671.000000	98.544859
3670.000000	98.544200
3669.000000	98.540166
3668.000000	98.530254
3667.000000	98.518061
3666.000000	98.506156
3665.000000	98.495294
3664.000000	98.486237
3663.000000	98.479440
3662.000000	98.474442
3661.000000	98.470347
3660.000000	98.466972
3659.000000	98.464657
3658.000000	98.463703
3657.000000	98.463921
3656.000000	98.464636
3655.000000	98.465397
3654.000000	98.465223
3653.000000	98.461642
3652.000000	98.453508
3651.000000	98.443395
3650.000000	98.434948
3649.000000	98.428723
3648.000000	98.423611
3647.000000	98.419588
3646.000000	98.416689
3645.000000	98.413605
3644.000000	98.408607
3643.000000	98.401572
3642.000000	98.394324
3641.000000	98.388692
3640.000000	98.384934
3639.000000	98.381948
3638.000000	98.377836
3637.000000	98.370580
3636.000000	98.359584
3635.000000	98.347003
3634.000000	98.336470
3633.000000	98.329027
3632.000000	98.321444
3631.000000	98.310280
3630.000000	98.297025
3629.000000	98.286124
3628.000000	98.278574
3627.000000	98.273844
3626.000000	98.270658
3625.000000	98.266244
3624.000000	98.260289
3623.000000	98.254699
3622.000000	98.250391
3621.000000	98.246487
3620.000000	98.240985
3619.000000	98.231648
3618.000000	98.218784
3617.000000	98.205925
3616.000000	98.195348
3615.000000	98.185883
3614.000000	98.174746
3613.000000	98.159671
3612.000000	98.140931
3611.000000	98.121176
3610.000000	98.102661
3609.000000	98.086792
3608.000000	98.075059
3607.000000	98.068590
3606.000000	98.067235
3605.000000	98.069324
3604.000000	98.072888
3603.000000	98.076345
3602.000000	98.077847
3601.000000	98.074917
3600.000000	98.065792
3599.000000	98.051082
3598.000000	98.033654
3597.000000	98.016494
3596.000000	98.001131
3595.000000	97.987568
3594.000000	97.975078
3593.000000	97.963249
3592.000000	97.951948
3591.000000	97.940856
3590.000000	97.930073
3589.000000	97.920940
3588.000000	97.914113
3587.000000	97.907525
3586.000000	97.899274
3585.000000	97.889900
3584.000000	97.879742
3583.000000	97.867718
3582.000000	97.853040
3581.000000	97.836573
3580.000000	97.820589
3579.000000	97.807450
3578.000000	97.798049
3577.000000	97.791356
3576.000000	97.785004
3575.000000	97.776326
3574.000000	97.763358
3573.000000	97.745983
3572.000000	97.726566
3571.000000	97.708772
3570.000000	97.695517
3569.000000	97.687578
3568.000000	97.682665
3567.000000	97.675918
3566.000000	97.664236
3565.000000	97.649027
3564.000000	97.632622
3563.000000	97.615608
3562.000000	97.598406
3561.000000	97.582463
3560.000000	97.569270
3559.000000	97.558876
3558.000000	97.549954
3557.000000	97.541049
3556.000000	97.531318
3555.000000	97.520068
3554.000000	97.506216
3553.000000	97.488981
3552.000000	97.469529
3551.000000	97.450865
3550.000000	97.435095
3549.000000	97.421749
3548.000000	97.409356
3547.000000	97.397999
3546.000000	97.389326
3545.000000	97.384040
3544.000000	97.379850
3543.000000	97.372691
3542.000000	97.359691
3541.000000	97.341292
3540.000000	97.321151
3539.000000	97.303892
3538.000000	97.291897
3537.000000	97.283293
3536.000000	97.273166
3535.000000	97.257777
3534.000000	97.237810
3533.000000	97.217653
3532.000000	97.201951
3531.000000	97.192495
3530.000000	97.187263
3529.000000	97.182278
3528.000000	97.175030
3527.000000	97.166246
3526.000000	97.158013
3525.000000	97.150488
3524.000000	97.141086
3523.000000	97.127272
3522.000000	97.109864
3521.000000	97.092778
3520.000000	97.079391
3519.000000	97.069549
3518.000000	97.060081
3517.000000	97.047981
3516.000000	97.033182
3515.000000	97.018407
3514.000000	97.006320
3513.000000	96.996743
3512.000000	96.986631
3511.000000	96.972889
3510.000000	96.955476
3509.000000	96.937918
3508.000000	96.924520
3507.000000	96.916938
3506.000000	96.913355
3505.000000	96.910162
3504.000000	96.904099
3503.000000	96.893892
3502.000000	96.880799
3501.000000	96.867223
3500.000000	96.854290
3499.000000	96.841205
3498.000000	96.827146
3497.000000	96.813115
3496.000000	96.800962
3495.000000	96.790665
3494.000000	96.779763
3493.000000	96.766061
3492.000000	96.750201
3491.000000	96.734989
3490.000000	96.722728
3489.000000	96.713674
3488.000000	96.706631
3487.000000	96.700037
3486.000000	96.692400
3485.000000	96.682478
3484.000000	96.669789
3483.000000	96.655234
3482.000000	96.640928
3481.000000	96.628807
3480.000000	96.619132
3479.000000	96.610506
3478.000000	96.601681
3477.000000	96.592951
3476.000000	96.585309
3475.000000	96.578404
3474.000000	96.570282
3473.000000	96.559448
3472.000000	96.546265
3471.000000	96.532089
3470.000000	96.518086
3469.000000	96.505532
3468.000000	96.496151
3467.000000	96.490766
3466.000000	96.487940
3465.000000	96.485211
3464.000000	96.481482
3463.000000	96.477167
3462.000000	96.471975
3461.000000	96.463841
3460.000000	96.450829
3459.000000	96.433666
3458.000000	96.415837
3457.000000	96.401121
3456.000000	96.390996
3455.000000	96.384010
3454.000000	96.377477
3453.000000	96.370031
3452.000000	96.362635
3451.000000	96.357394
3450.000000	96.355447
3449.000000	96.355687
3448.000000	96.354850
3447.000000	96.349165
3446.000000	96.337180
3445.000000	96.321267
3444.000000	96.305670
3443.000000	96.293195
3442.000000	96.284131
3441.000000	96.277746
3440.000000	96.273557
3439.000000	96.270589
3438.000000	96.266568
3437.000000	96.259270
3436.000000	96.248606
3435.000000	96.236597
3434.000000	96.225359
3433.000000	96.215681
3432.000000	96.206954
3431.000000	96.197698
3430.000000	96.186508
3429.000000	96.173444
3428.000000	96.160405
3427.000000	96.149320
3426.000000	96.140269
3425.000000	96.132087
3424.000000	96.124273
3423.000000	96.116998
3422.000000	96.109320
3421.000000	96.099087
3420.000000	96.085416
3419.000000	96.070418
3418.000000	96.057539
3417.000000	96.048676
3416.000000	96.043061
3415.000000	96.038082
3414.000000	96.030949
3413.000000	96.020436
3412.000000	96.007576
3411.000000	95.994377
3410.000000	95.981940
3409.000000	95.970484
3408.000000	95.961051
3407.000000	95.955677
3406.000000	95.954935
3405.000000	95.955936
3404.000000	95.953790
3403.000000	95.945346
3402.000000	95.931431
3401.000000	95.915787
3400.000000	95.901916
3399.000000	95.890391
3398.000000	95.878710
3397.000000	95.864063
3396.000000	95.846582
3395.000000	95.829602
3394.000000	95.816514
3393.000000	95.807744
3392.000000	95.801006
3391.000000	95.794014
3390.000000	95.786365
3389.000000	95.779052
3388.000000	95.772978
3387.000000	95.768208
3386.000000	95.764067
3385.000000	95.759315
3384.000000	95.752157
3383.000000	95.740759
3382.000000	95.724674
3381.000000	95.706167
3380.000000	95.689549
3379.000000	95.678161
3378.000000	95.671607
3377.000000	95.666032
3376.000000	95.657164
3375.000000	95.643150
3374.000000	95.625240
3373.000000	95.606708
3372.000000	95.591107
3371.000000	95.580401
3370.000000	95.573749
3369.000000	95.568172
3368.000000	95.560865
3367.000000	95.551118
3366.000000	95.539996
3365.000000	95.528395
3364.000000	95.515628
3363.000000	95.499962
3362.000000	95.480509
3361.000000	95.458598
3360.000000	95.437159
3359.000000	95.418507
3358.000000	95.402641
3357.000000	95.387656
3356.000000	95.371602
3355.000000	95.354027
3354.000000	95.336161
3353.000000	95.319894
3352.000000	95.306260
3351.000000	95.294393
3350.000000	95.282002
3349.000000	95.267248
3348.000000	95.250285
3347.000000	95.232833
3346.000000	95.216255
3345.000000	95.200173
3344.000000	95.182879
3343.000000	95.163119
3342.000000	95.141581
3341.000000	95.120533
3340.000000	95.101798
3339.000000	95.085270
3338.000000	95.069763
3337.000000	95.054885
3336.000000	95.041066
3335.000000	95.027637
3334.000000	95.012199
3333.000000	94.992888
3332.000000	94.970808
3331.000000	94.949563
3330.000000	94.932611
3329.000000	94.921113
3328.000000	94.913400
3327.000000	94.905915
3326.000000	94.895537
3325.000000	94.881937
3324.000000	94.867439
3323.000000	94.854080
3322.000000	94.841539
3321.000000	94.828456
3320.000000	94.814561
3319.000000	94.800354
3318.000000	94.785459
3317.000000	94.768934
3316.000000	94.751104
3315.000000	94.733812
3314.000000	94.718671
3313.000000	94.705941
3312.000000	94.694901
3311.000000	94.684245
3310.000000	94.672322
3309.000000	94.658297
3308.000000	94.643392
3307.000000	94.629835
3306.000000	94.618142
3305.000000	94.606283
3304.000000	94.591935
3303.000000	94.575119
3302.000000	94.558456
3301.000000	94.545208
3300.000000	94.536927
3299.000000	94.532329
3298.000000	94.528377
3297.000000	94.522884
3296.000000	94.515953
3295.000000	94.508548
3294.000000	94.500372
3293.000000	94.490472
3292.000000	94.479584
3291.000000	94.470296
3290.000000	94.464415
3289.000000	94.461076
3288.000000	94.457950
3287.000000	94.453604
3286.000000	94.448366
3285.000000	94.443566
3284.000000	94.440128
3283.000000	94.437468
3282.000000	94.433999
3281.000000	94.429566
3280.000000	94.427223
3279.000000	94.431087
3278.000000	94.442049
3277.000000	94.456448
3276.000000	94.469573
3275.000000	94.479877
3274.000000	94.489164
3273.000000	94.499647
3272.000000	94.511488
3271.000000	94.522619
3270.000000	94.530371
3269.000000	94.533737
3268.000000	94.534627
3267.000000	94.536639
3266.000000	94.542193
3265.000000	94.551078
3264.000000	94.561886
3263.000000	94.574045
3262.000000	94.587929
3261.000000	94.603534
3260.000000	94.619883
3259.000000	94.635778
3258.000000	94.651047
3257.000000	94.667270
3256.000000	94.686998
3255.000000	94.711421
3254.000000	94.738344
3253.000000	94.763254
3252.000000	94.782987
3251.000000	94.798090
3250.000000	94.811483
3249.000000	94.825424
3248.000000	94.840180
3247.000000	94.854672
3246.000000	94.867398
3245.000000	94.877059
3244.000000	94.883403
3243.000000	94.887822
3242.000000	94.892555
3241.000000	94.899072
3240.000000	94.907587
3239.000000	94.918288
3238.000000	94.932450
3237.000000	94.951524
3236.000000	94.974835
3235.000000	94.998713
3234.000000	95.018575
3233.000000	95.031943
3232.000000	95.039215
3231.000000	95.041974
3230.000000	95.041623
3229.000000	95.039933
3228.000000	95.039669
3227.000000	95.043272
3226.000000	95.051127
3225.000000	95.061997
3224.000000	95.074832
3223.000000	95.089226
3222.000000	95.104384
3221.000000	95.118902
3220.000000	95.131880
3219.000000	95.143231
3218.000000	95.152543
3217.000000	95.158801
3216.000000	95.162081
3215.000000	95.164819
3214.000000	95.170169
3213.000000	95.178975
3212.000000	95.189053
3211.000000	95.197616
3210.000000	95.204080
3209.000000	95.210112
3208.000000	95.217384
3207.000000	95.225961
3206.000000	95.235265
3205.000000	95.245817
3204.000000	95.258720
3203.000000	95.273214
3202.000000	95.286127
3201.000000	95.294805
3200.000000	95.300059
3199.000000	95.305329
3198.000000	95.313262
3197.000000	95.324057
3196.000000	95.336396
3195.000000	95.348654
3194.000000	95.359370
3193.000000	95.368207
3192.000000	95.377079
3191.000000	95.389142
3190.000000	95.405909
3189.000000	95.425839
3188.000000	95.445853
3187.000000	95.463518
3186.000000	95.477862
3185.000000	95.489494
3184.000000	95.500511
3183.000000	95.513148
3182.000000	95.527545
3181.000000	95.541502
3180.000000	95.553143
3179.000000	95.563108
3178.000000	95.573562
3177.000000	95.585677
3176.000000	95.599137
3175.000000	95.613437
3174.000000	95.628466
3173.000000	95.643847
3172.000000	95.658697
3171.000000	95.672259
3170.000000	95.684308
3169.000000	95.695099
3168.000000	95.705494
3167.000000	95.716955
3166.000000	95.730560
3165.000000	95.745679
3164.000000	95.760234
3163.000000	95.772710
3162.000000	95.783821
3161.000000	95.795964
3160.000000	95.811014
3159.000000	95.828568
3158.000000	95.846087
3157.000000	95.860675
3156.000000	95.871008
3155.000000	95.878086
3154.000000	95.884521
3153.000000	95.893091
3152.000000	95.905271
3151.000000	95.920488
3150.000000	95.936617
3149.000000	95.951636
3148.000000	95.964930
3147.000000	95.976908
3146.000000	95.987678
