PE IR       SUBTECH     SPECTRUM    ASCII       PEDS        4.00        
   -1
3C-YYX-F011_1.ASC
23/09/07
11:01:36.00
23/09/07
11:30:09.00
uco
Sample 011 By uco Date Thursday, September 07 2023
450.000000
#HDR
-1
-1
#GR
cm-1
%T
1.0
0.0
4000.000000
-1.000000
3551
8
99.063431
84.897271
#DATA
4000.000000	98.946685
3999.000000	98.945806
3998.000000	98.943861
3997.000000	98.942408
3996.000000	98.941705
3995.000000	98.940860
3994.000000	98.939006
3993.000000	98.936386
3992.000000	98.934181
3991.000000	98.933269
3990.000000	98.933191
3989.000000	98.932598
3988.000000	98.930782
3987.000000	98.928563
3986.000000	98.927442
3985.000000	98.928013
3984.000000	98.929614
3983.000000	98.931372
3982.000000	98.933090
3981.000000	98.934834
3980.000000	98.936041
3979.000000	98.935496
3978.000000	98.932299
3977.000000	98.926714
3976.000000	98.920157
3975.000000	98.914581
3974.000000	98.911642
3973.000000	98.911988
3972.000000	98.914948
3971.000000	98.918803
3970.000000	98.921613
3969.000000	98.921959
3968.000000	98.919425
3967.000000	98.914730
3966.000000	98.909440
3965.000000	98.905387
3964.000000	98.903888
3963.000000	98.905234
3962.000000	98.908695
3961.000000	98.912849
3960.000000	98.915998
3959.000000	98.916588
3958.000000	98.913856
3957.000000	98.908387
3956.000000	98.902028
3955.000000	98.896905
3954.000000	98.894124
3953.000000	98.893258
3952.000000	98.892992
3951.000000	98.892357
3950.000000	98.891596
3949.000000	98.891856
3948.000000	98.893845
3947.000000	98.896768
3946.000000	98.898772
3945.000000	98.898522
3944.000000	98.896579
3943.000000	98.895491
3942.000000	98.897947
3941.000000	98.904649
3940.000000	98.913475
3939.000000	98.920266
3938.000000	98.920964
3937.000000	98.913870
3936.000000	98.901075
3935.000000	98.887786
3934.000000	98.879795
3933.000000	98.880695
3932.000000	98.889765
3931.000000	98.902282
3930.000000	98.912558
3929.000000	98.917129
3928.000000	98.915970
3927.000000	98.911454
3926.000000	98.906427
3925.000000	98.902507
3924.000000	98.899699
3923.000000	98.897563
3922.000000	98.896099
3921.000000	98.895153
3920.000000	98.893921
3919.000000	98.891821
3918.000000	98.889886
3917.000000	98.890402
3916.000000	98.894370
3915.000000	98.899810
3914.000000	98.903008
3913.000000	98.901363
3912.000000	98.895046
3911.000000	98.886741
3910.000000	98.879700
3909.000000	98.875498
3908.000000	98.873648
3907.000000	98.872958
3906.000000	98.873244
3905.000000	98.875764
3904.000000	98.881563
3903.000000	98.889583
3902.000000	98.897157
3901.000000	98.902047
3900.000000	98.903868
3899.000000	98.903755
3898.000000	98.903143
3897.000000	98.902982
3896.000000	98.903378
3895.000000	98.903856
3894.000000	98.904152
3893.000000	98.904544
3892.000000	98.905364
3891.000000	98.906106
3890.000000	98.905784
3889.000000	98.903776
3888.000000	98.899883
3887.000000	98.895199
3886.000000	98.892478
3885.000000	98.893498
3884.000000	98.897221
3883.000000	98.901031
3882.000000	98.902581
3881.000000	98.900769
3880.000000	98.896059
3879.000000	98.890516
3878.000000	98.886852
3877.000000	98.886463
3876.000000	98.889127
3875.000000	98.893614
3874.000000	98.897404
3873.000000	98.897808
3872.000000	98.894804
3871.000000	98.891803
3870.000000	98.892401
3869.000000	98.896372
3868.000000	98.900740
3867.000000	98.902994
3866.000000	98.902213
3865.000000	98.899535
3864.000000	98.897299
3863.000000	98.896586
3862.000000	98.895952
3861.000000	98.893290
3860.000000	98.888421
3859.000000	98.882752
3858.000000	98.876948
3857.000000	98.869472
3856.000000	98.858928
3855.000000	98.848139
3854.000000	98.844537
3853.000000	98.851456
3852.000000	98.863146
3851.000000	98.873981
3850.000000	98.881960
3849.000000	98.886290
3848.000000	98.887544
3847.000000	98.886998
3846.000000	98.885575
3845.000000	98.883496
3844.000000	98.880583
3843.000000	98.876778
3842.000000	98.872877
3841.000000	98.871247
3840.000000	98.874842
3839.000000	98.884172
3838.000000	98.895372
3837.000000	98.903210
3836.000000	98.906492
3835.000000	98.907832
3834.000000	98.909590
3833.000000	98.911861
3832.000000	98.913024
3831.000000	98.911021
3830.000000	98.905062
3829.000000	98.895985
3828.000000	98.885745
3827.000000	98.876915
3826.000000	98.871510
3825.000000	98.870067
3824.000000	98.872378
3823.000000	98.879132
3822.000000	98.890624
3821.000000	98.902178
3820.000000	98.906042
3819.000000	98.901071
3818.000000	98.892819
3817.000000	98.886313
3816.000000	98.882560
3815.000000	98.878893
3814.000000	98.874269
3813.000000	98.871026
3812.000000	98.871078
3811.000000	98.874433
3810.000000	98.879878
3809.000000	98.886053
3808.000000	98.892150
3807.000000	98.897123
3806.000000	98.899395
3805.000000	98.898529
3804.000000	98.895861
3803.000000	98.894692
3802.000000	98.898892
3801.000000	98.906793
3800.000000	98.911606
3799.000000	98.910729
3798.000000	98.906229
3797.000000	98.900868
3796.000000	98.895933
3795.000000	98.890534
3794.000000	98.883779
3793.000000	98.876685
3792.000000	98.871576
3791.000000	98.870270
3790.000000	98.872604
3789.000000	98.876294
3788.000000	98.878764
3787.000000	98.878942
3786.000000	98.877744
3785.000000	98.877133
3784.000000	98.878535
3783.000000	98.882154
3782.000000	98.887611
3781.000000	98.894138
3780.000000	98.899784
3779.000000	98.901307
3778.000000	98.896825
3777.000000	98.888632
3776.000000	98.881583
3775.000000	98.879198
3774.000000	98.881470
3773.000000	98.885523
3772.000000	98.888234
3771.000000	98.888767
3770.000000	98.888712
3769.000000	98.889560
3768.000000	98.891197
3767.000000	98.892561
3766.000000	98.892945
3765.000000	98.892363
3764.000000	98.891122
3763.000000	98.889283
3762.000000	98.886741
3761.000000	98.883533
3760.000000	98.880134
3759.000000	98.877548
3758.000000	98.877188
3757.000000	98.880001
3756.000000	98.885265
3755.000000	98.890854
3754.000000	98.895139
3753.000000	98.898260
3752.000000	98.900958
3751.000000	98.901961
3750.000000	98.898861
3749.000000	98.893188
3748.000000	98.889569
3747.000000	98.890359
3746.000000	98.895662
3745.000000	98.903544
3744.000000	98.908384
3743.000000	98.908259
3742.000000	98.907611
3741.000000	98.908008
3740.000000	98.907930
3739.000000	98.908121
3738.000000	98.912236
3737.000000	98.923976
3736.000000	98.942848
3735.000000	98.961446
3734.000000	98.970198
3733.000000	98.966006
3732.000000	98.953635
3731.000000	98.940453
3730.000000	98.931267
3729.000000	98.926755
3728.000000	98.925300
3727.000000	98.924982
3726.000000	98.924168
3725.000000	98.922208
3724.000000	98.919770
3723.000000	98.917422
3722.000000	98.914272
3721.000000	98.909561
3720.000000	98.904697
3719.000000	98.902050
3718.000000	98.902384
3717.000000	98.904246
3716.000000	98.905901
3715.000000	98.906897
3714.000000	98.907530
3713.000000	98.908654
3712.000000	98.911691
3711.000000	98.917253
3710.000000	98.923187
3709.000000	98.926399
3708.000000	98.926196
3707.000000	98.924279
3706.000000	98.922860
3705.000000	98.923000
3704.000000	98.924396
3703.000000	98.925610
3702.000000	98.925371
3701.000000	98.923627
3700.000000	98.921624
3699.000000	98.919883
3698.000000	98.917053
3697.000000	98.911383
3696.000000	98.903045
3695.000000	98.894714
3694.000000	98.889799
3693.000000	98.890948
3692.000000	98.899172
3691.000000	98.913281
3690.000000	98.927816
3689.000000	98.933530
3688.000000	98.925226
3687.000000	98.908640
3686.000000	98.893487
3685.000000	98.884297
3684.000000	98.880422
3683.000000	98.879132
3682.000000	98.878308
3681.000000	98.877195
3680.000000	98.875851
3679.000000	98.873700
3678.000000	98.869980
3677.000000	98.865864
3676.000000	98.864191
3675.000000	98.864324
3674.000000	98.862656
3673.000000	98.859246
3672.000000	98.856100
3671.000000	98.854318
3670.000000	98.852355
3669.000000	98.845805
3668.000000	98.834068
3667.000000	98.821849
3666.000000	98.812954
3665.000000	98.808345
3664.000000	98.807131
3663.000000	98.807335
3662.000000	98.806791
3661.000000	98.804245
3660.000000	98.800102
3659.000000	98.795947
3658.000000	98.793285
3657.000000	98.792396
3656.000000	98.791988
3655.000000	98.791000
3654.000000	98.789600
3653.000000	98.787476
3652.000000	98.783449
3651.000000	98.777155
3650.000000	98.770494
3649.000000	98.767097
3648.000000	98.768258
3647.000000	98.769965
3646.000000	98.766770
3645.000000	98.756710
3644.000000	98.742028
3643.000000	98.727174
3642.000000	98.715830
3641.000000	98.708675
3640.000000	98.704157
3639.000000	98.700997
3638.000000	98.698708
3637.000000	98.696391
3636.000000	98.692671
3635.000000	98.687216
3634.000000	98.681368
3633.000000	98.676292
3632.000000	98.671200
3631.000000	98.664385
3630.000000	98.655677
3629.000000	98.646768
3628.000000	98.638977
3627.000000	98.632851
3626.000000	98.628422
3625.000000	98.624225
3624.000000	98.619328
3623.000000	98.614084
3622.000000	98.608630
3621.000000	98.602447
3620.000000	98.594975
3619.000000	98.585793
3618.000000	98.574838
3617.000000	98.563195
3616.000000	98.552648
3615.000000	98.544182
3614.000000	98.536932
3613.000000	98.527919
3612.000000	98.514237
3611.000000	98.495942
3610.000000	98.475934
3609.000000	98.458854
3608.000000	98.448972
3607.000000	98.446694
3606.000000	98.448396
3605.000000	98.449844
3604.000000	98.449103
3603.000000	98.446217
3602.000000	98.441915
3601.000000	98.436908
3600.000000	98.431839
3599.000000	98.426827
3598.000000	98.420681
3597.000000	98.411364
3596.000000	98.397819
3595.000000	98.381754
3594.000000	98.366582
3593.000000	98.355033
3592.000000	98.347486
3591.000000	98.342906
3590.000000	98.339947
3589.000000	98.337266
3588.000000	98.332670
3587.000000	98.323966
3586.000000	98.311804
3585.000000	98.299454
3584.000000	98.289095
3583.000000	98.279940
3582.000000	98.270017
3581.000000	98.258525
3580.000000	98.246545
3579.000000	98.235677
3578.000000	98.226216
3577.000000	98.217352
3576.000000	98.208280
3575.000000	98.198608
3574.000000	98.187467
3573.000000	98.173588
3572.000000	98.156546
3571.000000	98.137692
3570.000000	98.119775
3569.000000	98.106245
3568.000000	98.099750
3567.000000	98.099236
3566.000000	98.099248
3565.000000	98.094740
3564.000000	98.084791
3563.000000	98.071035
3562.000000	98.055651
3561.000000	98.040880
3560.000000	98.028383
3559.000000	98.017814
3558.000000	98.006570
3557.000000	97.992037
3556.000000	97.974352
3555.000000	97.956585
3554.000000	97.942207
3553.000000	97.932447
3552.000000	97.926034
3551.000000	97.920829
3550.000000	97.915211
3549.000000	97.908411
3548.000000	97.900507
3547.000000	97.892269
3546.000000	97.884362
3545.000000	97.876612
3544.000000	97.868194
3543.000000	97.858131
3542.000000	97.845431
3541.000000	97.829776
3540.000000	97.812668
3539.000000	97.797188
3538.000000	97.785700
3537.000000	97.777685
3536.000000	97.770123
3535.000000	97.760182
3534.000000	97.747119
3533.000000	97.732222
3532.000000	97.717829
3531.000000	97.706232
3530.000000	97.698362
3529.000000	97.693195
3528.000000	97.688995
3527.000000	97.684923
3526.000000	97.680693
3525.000000	97.674975
3524.000000	97.665525
3523.000000	97.651622
3522.000000	97.635711
3521.000000	97.621791
3520.000000	97.612288
3519.000000	97.606439
3518.000000	97.601033
3517.000000	97.592503
3516.000000	97.579068
3515.000000	97.561647
3514.000000	97.543026
3513.000000	97.526091
3512.000000	97.512504
3511.000000	97.502529
3510.000000	97.495384
3509.000000	97.489696
3508.000000	97.484190
3507.000000	97.478443
3506.000000	97.472905
3505.000000	97.467935
3504.000000	97.462830
3503.000000	97.456055
3502.000000	97.446778
3501.000000	97.435862
3500.000000	97.424926
3499.000000	97.414918
3498.000000	97.405925
3497.000000	97.397725
3496.000000	97.389686
3495.000000	97.380350
3494.000000	97.368235
3493.000000	97.353657
3492.000000	97.339143
3491.000000	97.327440
3490.000000	97.319250
3489.000000	97.313086
3488.000000	97.306881
3487.000000	97.299102
3486.000000	97.288734
3485.000000	97.275294
3484.000000	97.259469
3483.000000	97.243565
3482.000000	97.230773
3481.000000	97.223363
3480.000000	97.221112
3479.000000	97.221243
3478.000000	97.220187
3477.000000	97.215842
3476.000000	97.208543
3475.000000	97.199992
3474.000000	97.191461
3473.000000	97.183171
3472.000000	97.174847
3471.000000	97.166208
3470.000000	97.157151
3469.000000	97.148015
3468.000000	97.139521
3467.000000	97.131916
3466.000000	97.124506
3465.000000	97.116671
3464.000000	97.108966
3463.000000	97.102288
3462.000000	97.096011
3461.000000	97.087967
3460.000000	97.076584
3459.000000	97.062371
3458.000000	97.047143
3457.000000	97.032601
3456.000000	97.020063
3455.000000	97.010758
3454.000000	97.005428
3453.000000	97.003760
3452.000000	97.004484
3451.000000	97.006098
3450.000000	97.007358
3449.000000	97.007169
3448.000000	97.004360
3447.000000	96.997891
3446.000000	96.987514
3445.000000	96.974249
3444.000000	96.960003
3443.000000	96.946727
3442.000000	96.935927
3441.000000	96.928496
3440.000000	96.924311
3439.000000	96.921770
3438.000000	96.918312
3437.000000	96.912170
3436.000000	96.903570
3435.000000	96.893970
3434.000000	96.884475
3433.000000	96.875589
3432.000000	96.867923
3431.000000	96.862087
3430.000000	96.857784
3429.000000	96.853785
3428.000000	96.848998
3427.000000	96.843011
3426.000000	96.835735
3425.000000	96.827320
3424.000000	96.818392
3423.000000	96.809444
3422.000000	96.799818
3421.000000	96.788387
3420.000000	96.775760
3419.000000	96.764771
3418.000000	96.757808
3417.000000	96.754292
3416.000000	96.751371
3415.000000	96.746523
3414.000000	96.738919
3413.000000	96.728798
3412.000000	96.716648
3411.000000	96.703404
3410.000000	96.691021
3409.000000	96.682211
3408.000000	96.679013
3407.000000	96.680980
3406.000000	96.684548
3405.000000	96.684660
3404.000000	96.677817
3403.000000	96.664233
3402.000000	96.647486
3401.000000	96.632273
3400.000000	96.621821
3399.000000	96.616260
3398.000000	96.612767
3397.000000	96.607634
3396.000000	96.598832
3395.000000	96.586951
3394.000000	96.574100
3393.000000	96.562347
3392.000000	96.552774
3391.000000	96.545016
3390.000000	96.537527
3389.000000	96.529098
3388.000000	96.520482
3387.000000	96.513954
3386.000000	96.510667
3385.000000	96.508715
3384.000000	96.504471
3383.000000	96.495843
3382.000000	96.483959
3381.000000	96.471884
3380.000000	96.461949
3379.000000	96.454003
3378.000000	96.445864
3377.000000	96.435443
3376.000000	96.422546
3375.000000	96.408695
3374.000000	96.395522
3373.000000	96.383862
3372.000000	96.374223
3371.000000	96.367156
3370.000000	96.362456
3369.000000	96.358339
3368.000000	96.352089
3367.000000	96.341757
3366.000000	96.327306
3365.000000	96.310444
3364.000000	96.293648
3363.000000	96.279025
3362.000000	96.267438
3361.000000	96.258257
3360.000000	96.249843
3359.000000	96.240262
3358.000000	96.227764
3357.000000	96.211210
3356.000000	96.190766
3355.000000	96.168489
3354.000000	96.147853
3353.000000	96.131883
3352.000000	96.121093
3351.000000	96.113092
3350.000000	96.104529
3349.000000	96.093512
3348.000000	96.080047
3347.000000	96.064492
3346.000000	96.046601
3345.000000	96.026578
3344.000000	96.006359
3343.000000	95.988880
3342.000000	95.975966
3341.000000	95.967287
3340.000000	95.960966
3339.000000	95.954531
3338.000000	95.945584
3337.000000	95.932761
3336.000000	95.916688
3335.000000	95.899582
3334.000000	95.883483
3333.000000	95.868894
3332.000000	95.855116
3331.000000	95.841483
3330.000000	95.828085
3329.000000	95.815460
3328.000000	95.803724
3327.000000	95.792096
3326.000000	95.779498
3325.000000	95.765738
3324.000000	95.751807
3323.000000	95.738825
3322.000000	95.727002
3321.000000	95.715803
3320.000000	95.704593
3319.000000	95.692684
3318.000000	95.679325
3317.000000	95.664399
3316.000000	95.649020
3315.000000	95.634885
3314.000000	95.623001
3313.000000	95.613252
3312.000000	95.604684
3311.000000	95.595765
3310.000000	95.584984
3309.000000	95.572188
3308.000000	95.559219
3307.000000	95.548365
3306.000000	95.540073
3305.000000	95.532619
3304.000000	95.523794
3303.000000	95.512622
3302.000000	95.499960
3301.000000	95.488182
3300.000000	95.479850
3299.000000	95.475652
3298.000000	95.473629
3297.000000	95.471035
3296.000000	95.466744
3295.000000	95.461208
3294.000000	95.454616
3293.000000	95.446483
3292.000000	95.437009
3291.000000	95.427463
3290.000000	95.418884
3289.000000	95.411368
3288.000000	95.404975
3287.000000	95.400365
3286.000000	95.398092
3285.000000	95.397940
3284.000000	95.399095
3283.000000	95.400279
3282.000000	95.399790
3281.000000	95.396636
3280.000000	95.392290
3279.000000	95.390281
3278.000000	95.393411
3277.000000	95.401655
3276.000000	95.412957
3275.000000	95.425385
3274.000000	95.437876
3273.000000	95.449782
3272.000000	95.460472
3271.000000	95.469149
3270.000000	95.474759
3269.000000	95.476664
3268.000000	95.476011
3267.000000	95.476030
3266.000000	95.480285
3265.000000	95.490334
3264.000000	95.504941
3263.000000	95.521029
3262.000000	95.535429
3261.000000	95.546544
3260.000000	95.555188
3259.000000	95.563664
3258.000000	95.573856
3257.000000	95.586330
3256.000000	95.600970
3255.000000	95.617695
3254.000000	95.636181
3253.000000	95.655479
3252.000000	95.674265
3251.000000	95.691164
3250.000000	95.704828
3249.000000	95.714585
3248.000000	95.721488
3247.000000	95.728081
3246.000000	95.736473
3245.000000	95.746729
3244.000000	95.757391
3243.000000	95.767137
3242.000000	95.775494
3241.000000	95.782574
3240.000000	95.788994
3239.000000	95.796079
3238.000000	95.805472
3237.000000	95.818070
3236.000000	95.833175
3235.000000	95.848766
3234.000000	95.862799
3233.000000	95.874402
3232.000000	95.883768
3231.000000	95.891023
3230.000000	95.895907
3229.000000	95.899005
3228.000000	95.902576
3227.000000	95.908979
3226.000000	95.918213
3225.000000	95.927879
3224.000000	95.935641
3223.000000	95.941227
3222.000000	95.946150
3221.000000	95.952400
3220.000000	95.961403
3219.000000	95.973064
3218.000000	95.985432
3217.000000	95.996117
3216.000000	96.004334
3215.000000	96.010992
3214.000000	96.016532
3213.000000	96.019851
3212.000000	96.020041
3211.000000	96.018568
3210.000000	96.018864
3209.000000	96.023708
3208.000000	96.033187
3207.000000	96.044681
3206.000000	96.054716
3205.000000	96.061319
3204.000000	96.065227
3203.000000	96.068836
3202.000000	96.074047
3201.000000	96.081472
3200.000000	96.091145
3199.000000	96.102718
3198.000000	96.114670
3197.000000	96.124569
3196.000000	96.131136
3195.000000	96.135694
3194.000000	96.141122
3193.000000	96.149756
3192.000000	96.162266
3191.000000	96.177579
3190.000000	96.193347
3189.000000	96.207195
3188.000000	96.218269
3187.000000	96.227456
3186.000000	96.236280
3185.000000	96.246180
3184.000000	96.258531
3183.000000	96.273745
3182.000000	96.289845
3181.000000	96.303496
3180.000000	96.313538
3179.000000	96.322378
3178.000000	96.332770
3177.000000	96.344273
3176.000000	96.354621
3175.000000	96.363666
3174.000000	96.373884
3173.000000	96.386956
3172.000000	96.401561
3171.000000	96.414943
3170.000000	96.425528
3169.000000	96.433622
3168.000000	96.440743
3167.000000	96.448727
3166.000000	96.458608
3165.000000	96.469611
3164.000000	96.479913
3163.000000	96.488933
3162.000000	96.498364
3161.000000	96.510317
3160.000000	96.524862
3159.000000	96.539996
3158.000000	96.553793
3157.000000	96.565832
3156.000000	96.576583
3155.000000	96.586287
3154.000000	96.594997
3153.000000	96.603217
3152.000000	96.611665
3151.000000	96.620312
3150.000000	96.628392
3149.000000	96.635736
3148.000000	96.643535
3147.000000	96.653171
3146.000000	96.664610
