PE IR       SUBTECH     SPECTRUM    ASCII       PEDS        4.00        
   -1
3C-XXX-F020_1.ASC
23/09/07
10:52:46.00
23/09/07
11:30:09.00
uco
Sample 020 By uco Date Thursday, September 07 2023
450.000000
#HDR
-1
-1
#GR
cm-1
%T
1.0
0.0
4000.000000
-1.000000
3551
8
98.839800
85.585295
#DATA
4000.000000	98.770763
3999.000000	98.769203
3998.000000	98.768022
3997.000000	98.768586
3996.000000	98.769855
3995.000000	98.771438
3994.000000	98.772386
3993.000000	98.771801
3992.000000	98.769041
3991.000000	98.764045
3990.000000	98.757621
3989.000000	98.751285
3988.000000	98.746625
3987.000000	98.744462
3986.000000	98.744454
3985.000000	98.745604
3984.000000	98.747270
3983.000000	98.749766
3982.000000	98.753714
3981.000000	98.758740
3980.000000	98.762951
3979.000000	98.763830
3978.000000	98.759862
3977.000000	98.751692
3976.000000	98.742022
3975.000000	98.734359
3974.000000	98.731189
3973.000000	98.732763
3972.000000	98.737282
3971.000000	98.742225
3970.000000	98.745763
3969.000000	98.747158
3968.000000	98.746461
3967.000000	98.744255
3966.000000	98.741556
3965.000000	98.739465
3964.000000	98.738409
3963.000000	98.737775
3962.000000	98.736573
3961.000000	98.734465
3960.000000	98.731934
3959.000000	98.729527
3958.000000	98.727331
3957.000000	98.725294
3956.000000	98.723745
3955.000000	98.723304
3954.000000	98.724276
3953.000000	98.726261
3952.000000	98.728447
3951.000000	98.730141
3950.000000	98.730943
3949.000000	98.730611
3948.000000	98.729069
3947.000000	98.726428
3946.000000	98.722695
3945.000000	98.717872
3944.000000	98.712934
3943.000000	98.710392
3942.000000	98.712611
3941.000000	98.719391
3940.000000	98.727683
3939.000000	98.733766
3938.000000	98.735633
3937.000000	98.733481
3936.000000	98.728772
3935.000000	98.723398
3934.000000	98.719838
3933.000000	98.721026
3932.000000	98.728253
3931.000000	98.738788
3930.000000	98.746736
3929.000000	98.747250
3928.000000	98.739969
3927.000000	98.728905
3926.000000	98.719789
3925.000000	98.716766
3924.000000	98.719971
3923.000000	98.726191
3922.000000	98.732086
3921.000000	98.735979
3920.000000	98.737039
3919.000000	98.734461
3918.000000	98.728891
3917.000000	98.723962
3916.000000	98.723852
3915.000000	98.728622
3914.000000	98.733559
3913.000000	98.733796
3912.000000	98.728373
3911.000000	98.720376
3910.000000	98.713846
3909.000000	98.710516
3908.000000	98.709352
3907.000000	98.708241
3906.000000	98.706464
3905.000000	98.706113
3904.000000	98.710632
3903.000000	98.720659
3902.000000	98.732264
3901.000000	98.740266
3900.000000	98.742798
3899.000000	98.741864
3898.000000	98.739835
3897.000000	98.737177
3896.000000	98.733433
3895.000000	98.729047
3894.000000	98.725429
3893.000000	98.724068
3892.000000	98.725704
3891.000000	98.729962
3890.000000	98.735381
3889.000000	98.739182
3888.000000	98.737781
3887.000000	98.729917
3886.000000	98.719936
3885.000000	98.714779
3884.000000	98.716442
3883.000000	98.720314
3882.000000	98.721341
3881.000000	98.718839
3880.000000	98.715627
3879.000000	98.714273
3878.000000	98.715101
3877.000000	98.716894
3876.000000	98.718595
3875.000000	98.720463
3874.000000	98.723379
3873.000000	98.726853
3872.000000	98.729265
3871.000000	98.731100
3870.000000	98.735775
3869.000000	98.744680
3868.000000	98.753605
3867.000000	98.756430
3866.000000	98.751646
3865.000000	98.744772
3864.000000	98.742368
3863.000000	98.744100
3862.000000	98.743861
3861.000000	98.738122
3860.000000	98.729425
3859.000000	98.722654
3858.000000	98.720345
3857.000000	98.720409
3856.000000	98.718106
3855.000000	98.710552
3854.000000	98.701683
3853.000000	98.699608
3852.000000	98.705404
3851.000000	98.713582
3850.000000	98.719834
3849.000000	98.722401
3848.000000	98.721714
3847.000000	98.719223
3846.000000	98.716672
3845.000000	98.715655
3844.000000	98.717140
3843.000000	98.721719
3842.000000	98.729585
3841.000000	98.739787
3840.000000	98.750099
3839.000000	98.757589
3838.000000	98.760166
3837.000000	98.758728
3836.000000	98.757161
3835.000000	98.758488
3834.000000	98.762132
3833.000000	98.765010
3832.000000	98.764368
3831.000000	98.759319
3830.000000	98.750583
3829.000000	98.739945
3828.000000	98.730096
3827.000000	98.724583
3826.000000	98.725665
3825.000000	98.731718
3824.000000	98.738173
3823.000000	98.742158
3822.000000	98.745492
3821.000000	98.750909
3820.000000	98.755829
3819.000000	98.755204
3818.000000	98.748440
3817.000000	98.739320
3816.000000	98.732120
3815.000000	98.726932
3814.000000	98.720596
3813.000000	98.712265
3812.000000	98.705161
3811.000000	98.703657
3810.000000	98.708942
3809.000000	98.717772
3808.000000	98.725827
3807.000000	98.731999
3806.000000	98.737999
3805.000000	98.744290
3804.000000	98.748441
3803.000000	98.748677
3802.000000	98.747610
3801.000000	98.748867
3800.000000	98.751043
3799.000000	98.750078
3798.000000	98.744693
3797.000000	98.737234
3796.000000	98.731042
3795.000000	98.726819
3794.000000	98.722934
3793.000000	98.719090
3792.000000	98.717387
3791.000000	98.719513
3790.000000	98.724085
3789.000000	98.727443
3788.000000	98.726933
3787.000000	98.722953
3786.000000	98.718199
3785.000000	98.715581
3784.000000	98.716155
3783.000000	98.718643
3782.000000	98.720867
3781.000000	98.721635
3780.000000	98.721093
3779.000000	98.719460
3778.000000	98.716189
3777.000000	98.711381
3776.000000	98.707031
3775.000000	98.706043
3774.000000	98.709761
3773.000000	98.716111
3772.000000	98.720906
3771.000000	98.722257
3770.000000	98.723060
3769.000000	98.727113
3768.000000	98.733978
3767.000000	98.739573
3766.000000	98.740625
3765.000000	98.737543
3764.000000	98.733334
3763.000000	98.729952
3762.000000	98.727180
3761.000000	98.725149
3760.000000	98.725442
3759.000000	98.728890
3758.000000	98.734447
3757.000000	98.741057
3756.000000	98.748531
3755.000000	98.756048
3754.000000	98.762402
3753.000000	98.767353
3752.000000	98.770516
3751.000000	98.769238
3750.000000	98.761603
3749.000000	98.752170
3748.000000	98.748060
3747.000000	98.749852
3746.000000	98.753114
3745.000000	98.755266
3744.000000	98.756405
3743.000000	98.757024
3742.000000	98.756493
3741.000000	98.753483
3740.000000	98.749023
3739.000000	98.746250
3738.000000	98.746781
3737.000000	98.749676
3736.000000	98.754092
3735.000000	98.760104
3734.000000	98.766768
3733.000000	98.772088
3732.000000	98.775344
3731.000000	98.777574
3730.000000	98.779405
3729.000000	98.779398
3728.000000	98.775408
3727.000000	98.767351
3726.000000	98.758100
3725.000000	98.751468
3724.000000	98.749700
3723.000000	98.752874
3722.000000	98.758809
3721.000000	98.764317
3720.000000	98.767305
3719.000000	98.767325
3718.000000	98.765250
3717.000000	98.763129
3716.000000	98.763096
3715.000000	98.765199
3714.000000	98.766725
3713.000000	98.764420
3712.000000	98.758320
3711.000000	98.752560
3710.000000	98.749923
3709.000000	98.748424
3708.000000	98.745585
3707.000000	98.742338
3706.000000	98.741804
3705.000000	98.745741
3704.000000	98.752779
3703.000000	98.759309
3702.000000	98.762095
3701.000000	98.760459
3700.000000	98.756194
3699.000000	98.751267
3698.000000	98.746751
3697.000000	98.743798
3696.000000	98.743369
3695.000000	98.744301
3694.000000	98.744066
3693.000000	98.742493
3692.000000	98.742995
3691.000000	98.749042
3690.000000	98.758787
3689.000000	98.764636
3688.000000	98.761471
3687.000000	98.753034
3686.000000	98.745306
3685.000000	98.739368
3684.000000	98.733981
3683.000000	98.729017
3682.000000	98.725305
3681.000000	98.723323
3680.000000	98.723560
3679.000000	98.726064
3678.000000	98.728808
3677.000000	98.729442
3676.000000	98.729149
3675.000000	98.729971
3674.000000	98.729370
3673.000000	98.724114
3672.000000	98.714615
3671.000000	98.705888
3670.000000	98.703733
3669.000000	98.705637
3668.000000	98.703074
3667.000000	98.693331
3666.000000	98.680264
3665.000000	98.668551
3664.000000	98.660578
3663.000000	98.655972
3662.000000	98.653576
3661.000000	98.653174
3660.000000	98.654887
3659.000000	98.656852
3658.000000	98.655114
3657.000000	98.647374
3656.000000	98.636974
3655.000000	98.630488
3654.000000	98.630273
3653.000000	98.632496
3652.000000	98.631797
3651.000000	98.626183
3650.000000	98.618252
3649.000000	98.612553
3648.000000	98.610961
3647.000000	98.611395
3646.000000	98.610176
3645.000000	98.604407
3644.000000	98.593830
3643.000000	98.581453
3642.000000	98.571636
3641.000000	98.566452
3640.000000	98.564341
3639.000000	98.562671
3638.000000	98.560350
3637.000000	98.557182
3636.000000	98.552527
3635.000000	98.546285
3634.000000	98.540230
3633.000000	98.536087
3632.000000	98.532457
3631.000000	98.526143
3630.000000	98.517272
3629.000000	98.510779
3628.000000	98.508919
3627.000000	98.507554
3626.000000	98.503422
3625.000000	98.497008
3624.000000	98.490917
3623.000000	98.487143
3622.000000	98.484665
3621.000000	98.480477
3620.000000	98.473015
3619.000000	98.463681
3618.000000	98.454634
3617.000000	98.446240
3616.000000	98.437001
3615.000000	98.425092
3614.000000	98.410401
3613.000000	98.394734
3612.000000	98.379713
3611.000000	98.365054
3610.000000	98.349594
3609.000000	98.334267
3608.000000	98.322732
3607.000000	98.317626
3606.000000	98.317653
3605.000000	98.319306
3604.000000	98.319861
3603.000000	98.317880
3602.000000	98.312648
3601.000000	98.304597
3600.000000	98.295875
3599.000000	98.288673
3598.000000	98.283035
3597.000000	98.276764
3596.000000	98.267254
3595.000000	98.253895
3594.000000	98.238902
3593.000000	98.225369
3592.000000	98.214285
3591.000000	98.203846
3590.000000	98.191244
3589.000000	98.175841
3588.000000	98.160846
3587.000000	98.150554
3586.000000	98.145376
3585.000000	98.141833
3584.000000	98.136333
3583.000000	98.126906
3582.000000	98.113364
3581.000000	98.097609
3580.000000	98.083457
3579.000000	98.074604
3578.000000	98.071599
3577.000000	98.071298
3576.000000	98.069140
3575.000000	98.062232
3574.000000	98.050556
3573.000000	98.036290
3572.000000	98.022225
3571.000000	98.010297
3570.000000	98.000655
3569.000000	97.992111
3568.000000	97.983400
3567.000000	97.973924
3566.000000	97.963579
3565.000000	97.952505
3564.000000	97.940830
3563.000000	97.928486
3562.000000	97.915607
3561.000000	97.902964
3560.000000	97.891795
3559.000000	97.882839
3558.000000	97.875313
3557.000000	97.867076
3556.000000	97.855743
3555.000000	97.839608
3554.000000	97.818504
3553.000000	97.794906
3552.000000	97.773798
3551.000000	97.759546
3550.000000	97.752244
3549.000000	97.748030
3548.000000	97.742544
3547.000000	97.733974
3546.000000	97.723491
3545.000000	97.713553
3544.000000	97.705588
3543.000000	97.698973
3542.000000	97.691765
3541.000000	97.682507
3540.000000	97.671585
3539.000000	97.660778
3538.000000	97.651367
3537.000000	97.642695
3536.000000	97.632652
3535.000000	97.619564
3534.000000	97.603606
3533.000000	97.586822
3532.000000	97.572116
3531.000000	97.561678
3530.000000	97.555516
3529.000000	97.551482
3528.000000	97.546958
3527.000000	97.540357
3526.000000	97.531142
3525.000000	97.519403
3524.000000	97.506045
3523.000000	97.492683
3522.000000	97.480371
3521.000000	97.468569
3520.000000	97.455880
3519.000000	97.441701
3518.000000	97.426810
3517.000000	97.412591
3516.000000	97.399980
3515.000000	97.389047
3514.000000	97.379028
3513.000000	97.368612
3512.000000	97.356877
3511.000000	97.344581
3510.000000	97.334280
3509.000000	97.328292
3508.000000	97.326234
3507.000000	97.324829
3506.000000	97.320368
3505.000000	97.311207
3504.000000	97.298337
3503.000000	97.284003
3502.000000	97.270184
3501.000000	97.258291
3500.000000	97.249199
3499.000000	97.242621
3498.000000	97.236849
3497.000000	97.229874
3496.000000	97.220845
3495.000000	97.210031
3494.000000	97.197762
3493.000000	97.184263
3492.000000	97.170395
3491.000000	97.157573
3490.000000	97.146601
3489.000000	97.137035
3488.000000	97.127862
3487.000000	97.118161
3486.000000	97.107114
3485.000000	97.094401
3484.000000	97.081236
3483.000000	97.070263
3482.000000	97.063235
3481.000000	97.058723
3480.000000	97.053181
3479.000000	97.044515
3478.000000	97.034014
3477.000000	97.024739
3476.000000	97.018593
3475.000000	97.014852
3474.000000	97.011075
3473.000000	97.005153
3472.000000	96.996463
3471.000000	96.985556
3470.000000	96.973336
3469.000000	96.960664
3468.000000	96.948387
3467.000000	96.937337
3466.000000	96.928229
3465.000000	96.921625
3464.000000	96.917734
3463.000000	96.915907
3462.000000	96.914403
3461.000000	96.911024
3460.000000	96.904222
3459.000000	96.893610
3458.000000	96.879807
3457.000000	96.864259
3456.000000	96.849155
3455.000000	96.836904
3454.000000	96.829108
3453.000000	96.825819
3452.000000	96.825494
3451.000000	96.825574
3450.000000	96.823650
3449.000000	96.818779
3448.000000	96.811929
3447.000000	96.804760
3446.000000	96.797670
3445.000000	96.789466
3444.000000	96.779056
3443.000000	96.767127
3442.000000	96.756096
3441.000000	96.748371
3440.000000	96.744417
3439.000000	96.742341
3438.000000	96.739367
3437.000000	96.733799
3436.000000	96.725639
3435.000000	96.715719
3434.000000	96.704921
3433.000000	96.694308
3432.000000	96.684912
3431.000000	96.676496
3430.000000	96.667288
3429.000000	96.656136
3428.000000	96.644677
3427.000000	96.635972
3426.000000	96.630764
3425.000000	96.626082
3424.000000	96.617998
3423.000000	96.605299
3422.000000	96.590201
3421.000000	96.576170
3420.000000	96.565470
3419.000000	96.558378
3418.000000	96.553892
3417.000000	96.550559
3416.000000	96.546696
3415.000000	96.540596
3414.000000	96.531425
3413.000000	96.520150
3412.000000	96.508875
3411.000000	96.498787
3410.000000	96.489296
3409.000000	96.479711
3408.000000	96.471066
3407.000000	96.465127
3406.000000	96.461755
3405.000000	96.458193
3404.000000	96.451271
3403.000000	96.439992
3402.000000	96.426230
3401.000000	96.413525
3400.000000	96.404886
3399.000000	96.400583
3398.000000	96.397505
3397.000000	96.391199
3396.000000	96.379140
3395.000000	96.362206
3394.000000	96.343525
3393.000000	96.326581
3392.000000	96.313806
3391.000000	96.305586
3390.000000	96.300147
3389.000000	96.295068
3388.000000	96.289255
3387.000000	96.283202
3386.000000	96.277416
3385.000000	96.271220
3384.000000	96.263410
3383.000000	96.253518
3382.000000	96.242120
3381.000000	96.230228
3380.000000	96.218568
3379.000000	96.207038
3378.000000	96.194862
3377.000000	96.181657
3376.000000	96.168237
3375.000000	96.155759
3374.000000	96.144142
3373.000000	96.132246
3372.000000	96.119853
3371.000000	96.108512
3370.000000	96.099713
3369.000000	96.092765
3368.000000	96.085157
3367.000000	96.074758
3366.000000	96.061146
3365.000000	96.045206
3364.000000	96.028282
3363.000000	96.011725
3362.000000	95.996429
3361.000000	95.982314
3360.000000	95.968441
3359.000000	95.953933
3358.000000	95.938796
3357.000000	95.923760
3356.000000	95.909337
3355.000000	95.895165
3354.000000	95.880430
3353.000000	95.864868
3352.000000	95.849068
3351.000000	95.833663
3350.000000	95.818527
3349.000000	95.803114
3348.000000	95.787361
3347.000000	95.771745
3346.000000	95.756307
3345.000000	95.740021
3344.000000	95.721591
3343.000000	95.701046
3342.000000	95.680377
3341.000000	95.662074
3340.000000	95.646647
3339.000000	95.631847
3338.000000	95.614981
3337.000000	95.596136
3336.000000	95.578506
3335.000000	95.565177
3334.000000	95.556121
3333.000000	95.548640
3332.000000	95.539931
3331.000000	95.528585
3330.000000	95.514484
3329.000000	95.498347
3328.000000	95.481215
3327.000000	95.463628
3326.000000	95.445444
3325.000000	95.426974
3324.000000	95.409845
3323.000000	95.395698
3322.000000	95.384059
3321.000000	95.372357
3320.000000	95.358080
3319.000000	95.340620
3318.000000	95.321463
3317.000000	95.303415
3316.000000	95.289244
3315.000000	95.279702
3314.000000	95.272373
3313.000000	95.263305
3312.000000	95.250290
3311.000000	95.234366
3310.000000	95.218388
3309.000000	95.204874
3308.000000	95.195061
3307.000000	95.188592
3306.000000	95.183279
3305.000000	95.175859
3304.000000	95.164082
3303.000000	95.148522
3302.000000	95.132347
3301.000000	95.119219
3300.000000	95.110969
3299.000000	95.106628
3298.000000	95.103496
3297.000000	95.099279
3296.000000	95.093213
3295.000000	95.085272
3294.000000	95.075289
3293.000000	95.063873
3292.000000	95.053445
3291.000000	95.046826
3290.000000	95.044464
3289.000000	95.043904
3288.000000	95.042295
3287.000000	95.038717
3286.000000	95.034131
3285.000000	95.030072
3284.000000	95.027484
3283.000000	95.025925
3282.000000	95.023829
3281.000000	95.020603
3280.000000	95.018641
3279.000000	95.021681
3278.000000	95.030516
3277.000000	95.041405
3276.000000	95.049872
3275.000000	95.055402
3274.000000	95.060998
3273.000000	95.068888
3272.000000	95.078092
3271.000000	95.086096
3270.000000	95.091579
3269.000000	95.094972
3268.000000	95.097462
3267.000000	95.100326
3266.000000	95.104906
3265.000000	95.112330
3264.000000	95.122671
3263.000000	95.134419
3262.000000	95.145357
3261.000000	95.154434
3260.000000	95.162814
3259.000000	95.172699
3258.000000	95.185276
3257.000000	95.200286
3256.000000	95.217207
3255.000000	95.235799
3254.000000	95.255101
3253.000000	95.273054
3252.000000	95.288083
3251.000000	95.300516
3250.000000	95.311699
3249.000000	95.322157
3248.000000	95.331566
3247.000000	95.340072
3246.000000	95.348444
3245.000000	95.356715
3244.000000	95.363794
3243.000000	95.369050
3242.000000	95.373524
3241.000000	95.379029
3240.000000	95.386655
3239.000000	95.396732
3238.000000	95.409511
3237.000000	95.424683
3236.000000	95.440313
3235.000000	95.453610
3234.000000	95.463509
3233.000000	95.471799
3232.000000	95.480994
3231.000000	95.491311
3230.000000	95.500537
3229.000000	95.506695
3228.000000	95.510221
3227.000000	95.513512
3226.000000	95.518886
3225.000000	95.527029
3224.000000	95.536670
3223.000000	95.545562
3222.000000	95.552567
3221.000000	95.559175
3220.000000	95.568285
3219.000000	95.580737
3218.000000	95.593521
3217.000000	95.602369
3216.000000	95.605809
3215.000000	95.606154
3214.000000	95.606642
3213.000000	95.608629
3212.000000	95.611906
3211.000000	95.616776
3210.000000	95.624569
3209.000000	95.635584
3208.000000	95.647345
3207.000000	95.656123
3206.000000	95.660917
3205.000000	95.665102
3204.000000	95.673151
3203.000000	95.685700
3202.000000	95.699141
3201.000000	95.710124
3200.000000	95.718901
3199.000000	95.727512
3198.000000	95.736274
3197.000000	95.743784
3196.000000	95.749345
3195.000000	95.753519
3194.000000	95.756667
3193.000000	95.759141
3192.000000	95.763121
3191.000000	95.772270
3190.000000	95.788377
3189.000000	95.809119
3188.000000	95.829688
3187.000000	95.846064
3186.000000	95.856898
3185.000000	95.863837
3184.000000	95.870710
3183.000000	95.881191
3182.000000	95.895942
3181.000000	95.912184
3180.000000	95.926459
3179.000000	95.937252
3178.000000	95.945201
3177.000000	95.952131
3176.000000	95.960671
3175.000000	95.973348
3174.000000	95.990368
3173.000000	96.008627
3172.000000	96.024086
3171.000000	96.035262
3170.000000	96.043721
3169.000000	96.051801
3168.000000	96.060876
3167.000000	96.071476
3166.000000	96.083621
3165.000000	96.096634
3164.000000	96.109672
3163.000000	96.122840
3162.000000	96.137002
3161.000000	96.152111
3160.000000	96.166566
3159.000000	96.178856
3158.000000	96.189329
3157.000000	96.199524
3156.000000	96.210115
3155.000000	96.220438
3154.000000	96.230196
3153.000000	96.240628
3152.000000	96.253153
3151.000000	96.267185
3150.000000	96.280284
3149.000000	96.290796
3148.000000	96.299563
3147.000000	96.308511
3146.000000	96.318117
