PE IR       SUBTECH     SPECTRUM    ASCII       PEDS        4.00        
   -1
3C-XXX-F019_1.ASC
23/09/07
10:51:49.00
23/09/07
11:30:09.00
uco
Sample 019 By uco Date Thursday, September 07 2023
450.000000
#HDR
-1
-1
#GR
cm-1
%T
1.0
0.0
4000.000000
-1.000000
3551
8
98.996341
86.413690
#DATA
4000.000000	98.921049
3999.000000	98.920757
3998.000000	98.916547
3997.000000	98.911894
3996.000000	98.909649
3995.000000	98.910252
3994.000000	98.912114
3993.000000	98.915756
3992.000000	98.915418
3991.000000	98.913214
3990.000000	98.909079
3989.000000	98.903393
3988.000000	98.897478
3987.000000	98.893255
3986.000000	98.892065
3985.000000	98.893876
3984.000000	98.897631
3983.000000	98.902119
3982.000000	98.906317
3981.000000	98.909251
3980.000000	98.909986
3979.000000	98.908034
3978.000000	98.903737
3977.000000	98.898184
3976.000000	98.892802
3975.000000	98.888925
3974.000000	98.887429
3973.000000	98.888397
3972.000000	98.890958
3971.000000	98.893519
3970.000000	98.894612
3969.000000	98.894002
3968.000000	98.893125
3967.000000	98.894062
3966.000000	98.897600
3965.000000	98.902289
3964.000000	98.905513
3963.000000	98.905607
3962.000000	98.903155
3961.000000	98.900244
3960.000000	98.898503
3959.000000	98.897931
3958.000000	98.897240
3957.000000	98.895155
3956.000000	98.891547
3955.000000	98.887489
3954.000000	98.884377
3953.000000	98.883174
3952.000000	98.884314
3951.000000	98.887791
3950.000000	98.892799
3949.000000	98.897494
3948.000000	98.899849
3947.000000	98.898952
3946.000000	98.895491
3945.000000	98.891139
3944.000000	98.887863
3943.000000	98.887441
3942.000000	98.890492
3941.000000	98.895508
3940.000000	98.899439
3939.000000	98.899658
3938.000000	98.895634
3937.000000	98.889073
3936.000000	98.882684
3935.000000	98.878925
3934.000000	98.879319
3933.000000	98.884084
3932.000000	98.891720
3931.000000	98.899138
3930.000000	98.903173
3929.000000	98.902336
3928.000000	98.897295
3927.000000	98.890332
3926.000000	98.884367
3925.000000	98.881522
3924.000000	98.881788
3923.000000	98.883264
3922.000000	98.883862
3921.000000	98.882251
3920.000000	98.877761
3919.000000	98.870868
3918.000000	98.864346
3917.000000	98.862383
3916.000000	98.866827
3915.000000	98.874673
3914.000000	98.880202
3913.000000	98.879376
3912.000000	98.872421
3911.000000	98.863440
3910.000000	98.857467
3909.000000	98.857095
3908.000000	98.861347
3907.000000	98.867167
3906.000000	98.871924
3905.000000	98.875271
3904.000000	98.879036
3903.000000	98.884866
3902.000000	98.891806
3901.000000	98.896848
3900.000000	98.897607
3899.000000	98.893972
3898.000000	98.887998
3897.000000	98.882125
3896.000000	98.877553
3895.000000	98.873827
3894.000000	98.869648
3893.000000	98.865028
3892.000000	98.863229
3891.000000	98.868444
3890.000000	98.879949
3889.000000	98.891796
3888.000000	98.898235
3887.000000	98.897833
3886.000000	98.893792
3885.000000	98.890339
3884.000000	98.888232
3883.000000	98.884880
3882.000000	98.878515
3881.000000	98.871094
3880.000000	98.866997
3879.000000	98.868264
3878.000000	98.872724
3877.000000	98.877393
3876.000000	98.881475
3875.000000	98.885738
3874.000000	98.889449
3873.000000	98.889105
3872.000000	98.881910
3871.000000	98.870685
3870.000000	98.863663
3869.000000	98.866181
3868.000000	98.874667
3867.000000	98.882395
3866.000000	98.886657
3865.000000	98.888581
3864.000000	98.890017
3863.000000	98.891400
3862.000000	98.891807
3861.000000	98.890442
3860.000000	98.887627
3859.000000	98.884420
3858.000000	98.881468
3857.000000	98.878330
3856.000000	98.874049
3855.000000	98.868600
3854.000000	98.863634
3853.000000	98.861528
3852.000000	98.861267
3851.000000	98.859807
3850.000000	98.857042
3849.000000	98.855411
3848.000000	98.856633
3847.000000	98.860223
3846.000000	98.863986
3845.000000	98.865795
3844.000000	98.865395
3843.000000	98.864288
3842.000000	98.864229
3841.000000	98.866397
3840.000000	98.871022
3839.000000	98.876711
3838.000000	98.880704
3837.000000	98.881360
3836.000000	98.880100
3835.000000	98.879273
3834.000000	98.879662
3833.000000	98.880765
3832.000000	98.882032
3831.000000	98.882874
3830.000000	98.882066
3829.000000	98.878098
3828.000000	98.871396
3827.000000	98.865499
3826.000000	98.863945
3825.000000	98.865912
3824.000000	98.866758
3823.000000	98.863240
3822.000000	98.857327
3821.000000	98.854727
3820.000000	98.856853
3819.000000	98.858541
3818.000000	98.856269
3817.000000	98.852816
3816.000000	98.853285
3815.000000	98.857527
3814.000000	98.860553
3813.000000	98.860067
3812.000000	98.858429
3811.000000	98.858605
3810.000000	98.860552
3809.000000	98.862020
3808.000000	98.862422
3807.000000	98.864234
3806.000000	98.868914
3805.000000	98.873311
3804.000000	98.872911
3803.000000	98.867488
3802.000000	98.862520
3801.000000	98.863454
3800.000000	98.868170
3799.000000	98.870976
3798.000000	98.870434
3797.000000	98.869681
3796.000000	98.871059
3795.000000	98.872439
3794.000000	98.870400
3793.000000	98.864918
3792.000000	98.859442
3791.000000	98.857278
3790.000000	98.858874
3789.000000	98.862165
3788.000000	98.864911
3787.000000	98.866229
3786.000000	98.866557
3785.000000	98.866744
3784.000000	98.867011
3783.000000	98.866716
3782.000000	98.865155
3781.000000	98.862427
3780.000000	98.859473
3779.000000	98.857223
3778.000000	98.855580
3777.000000	98.854238
3776.000000	98.854180
3775.000000	98.857010
3774.000000	98.862241
3773.000000	98.866335
3772.000000	98.865697
3771.000000	98.861067
3770.000000	98.858117
3769.000000	98.861957
3768.000000	98.871756
3767.000000	98.882518
3766.000000	98.890111
3765.000000	98.892764
3764.000000	98.890121
3763.000000	98.882769
3762.000000	98.873003
3761.000000	98.864559
3760.000000	98.860382
3759.000000	98.860911
3758.000000	98.864526
3757.000000	98.869418
3756.000000	98.874217
3755.000000	98.878227
3754.000000	98.882150
3753.000000	98.887895
3752.000000	98.896188
3751.000000	98.904078
3750.000000	98.906709
3749.000000	98.902311
3748.000000	98.892640
3747.000000	98.880598
3746.000000	98.871410
3745.000000	98.872378
3744.000000	98.884248
3743.000000	98.896425
3742.000000	98.899997
3741.000000	98.895454
3740.000000	98.888084
3739.000000	98.883378
3738.000000	98.885427
3737.000000	98.896444
3736.000000	98.914295
3735.000000	98.930337
3734.000000	98.935812
3733.000000	98.931018
3732.000000	98.923743
3731.000000	98.919610
3730.000000	98.917565
3729.000000	98.914316
3728.000000	98.909822
3727.000000	98.907334
3726.000000	98.908605
3725.000000	98.910950
3724.000000	98.910636
3723.000000	98.906980
3722.000000	98.901922
3721.000000	98.897254
3720.000000	98.893536
3719.000000	98.891442
3718.000000	98.892152
3717.000000	98.895706
3716.000000	98.900107
3715.000000	98.902623
3714.000000	98.901295
3713.000000	98.895735
3712.000000	98.888006
3711.000000	98.882534
3710.000000	98.882024
3709.000000	98.884792
3708.000000	98.887746
3707.000000	98.889384
3706.000000	98.889966
3705.000000	98.890305
3704.000000	98.890687
3703.000000	98.890619
3702.000000	98.889953
3701.000000	98.889775
3700.000000	98.891177
3699.000000	98.893932
3698.000000	98.897355
3697.000000	98.901003
3696.000000	98.903976
3695.000000	98.904710
3694.000000	98.902447
3693.000000	98.898450
3692.000000	98.894927
3691.000000	98.893099
3690.000000	98.892193
3689.000000	98.890932
3688.000000	98.889187
3687.000000	98.887311
3686.000000	98.885359
3685.000000	98.883503
3684.000000	98.882155
3683.000000	98.881181
3682.000000	98.879804
3681.000000	98.877770
3680.000000	98.875297
3679.000000	98.870939
3678.000000	98.861782
3677.000000	98.848143
3676.000000	98.838007
3675.000000	98.840126
3674.000000	98.850371
3673.000000	98.857922
3672.000000	98.859088
3671.000000	98.858149
3670.000000	98.859471
3669.000000	98.860738
3668.000000	98.856583
3667.000000	98.846498
3666.000000	98.834664
3665.000000	98.825433
3664.000000	98.820296
3663.000000	98.818082
3662.000000	98.817272
3661.000000	98.817898
3660.000000	98.820762
3659.000000	98.825217
3658.000000	98.828560
3657.000000	98.828276
3656.000000	98.825371
3655.000000	98.823783
3654.000000	98.825897
3653.000000	98.830761
3652.000000	98.835398
3651.000000	98.834908
3650.000000	98.823746
3649.000000	98.802884
3648.000000	98.782484
3647.000000	98.770998
3646.000000	98.767781
3645.000000	98.767562
3644.000000	98.766353
3643.000000	98.763267
3642.000000	98.759113
3641.000000	98.754587
3640.000000	98.750074
3639.000000	98.746456
3638.000000	98.744457
3637.000000	98.743121
3636.000000	98.740230
3635.000000	98.734802
3634.000000	98.728338
3633.000000	98.722943
3632.000000	98.719160
3631.000000	98.716361
3630.000000	98.714235
3629.000000	98.712585
3628.000000	98.710028
3627.000000	98.704562
3626.000000	98.696015
3625.000000	98.686390
3624.000000	98.678411
3623.000000	98.673406
3622.000000	98.670198
3621.000000	98.665818
3620.000000	98.657752
3619.000000	98.646994
3618.000000	98.637728
3617.000000	98.632312
3616.000000	98.628894
3615.000000	98.623919
3614.000000	98.615344
3613.000000	98.604133
3612.000000	98.593069
3611.000000	98.583696
3610.000000	98.575182
3609.000000	98.566477
3608.000000	98.558533
3607.000000	98.553523
3606.000000	98.552182
3605.000000	98.553306
3604.000000	98.555387
3603.000000	98.557139
3602.000000	98.557061
3601.000000	98.553478
3600.000000	98.545379
3599.000000	98.533302
3598.000000	98.518651
3597.000000	98.502312
3596.000000	98.484956
3595.000000	98.468617
3594.000000	98.456474
3593.000000	98.450099
3592.000000	98.447563
3591.000000	98.445238
3590.000000	98.440650
3589.000000	98.433644
3588.000000	98.425531
3587.000000	98.417458
3586.000000	98.409409
3585.000000	98.401053
3584.000000	98.392491
3583.000000	98.383492
3582.000000	98.373204
3581.000000	98.361245
3580.000000	98.348976
3579.000000	98.339127
3578.000000	98.333612
3577.000000	98.331661
3576.000000	98.329849
3575.000000	98.324267
3574.000000	98.313209
3573.000000	98.298763
3572.000000	98.285647
3571.000000	98.278117
3570.000000	98.277233
3569.000000	98.280038
3568.000000	98.280483
3567.000000	98.273167
3566.000000	98.257831
3565.000000	98.238791
3564.000000	98.220373
3563.000000	98.204647
3562.000000	98.191882
3561.000000	98.181303
3560.000000	98.171334
3559.000000	98.160102
3558.000000	98.146865
3557.000000	98.133096
3556.000000	98.121354
3555.000000	98.112602
3554.000000	98.104990
3553.000000	98.096030
3552.000000	98.085900
3551.000000	98.077244
3550.000000	98.071568
3549.000000	98.067418
3548.000000	98.062175
3547.000000	98.054728
3546.000000	98.046192
3545.000000	98.038176
3544.000000	98.030593
3543.000000	98.021469
3542.000000	98.008535
3541.000000	97.991367
3540.000000	97.972372
3539.000000	97.955455
3538.000000	97.942957
3537.000000	97.933760
3536.000000	97.924712
3535.000000	97.913834
3534.000000	97.901706
3533.000000	97.890294
3532.000000	97.881473
3531.000000	97.876402
3530.000000	97.875121
3529.000000	97.876189
3528.000000	97.877140
3527.000000	97.875596
3526.000000	97.870063
3525.000000	97.860053
3524.000000	97.846250
3523.000000	97.830615
3522.000000	97.815299
3521.000000	97.801109
3520.000000	97.787571
3519.000000	97.774499
3518.000000	97.762607
3517.000000	97.752247
3516.000000	97.742466
3515.000000	97.732179
3514.000000	97.721763
3513.000000	97.712557
3512.000000	97.705003
3511.000000	97.698234
3510.000000	97.691695
3509.000000	97.686195
3508.000000	97.682667
3507.000000	97.680609
3506.000000	97.678559
3505.000000	97.675383
3504.000000	97.670377
3503.000000	97.662630
3502.000000	97.651386
3501.000000	97.637122
3500.000000	97.621467
3499.000000	97.606127
3498.000000	97.592520
3497.000000	97.582112
3496.000000	97.575652
3495.000000	97.571423
3494.000000	97.565287
3493.000000	97.553860
3492.000000	97.537690
3491.000000	97.520762
3490.000000	97.507092
3489.000000	97.498073
3488.000000	97.492589
3487.000000	97.488394
3486.000000	97.482944
3485.000000	97.473998
3484.000000	97.461088
3483.000000	97.447014
3482.000000	97.436973
3481.000000	97.434512
3480.000000	97.438005
3479.000000	97.441751
3478.000000	97.440822
3477.000000	97.434480
3476.000000	97.425345
3475.000000	97.416257
3474.000000	97.408322
3473.000000	97.401221
3472.000000	97.394060
3471.000000	97.385631
3470.000000	97.374956
3469.000000	97.362521
3468.000000	97.350525
3467.000000	97.341049
3466.000000	97.334004
3465.000000	97.327550
3464.000000	97.320480
3463.000000	97.313611
3462.000000	97.308485
3461.000000	97.304947
3460.000000	97.300399
3459.000000	97.291755
3458.000000	97.278233
3457.000000	97.262197
3456.000000	97.247399
3455.000000	97.236401
3454.000000	97.229687
3453.000000	97.226638
3452.000000	97.226424
3451.000000	97.227925
3450.000000	97.229699
3449.000000	97.230483
3448.000000	97.229325
3447.000000	97.225106
3446.000000	97.216668
3445.000000	97.204057
3444.000000	97.189260
3443.000000	97.175378
3442.000000	97.165137
3441.000000	97.159909
3440.000000	97.159336
3439.000000	97.161297
3438.000000	97.162544
3437.000000	97.160177
3436.000000	97.152942
3435.000000	97.141323
3434.000000	97.126981
3433.000000	97.112301
3432.000000	97.099584
3431.000000	97.089808
3430.000000	97.082296
3429.000000	97.076070
3428.000000	97.071171
3427.000000	97.068026
3426.000000	97.065957
3425.000000	97.063093
3424.000000	97.057752
3423.000000	97.049415
3422.000000	97.038639
3421.000000	97.026761
3420.000000	97.015622
3419.000000	97.006784
3418.000000	97.000671
3417.000000	96.996648
3416.000000	96.993728
3415.000000	96.990902
3414.000000	96.987026
3413.000000	96.980970
3412.000000	96.972030
3411.000000	96.960190
3410.000000	96.946410
3409.000000	96.933005
3408.000000	96.923080
3407.000000	96.918418
3406.000000	96.917560
3405.000000	96.916415
3404.000000	96.911275
3403.000000	96.901572
3402.000000	96.890101
3401.000000	96.880693
3400.000000	96.875084
3399.000000	96.871211
3398.000000	96.864552
3397.000000	96.851936
3396.000000	96.834481
3395.000000	96.816767
3394.000000	96.803087
3393.000000	96.794401
3392.000000	96.788345
3391.000000	96.781768
3390.000000	96.773414
3389.000000	96.764577
3388.000000	96.757449
3387.000000	96.752831
3386.000000	96.749326
3385.000000	96.744527
3384.000000	96.736723
3383.000000	96.725697
3382.000000	96.712712
3381.000000	96.700061
3380.000000	96.689899
3379.000000	96.682745
3378.000000	96.677252
3377.000000	96.671674
3376.000000	96.665151
3375.000000	96.657413
3374.000000	96.648137
3373.000000	96.637396
3372.000000	96.626175
3371.000000	96.615490
3370.000000	96.605127
3369.000000	96.593990
3368.000000	96.581631
3367.000000	96.568760
3366.000000	96.556270
3365.000000	96.544413
3364.000000	96.533005
3363.000000	96.521889
3362.000000	96.511045
3361.000000	96.500505
3360.000000	96.490107
3359.000000	96.479153
3358.000000	96.466548
3357.000000	96.451557
3356.000000	96.434326
3355.000000	96.415687
3354.000000	96.396986
3353.000000	96.380171
3352.000000	96.367075
3351.000000	96.357794
3350.000000	96.350276
3349.000000	96.342162
3348.000000	96.332520
3347.000000	96.321270
3346.000000	96.307863
3345.000000	96.291697
3344.000000	96.273468
3343.000000	96.254989
3342.000000	96.237744
3341.000000	96.222427
3340.000000	96.209395
3339.000000	96.198237
3338.000000	96.187028
3337.000000	96.173461
3336.000000	96.157260
3335.000000	96.140670
3334.000000	96.126184
3333.000000	96.114454
3332.000000	96.104531
3331.000000	96.095150
3330.000000	96.085272
3329.000000	96.074067
3328.000000	96.061001
3327.000000	96.045916
3326.000000	96.028981
3325.000000	96.010864
3324.000000	95.992910
3323.000000	95.976688
3322.000000	95.963152
3321.000000	95.952335
3320.000000	95.943483
3319.000000	95.935147
3318.000000	95.925588
3317.000000	95.913903
3316.000000	95.900861
3315.000000	95.888230
3314.000000	95.877253
3313.000000	95.867889
3312.000000	95.858925
3311.000000	95.848378
3310.000000	95.834645
3309.000000	95.818400
3308.000000	95.803027
3307.000000	95.791860
3306.000000	95.784801
3305.000000	95.778400
3304.000000	95.769216
3303.000000	95.756580
3302.000000	95.742547
3301.000000	95.730178
3300.000000	95.721797
3299.000000	95.717638
3298.000000	95.715730
3297.000000	95.713648
3296.000000	95.710543
3295.000000	95.707007
3294.000000	95.703244
3293.000000	95.698532
3292.000000	95.692489
3291.000000	95.685685
3290.000000	95.678715
3289.000000	95.671617
3288.000000	95.664611
3287.000000	95.658528
3286.000000	95.653970
3285.000000	95.650697
3284.000000	95.648136
3283.000000	95.645922
3282.000000	95.643790
3281.000000	95.641755
3280.000000	95.640878
3279.000000	95.642935
3278.000000	95.648718
3277.000000	95.657104
3276.000000	95.666301
3275.000000	95.675715
3274.000000	95.685939
3273.000000	95.697229
3272.000000	95.708418
3271.000000	95.717301
3270.000000	95.722250
3269.000000	95.723918
3268.000000	95.725297
3267.000000	95.729337
3266.000000	95.736151
3265.000000	95.743122
3264.000000	95.748248
3263.000000	95.752710
3262.000000	95.759610
3261.000000	95.770495
3260.000000	95.783639
3259.000000	95.795738
3258.000000	95.805199
3257.000000	95.813939
3256.000000	95.825876
3255.000000	95.843070
3254.000000	95.863187
3253.000000	95.881353
3252.000000	95.894602
3251.000000	95.903910
3250.000000	95.912029
3249.000000	95.920539
3248.000000	95.929678
3247.000000	95.939641
3246.000000	95.950437
3245.000000	95.960629
3244.000000	95.967862
3243.000000	95.971392
3242.000000	95.973229
3241.000000	95.976321
3240.000000	95.982240
3239.000000	95.991255
3238.000000	96.003845
3237.000000	96.020621
3236.000000	96.040331
3235.000000	96.059166
3234.000000	96.073314
3233.000000	96.081955
3232.000000	96.086945
3231.000000	96.089817
3230.000000	96.090447
3229.000000	96.088948
3228.000000	96.087359
3227.000000	96.088143
3226.000000	96.091685
3225.000000	96.096600
3224.000000	96.102186
3223.000000	96.109431
3222.000000	96.119519
3221.000000	96.132361
3220.000000	96.146635
3219.000000	96.160190
3218.000000	96.170280
3217.000000	96.174886
3216.000000	96.174934
3215.000000	96.174619
3214.000000	96.178125
3213.000000	96.185841
3212.000000	96.194423
3211.000000	96.200604
3210.000000	96.204215
3209.000000	96.207165
3208.000000	96.210534
3207.000000	96.213848
3206.000000	96.217220
3205.000000	96.222663
3204.000000	96.232028
3203.000000	96.244071
3202.000000	96.255048
3201.000000	96.262445
3200.000000	96.267079
3199.000000	96.271225
3198.000000	96.275940
3197.000000	96.281114
3196.000000	96.286921
3195.000000	96.293828
3194.000000	96.301694
3193.000000	96.310158
3192.000000	96.319601
3191.000000	96.330528
3190.000000	96.342207
3189.000000	96.353124
3188.000000	96.362770
3187.000000	96.371971
3186.000000	96.381653
3185.000000	96.392374
3184.000000	96.404871
3183.000000	96.419462
3182.000000	96.434637
3181.000000	96.447659
3180.000000	96.457178
3179.000000	96.464293
3178.000000	96.470790
3177.000000	96.477627
3176.000000	96.485780
3175.000000	96.496905
3174.000000	96.511655
3173.000000	96.527940
3172.000000	96.542099
3171.000000	96.551782
3170.000000	96.557183
3169.000000	96.560128
3168.000000	96.562883
3167.000000	96.567405
3166.000000	96.574664
3165.000000	96.584341
3164.000000	96.595586
3163.000000	96.607915
3162.000000	96.621177
3161.000000	96.635097
3160.000000	96.649308
3159.000000	96.663447
3158.000000	96.676650
3157.000000	96.687366
3156.000000	96.694583
3155.000000	96.699394
3154.000000	96.704797
3153.000000	96.713504
3152.000000	96.725686
3151.000000	96.738730
3150.000000	96.749386
3149.000000	96.756826
3148.000000	96.763767
3147.000000	96.774053
3146.000000	96.788752
