PE IR       SUBTECH     SPECTRUM    ASCII       PEDS        4.00        
   -1
3C-YYX-C016_1.ASC
23/09/07
11:24:11.00
23/09/07
11:30:09.00
uco
Sample 016 By uco Date Thursday, September 07 2023
450.000000
#HDR
-1
-1
#GR
cm-1
%T
1.0
0.0
4000.000000
-1.000000
3551
8
98.718777
77.915585
#DATA
4000.000000	98.643098
3999.000000	98.642573
3998.000000	98.640704
3997.000000	98.638796
3996.000000	98.637365
3995.000000	98.635911
3994.000000	98.633869
3993.000000	98.631554
3992.000000	98.629965
3991.000000	98.629551
3990.000000	98.629460
3989.000000	98.628397
3988.000000	98.626165
3987.000000	98.623903
3986.000000	98.622683
3985.000000	98.622383
3984.000000	98.622444
3983.000000	98.623255
3982.000000	98.625935
3981.000000	98.630460
3980.000000	98.634559
3979.000000	98.634894
3978.000000	98.629542
3977.000000	98.619561
3976.000000	98.608487
3975.000000	98.600406
3974.000000	98.597757
3973.000000	98.600256
3972.000000	98.605411
3971.000000	98.610006
3970.000000	98.611783
3969.000000	98.610440
3968.000000	98.607723
3967.000000	98.606273
3966.000000	98.607687
3965.000000	98.611458
3964.000000	98.615606
3963.000000	98.618194
3962.000000	98.618351
3961.000000	98.616230
3960.000000	98.612416
3959.000000	98.607745
3958.000000	98.603253
3957.000000	98.599752
3956.000000	98.597538
3955.000000	98.596498
3954.000000	98.596453
3953.000000	98.597233
3952.000000	98.598451
3951.000000	98.599583
3950.000000	98.600243
3949.000000	98.600353
3948.000000	98.599922
3947.000000	98.598744
3946.000000	98.596808
3945.000000	98.594910
3944.000000	98.594568
3943.000000	98.596924
3942.000000	98.601346
3941.000000	98.606030
3940.000000	98.609475
3939.000000	98.610705
3938.000000	98.608919
3937.000000	98.603575
3936.000000	98.595478
3935.000000	98.587272
3934.000000	98.582531
3933.000000	98.584274
3932.000000	98.592936
3931.000000	98.605515
3930.000000	98.616907
3929.000000	98.623008
3928.000000	98.623303
3927.000000	98.620111
3926.000000	98.616227
3925.000000	98.612974
3924.000000	98.610001
3923.000000	98.606504
3922.000000	98.602053
3921.000000	98.596539
3920.000000	98.590475
3919.000000	98.585185
3918.000000	98.582380
3917.000000	98.583180
3916.000000	98.587489
3915.000000	98.594180
3914.000000	98.601181
3913.000000	98.606012
3912.000000	98.606672
3911.000000	98.602695
3910.000000	98.595237
3909.000000	98.586004
3908.000000	98.576686
3907.000000	98.568587
3906.000000	98.562625
3905.000000	98.559558
3904.000000	98.560398
3903.000000	98.566282
3902.000000	98.576721
3901.000000	98.588077
3900.000000	98.596150
3899.000000	98.599732
3898.000000	98.601017
3897.000000	98.602707
3896.000000	98.605093
3895.000000	98.606600
3894.000000	98.606131
3893.000000	98.604029
3892.000000	98.601402
3891.000000	98.598808
3890.000000	98.596462
3889.000000	98.594688
3888.000000	98.593315
3887.000000	98.591488
3886.000000	98.588003
3885.000000	98.582497
3884.000000	98.577744
3883.000000	98.577689
3882.000000	98.583309
3881.000000	98.590871
3880.000000	98.594288
3879.000000	98.591359
3878.000000	98.586016
3877.000000	98.582930
3876.000000	98.583733
3875.000000	98.586690
3874.000000	98.587806
3873.000000	98.584956
3872.000000	98.580988
3871.000000	98.580823
3870.000000	98.585010
3869.000000	98.588718
3868.000000	98.589132
3867.000000	98.588203
3866.000000	98.588781
3865.000000	98.591935
3864.000000	98.596268
3863.000000	98.599110
3862.000000	98.598711
3861.000000	98.595231
3860.000000	98.590764
3859.000000	98.586821
3858.000000	98.582405
3857.000000	98.574377
3856.000000	98.560998
3855.000000	98.544911
3854.000000	98.531311
3853.000000	98.524632
3852.000000	98.527730
3851.000000	98.539393
3850.000000	98.553928
3849.000000	98.565996
3848.000000	98.573304
3847.000000	98.576297
3846.000000	98.576564
3845.000000	98.575680
3844.000000	98.574702
3843.000000	98.573934
3842.000000	98.573199
3841.000000	98.573322
3840.000000	98.576677
3839.000000	98.584550
3838.000000	98.594253
3837.000000	98.601130
3836.000000	98.604169
3835.000000	98.606103
3834.000000	98.608685
3833.000000	98.610786
3832.000000	98.610570
3831.000000	98.607640
3830.000000	98.603416
3829.000000	98.599476
3828.000000	98.596480
3827.000000	98.593876
3826.000000	98.590100
3825.000000	98.584301
3824.000000	98.578082
3823.000000	98.575445
3822.000000	98.578365
3821.000000	98.581706
3820.000000	98.578732
3819.000000	98.571059
3818.000000	98.565129
3817.000000	98.564260
3816.000000	98.567100
3815.000000	98.569746
3814.000000	98.570864
3813.000000	98.571557
3812.000000	98.572213
3811.000000	98.572819
3810.000000	98.573511
3809.000000	98.574399
3808.000000	98.575177
3807.000000	98.575255
3806.000000	98.574862
3805.000000	98.575790
3804.000000	98.579838
3803.000000	98.587978
3802.000000	98.598412
3801.000000	98.605243
3800.000000	98.605238
3799.000000	98.602468
3798.000000	98.600614
3797.000000	98.599397
3796.000000	98.596822
3795.000000	98.592167
3794.000000	98.586857
3793.000000	98.583006
3792.000000	98.582311
3791.000000	98.585533
3790.000000	98.591407
3789.000000	98.596833
3788.000000	98.599671
3787.000000	98.600472
3786.000000	98.601080
3785.000000	98.602054
3784.000000	98.602207
3783.000000	98.600535
3782.000000	98.597643
3781.000000	98.595050
3780.000000	98.593855
3779.000000	98.593741
3778.000000	98.593522
3777.000000	98.593093
3776.000000	98.593550
3775.000000	98.595429
3774.000000	98.597308
3773.000000	98.596818
3772.000000	98.592964
3771.000000	98.587154
3770.000000	98.581934
3769.000000	98.579210
3768.000000	98.580729
3767.000000	98.587351
3766.000000	98.596960
3765.000000	98.604665
3764.000000	98.606777
3763.000000	98.603761
3762.000000	98.598377
3761.000000	98.592703
3760.000000	98.587664
3759.000000	98.583752
3758.000000	98.581263
3757.000000	98.580094
3756.000000	98.580148
3755.000000	98.581628
3754.000000	98.584443
3753.000000	98.587733
3752.000000	98.590055
3751.000000	98.589399
3750.000000	98.584039
3749.000000	98.575717
3748.000000	98.569629
3747.000000	98.570231
3746.000000	98.579068
3745.000000	98.592612
3744.000000	98.603252
3743.000000	98.610549
3742.000000	98.619042
3741.000000	98.626301
3740.000000	98.627146
3739.000000	98.620575
3738.000000	98.610300
3737.000000	98.602645
3736.000000	98.605237
3735.000000	98.621891
3734.000000	98.645084
3733.000000	98.661557
3732.000000	98.665261
3731.000000	98.659477
3730.000000	98.649423
3729.000000	98.637440
3728.000000	98.625487
3727.000000	98.617104
3726.000000	98.614515
3725.000000	98.615943
3724.000000	98.618314
3723.000000	98.620887
3722.000000	98.623971
3721.000000	98.627256
3720.000000	98.630192
3719.000000	98.631923
3718.000000	98.630928
3717.000000	98.626096
3716.000000	98.619104
3715.000000	98.613393
3714.000000	98.609136
3713.000000	98.602018
3712.000000	98.589595
3711.000000	98.578086
3710.000000	98.576263
3709.000000	98.584628
3708.000000	98.597702
3707.000000	98.610405
3706.000000	98.620179
3705.000000	98.627134
3704.000000	98.633174
3703.000000	98.639265
3702.000000	98.643188
3701.000000	98.641504
3700.000000	98.634901
3699.000000	98.627813
3698.000000	98.623066
3697.000000	98.619868
3696.000000	98.616065
3695.000000	98.610682
3694.000000	98.604277
3693.000000	98.599252
3692.000000	98.599736
3691.000000	98.609372
3690.000000	98.624559
3689.000000	98.632788
3688.000000	98.626013
3687.000000	98.611144
3686.000000	98.598961
3685.000000	98.592370
3684.000000	98.588536
3683.000000	98.584249
3682.000000	98.577698
3681.000000	98.567072
3680.000000	98.550915
3679.000000	98.530960
3678.000000	98.513843
3677.000000	98.509469
3676.000000	98.521976
3675.000000	98.538770
3674.000000	98.543663
3673.000000	98.537469
3672.000000	98.530077
3671.000000	98.529456
3670.000000	98.535016
3669.000000	98.537233
3668.000000	98.531599
3667.000000	98.523462
3666.000000	98.517666
3665.000000	98.514405
3664.000000	98.511344
3663.000000	98.506308
3662.000000	98.498495
3661.000000	98.488751
3660.000000	98.479612
3659.000000	98.473673
3658.000000	98.470876
3657.000000	98.467930
3656.000000	98.461895
3655.000000	98.454581
3654.000000	98.449617
3653.000000	98.447415
3652.000000	98.445901
3651.000000	98.442849
3650.000000	98.436363
3649.000000	98.426414
3648.000000	98.415608
3647.000000	98.405512
3646.000000	98.395484
3645.000000	98.385621
3644.000000	98.378219
3643.000000	98.375816
3642.000000	98.377915
3641.000000	98.380306
3640.000000	98.379306
3639.000000	98.375134
3638.000000	98.369607
3637.000000	98.362972
3636.000000	98.354460
3635.000000	98.344600
3634.000000	98.335038
3633.000000	98.326545
3632.000000	98.318550
3631.000000	98.310569
3630.000000	98.302700
3629.000000	98.295020
3628.000000	98.288538
3627.000000	98.285502
3626.000000	98.285347
3625.000000	98.283921
3624.000000	98.279850
3623.000000	98.276330
3622.000000	98.276616
3621.000000	98.279131
3620.000000	98.277062
3619.000000	98.263920
3618.000000	98.240584
3617.000000	98.214152
3616.000000	98.190645
3615.000000	98.171450
3614.000000	98.154119
3613.000000	98.135460
3612.000000	98.115687
3611.000000	98.098211
3610.000000	98.084602
3609.000000	98.074542
3608.000000	98.069627
3607.000000	98.072566
3606.000000	98.082653
3605.000000	98.094691
3604.000000	98.103225
3603.000000	98.104724
3602.000000	98.097478
3601.000000	98.082491
3600.000000	98.064514
3599.000000	98.049105
3598.000000	98.037079
3597.000000	98.024224
3596.000000	98.007185
3595.000000	97.988452
3594.000000	97.973226
3593.000000	97.963814
3592.000000	97.958345
3591.000000	97.954177
3590.000000	97.949187
3589.000000	97.941746
3588.000000	97.931177
3587.000000	97.919064
3586.000000	97.907762
3585.000000	97.898100
3584.000000	97.889858
3583.000000	97.882421
3582.000000	97.874501
3581.000000	97.864495
3580.000000	97.851965
3579.000000	97.838597
3578.000000	97.826144
3577.000000	97.814737
3576.000000	97.803243
3575.000000	97.790477
3574.000000	97.775179
3573.000000	97.756871
3572.000000	97.737824
3571.000000	97.722354
3570.000000	97.712866
3569.000000	97.707120
3568.000000	97.700339
3567.000000	97.690407
3566.000000	97.679200
3565.000000	97.668610
3564.000000	97.659152
3563.000000	97.650920
3562.000000	97.643248
3561.000000	97.634277
3560.000000	97.622213
3559.000000	97.606759
3558.000000	97.588793
3557.000000	97.569372
3556.000000	97.550019
3555.000000	97.532820
3554.000000	97.519084
3553.000000	97.508120
3552.000000	97.498368
3551.000000	97.488944
3550.000000	97.479292
3549.000000	97.468653
3548.000000	97.457201
3547.000000	97.446930
3546.000000	97.439829
3545.000000	97.435362
3544.000000	97.430752
3543.000000	97.423043
3542.000000	97.409911
3541.000000	97.390676
3540.000000	97.368046
3539.000000	97.347303
3538.000000	97.332099
3537.000000	97.321413
3536.000000	97.311500
3535.000000	97.300191
3534.000000	97.288069
3533.000000	97.277071
3532.000000	97.269160
3531.000000	97.265185
3530.000000	97.263291
3529.000000	97.259508
3528.000000	97.251345
3527.000000	97.239778
3526.000000	97.226490
3525.000000	97.211203
3524.000000	97.193474
3523.000000	97.175302
3522.000000	97.159834
3521.000000	97.148405
3520.000000	97.140170
3519.000000	97.133312
3518.000000	97.125224
3517.000000	97.113236
3516.000000	97.097054
3515.000000	97.079901
3514.000000	97.065665
3513.000000	97.055489
3512.000000	97.047852
3511.000000	97.040933
3510.000000	97.033642
3509.000000	97.025389
3508.000000	97.016410
3507.000000	97.007892
3506.000000	97.000526
3505.000000	96.993180
3504.000000	96.983774
3503.000000	96.971187
3502.000000	96.955960
3501.000000	96.939883
3500.000000	96.925294
3499.000000	96.913878
3498.000000	96.905239
3497.000000	96.897179
3496.000000	96.887625
3495.000000	96.875706
3494.000000	96.861107
3493.000000	96.844137
3492.000000	96.826901
3491.000000	96.812529
3490.000000	96.802149
3489.000000	96.793854
3488.000000	96.785367
3487.000000	96.776170
3486.000000	96.766259
3485.000000	96.754755
3484.000000	96.741313
3483.000000	96.727765
3482.000000	96.716727
3481.000000	96.708988
3480.000000	96.703362
3479.000000	96.698243
3478.000000	96.692331
3477.000000	96.684613
3476.000000	96.674861
3475.000000	96.663770
3474.000000	96.652222
3473.000000	96.641013
3472.000000	96.631195
3471.000000	96.623311
3470.000000	96.616039
3469.000000	96.607103
3468.000000	96.595979
3467.000000	96.584278
3466.000000	96.573278
3465.000000	96.562892
3464.000000	96.553441
3463.000000	96.546211
3462.000000	96.540889
3461.000000	96.534298
3460.000000	96.523306
3459.000000	96.507958
3458.000000	96.490733
3457.000000	96.473989
3456.000000	96.459284
3455.000000	96.447919
3454.000000	96.440469
3453.000000	96.436466
3452.000000	96.435174
3451.000000	96.436137
3450.000000	96.438293
3449.000000	96.439470
3448.000000	96.437528
3447.000000	96.431443
3446.000000	96.420788
3445.000000	96.405443
3444.000000	96.386848
3443.000000	96.368713
3442.000000	96.355253
3441.000000	96.348350
3440.000000	96.346548
3439.000000	96.346258
3438.000000	96.343906
3437.000000	96.338068
3436.000000	96.330010
3435.000000	96.321620
3434.000000	96.312884
3433.000000	96.302539
3432.000000	96.290733
3431.000000	96.279392
3430.000000	96.269701
3429.000000	96.261002
3428.000000	96.252593
3427.000000	96.244671
3426.000000	96.236952
3425.000000	96.228082
3424.000000	96.217366
3423.000000	96.205637
3422.000000	96.193666
3421.000000	96.181268
3420.000000	96.168684
3419.000000	96.157248
3418.000000	96.147622
3417.000000	96.138887
3416.000000	96.130149
3415.000000	96.121656
3414.000000	96.113580
3413.000000	96.105062
3412.000000	96.095444
3411.000000	96.085197
3410.000000	96.075037
3409.000000	96.065363
3408.000000	96.057044
3407.000000	96.050946
3406.000000	96.045856
3405.000000	96.038445
3404.000000	96.026575
3403.000000	96.011898
3402.000000	95.998484
3401.000000	95.989710
3400.000000	95.985951
3399.000000	95.983511
3398.000000	95.976009
3397.000000	95.959684
3396.000000	95.938182
3395.000000	95.919829
3394.000000	95.909161
3393.000000	95.903073
3392.000000	95.895891
3391.000000	95.885716
3390.000000	95.874370
3389.000000	95.863710
3388.000000	95.854577
3387.000000	95.847733
3386.000000	95.843263
3385.000000	95.839309
3384.000000	95.833011
3383.000000	95.822604
3382.000000	95.808082
3381.000000	95.790855
3380.000000	95.773398
3379.000000	95.757974
3378.000000	95.744852
3377.000000	95.732589
3376.000000	95.720310
3375.000000	95.708399
3374.000000	95.696886
3373.000000	95.685094
3372.000000	95.673598
3371.000000	95.664523
3370.000000	95.658553
3369.000000	95.652981
3368.000000	95.643843
3367.000000	95.629101
3366.000000	95.609353
3365.000000	95.587110
3364.000000	95.566111
3363.000000	95.549434
3362.000000	95.536802
3361.000000	95.524800
3360.000000	95.510662
3359.000000	95.494626
3358.000000	95.478046
3357.000000	95.460954
3356.000000	95.442764
3355.000000	95.424074
3354.000000	95.406411
3353.000000	95.390890
3352.000000	95.377860
3351.000000	95.366702
3350.000000	95.355230
3349.000000	95.340629
3348.000000	95.321970
3347.000000	95.301095
3346.000000	95.280397
3345.000000	95.260649
3344.000000	95.241402
3343.000000	95.222485
3342.000000	95.204411
3341.000000	95.188068
3340.000000	95.174211
3339.000000	95.162401
3338.000000	95.150613
3337.000000	95.137084
3336.000000	95.122201
3335.000000	95.107050
3334.000000	95.090683
3333.000000	95.071180
3332.000000	95.049539
3331.000000	95.029844
3330.000000	95.014916
3329.000000	95.003751
3328.000000	94.993610
3327.000000	94.982391
3326.000000	94.968392
3325.000000	94.950444
3324.000000	94.929852
3323.000000	94.910355
3322.000000	94.894469
3321.000000	94.881168
3320.000000	94.867948
3319.000000	94.853652
3318.000000	94.838508
3317.000000	94.823047
3316.000000	94.808021
3315.000000	94.794117
3314.000000	94.780851
3313.000000	94.766959
3312.000000	94.752233
3311.000000	94.737500
3310.000000	94.722729
3309.000000	94.707273
3308.000000	94.692449
3307.000000	94.681160
3306.000000	94.673744
3305.000000	94.666412
3304.000000	94.655204
3303.000000	94.639956
3302.000000	94.623392
3301.000000	94.607987
3300.000000	94.594937
3299.000000	94.584488
3298.000000	94.575637
3297.000000	94.566622
3296.000000	94.556567
3295.000000	94.545702
3294.000000	94.533802
3293.000000	94.520342
3292.000000	94.506692
3291.000000	94.495931
3290.000000	94.489563
3289.000000	94.486275
3288.000000	94.484747
3287.000000	94.485351
3286.000000	94.487851
3285.000000	94.489861
3284.000000	94.489187
3283.000000	94.486127
3282.000000	94.482342
3281.000000	94.479181
3280.000000	94.478502
3279.000000	94.482703
3278.000000	94.492068
3277.000000	94.503694
3276.000000	94.514879
3275.000000	94.526367
3274.000000	94.540256
3273.000000	94.556165
3272.000000	94.571050
3271.000000	94.581829
3270.000000	94.587060
3269.000000	94.587599
3268.000000	94.587209
3267.000000	94.591017
3266.000000	94.601424
3265.000000	94.616132
3264.000000	94.631400
3263.000000	94.645899
3262.000000	94.660304
3261.000000	94.674824
3260.000000	94.689108
3259.000000	94.703600
3258.000000	94.719275
3257.000000	94.736666
3256.000000	94.756256
3255.000000	94.778833
3254.000000	94.804106
3253.000000	94.829928
3252.000000	94.854043
3251.000000	94.875656
3250.000000	94.894360
3249.000000	94.909187
3248.000000	94.920498
3247.000000	94.931314
3246.000000	94.944574
3245.000000	94.959274
3244.000000	94.971292
3243.000000	94.978270
3242.000000	94.982244
3241.000000	94.987640
3240.000000	94.997836
3239.000000	95.013662
3238.000000	95.033969
3237.000000	95.056670
3236.000000	95.079244
3235.000000	95.098920
3234.000000	95.113618
3233.000000	95.123608
3232.000000	95.131507
3231.000000	95.139452
3230.000000	95.146770
3229.000000	95.151792
3228.000000	95.155410
3227.000000	95.160826
3226.000000	95.169752
3225.000000	95.180938
3224.000000	95.192497
3223.000000	95.203623
3222.000000	95.213746
3221.000000	95.222453
3220.000000	95.231175
3219.000000	95.242508
3218.000000	95.256390
3217.000000	95.268980
3216.000000	95.276798
3215.000000	95.280580
3214.000000	95.283638
3213.000000	95.287840
3212.000000	95.292922
3211.000000	95.298561
3210.000000	95.305232
3209.000000	95.313148
3208.000000	95.321779
3207.000000	95.330546
3206.000000	95.339591
3205.000000	95.349913
3204.000000	95.362647
3203.000000	95.377433
3202.000000	95.391857
3201.000000	95.403588
3200.000000	95.413014
3199.000000	95.422492
3198.000000	95.433152
3197.000000	95.444066
3196.000000	95.454334
3195.000000	95.463967
3194.000000	95.472476
3193.000000	95.478972
3192.000000	95.484427
3191.000000	95.491886
3190.000000	95.503458
3189.000000	95.518662
3188.000000	95.536115
3187.000000	95.554796
3186.000000	95.572982
3185.000000	95.588235
3184.000000	95.599957
3183.000000	95.610190
3182.000000	95.620885
3181.000000	95.631936
3180.000000	95.642828
3179.000000	95.654080
3178.000000	95.665854
3177.000000	95.677136
3176.000000	95.688044
3175.000000	95.701065
3174.000000	95.718046
3173.000000	95.737290
3172.000000	95.755265
3171.000000	95.770152
3170.000000	95.782154
3169.000000	95.791746
3168.000000	95.799640
3167.000000	95.807651
3166.000000	95.817642
3165.000000	95.829718
3164.000000	95.842714
3163.000000	95.855972
3162.000000	95.869551
3161.000000	95.883304
3160.000000	95.897019
3159.000000	95.911160
3158.000000	95.926348
3157.000000	95.942165
3156.000000	95.957208
3155.000000	95.970299
3154.000000	95.981396
3153.000000	95.991759
3152.000000	96.003145
3151.000000	96.015994
3150.000000	96.028468
3149.000000	96.038492
3148.000000	96.046703
3147.000000	96.055830
3146.000000	96.066880
