PE IR       SUBTECH     SPECTRUM    ASCII       PEDS        4.00        
   -1
3C-XXX-C005_1.ASC
23/09/07
10:23:11.00
23/09/07
11:30:09.00
uco
Sample 005 By uco Date Thursday, September 07 2023
450.000000
#HDR
-1
-1
#GR
cm-1
%T
1.0
0.0
4000.000000
-1.000000
3551
8
99.056383
89.477411
#DATA
4000.000000	98.981077
3999.000000	98.980802
3998.000000	98.980535
3997.000000	98.980316
3996.000000	98.980115
3995.000000	98.984130
3994.000000	98.989456
3993.000000	98.992428
3992.000000	98.991265
3991.000000	98.987202
3990.000000	98.983427
3989.000000	98.982510
3988.000000	98.984583
3987.000000	98.987434
3986.000000	98.988201
3985.000000	98.985521
3984.000000	98.980503
3983.000000	98.975830
3982.000000	98.973697
3981.000000	98.974282
3980.000000	98.976085
3979.000000	98.977429
3978.000000	98.977492
3977.000000	98.976254
3976.000000	98.974025
3975.000000	98.971357
3974.000000	98.969214
3973.000000	98.968802
3972.000000	98.970841
3971.000000	98.974842
3970.000000	98.979165
3969.000000	98.981942
3968.000000	98.982291
3967.000000	98.980757
3966.000000	98.978641
3965.000000	98.977116
3964.000000	98.976842
3963.000000	98.978013
3962.000000	98.980228
3961.000000	98.982202
3960.000000	98.982095
3959.000000	98.978489
3958.000000	98.971302
3957.000000	98.961964
3956.000000	98.952771
3955.000000	98.945859
3954.000000	98.942212
3953.000000	98.941361
3952.000000	98.942203
3951.000000	98.944262
3950.000000	98.948099
3949.000000	98.954073
3948.000000	98.960821
3947.000000	98.965557
3946.000000	98.966164
3945.000000	98.962677
3944.000000	98.957108
3943.000000	98.952403
3942.000000	98.951081
3941.000000	98.954085
3940.000000	98.960094
3939.000000	98.965779
3938.000000	98.967402
3937.000000	98.963108
3936.000000	98.954578
3935.000000	98.946461
3934.000000	98.943757
3933.000000	98.948987
3932.000000	98.960570
3931.000000	98.973462
3930.000000	98.981970
3929.000000	98.982667
3928.000000	98.975801
3927.000000	98.965126
3926.000000	98.956087
3925.000000	98.952510
3924.000000	98.953877
3923.000000	98.956449
3922.000000	98.957234
3921.000000	98.955870
3920.000000	98.953406
3919.000000	98.950688
3918.000000	98.948342
3917.000000	98.947520
3916.000000	98.949300
3915.000000	98.953092
3914.000000	98.956517
3913.000000	98.957201
3912.000000	98.954424
3911.000000	98.949374
3910.000000	98.944037
3909.000000	98.939604
3908.000000	98.935807
3907.000000	98.931386
3906.000000	98.925555
3905.000000	98.919750
3904.000000	98.917582
3903.000000	98.921586
3902.000000	98.930121
3901.000000	98.938749
3900.000000	98.944222
3899.000000	98.946144
3898.000000	98.945682
3897.000000	98.943951
3896.000000	98.941802
3895.000000	98.940171
3894.000000	98.940019
3893.000000	98.942249
3892.000000	98.947123
3891.000000	98.952947
3890.000000	98.956427
3889.000000	98.955501
3888.000000	98.951001
3887.000000	98.945772
3886.000000	98.942599
3885.000000	98.941729
3884.000000	98.940698
3883.000000	98.937844
3882.000000	98.934293
3881.000000	98.932049
3880.000000	98.931557
3879.000000	98.931220
3878.000000	98.929607
3877.000000	98.927754
3876.000000	98.928363
3875.000000	98.932802
3874.000000	98.938854
3873.000000	98.942304
3872.000000	98.941325
3871.000000	98.938817
3870.000000	98.939771
3869.000000	98.945522
3868.000000	98.952262
3867.000000	98.956501
3866.000000	98.958734
3865.000000	98.961274
3864.000000	98.964584
3863.000000	98.966159
3862.000000	98.963139
3861.000000	98.955412
3860.000000	98.945632
3859.000000	98.936854
3858.000000	98.930169
3857.000000	98.923962
3856.000000	98.916052
3855.000000	98.907727
3854.000000	98.905639
3853.000000	98.914198
3852.000000	98.926314
3851.000000	98.934592
3850.000000	98.940119
3849.000000	98.944352
3848.000000	98.945756
3847.000000	98.943195
3846.000000	98.937787
3845.000000	98.931524
3844.000000	98.925378
3843.000000	98.919228
3842.000000	98.913109
3841.000000	98.908375
3840.000000	98.907126
3839.000000	98.910361
3838.000000	98.916922
3837.000000	98.924759
3836.000000	98.932686
3835.000000	98.940027
3834.000000	98.945779
3833.000000	98.948703
3832.000000	98.948086
3831.000000	98.944584
3830.000000	98.939859
3829.000000	98.935539
3828.000000	98.932729
3827.000000	98.931608
3826.000000	98.930874
3825.000000	98.928480
3824.000000	98.923799
3823.000000	98.919236
3822.000000	98.919309
3821.000000	98.925638
3820.000000	98.932922
3819.000000	98.935691
3818.000000	98.935278
3817.000000	98.936059
3816.000000	98.940380
3815.000000	98.946327
3814.000000	98.949832
3813.000000	98.949589
3812.000000	98.947728
3811.000000	98.946474
3810.000000	98.945989
3809.000000	98.945143
3808.000000	98.942913
3807.000000	98.939228
3806.000000	98.934855
3805.000000	98.930931
3804.000000	98.929582
3803.000000	98.933662
3802.000000	98.943734
3801.000000	98.954559
3800.000000	98.958328
3799.000000	98.952891
3798.000000	98.942560
3797.000000	98.933060
3796.000000	98.927370
3795.000000	98.924944
3794.000000	98.924251
3793.000000	98.924926
3792.000000	98.927192
3791.000000	98.930267
3790.000000	98.932520
3789.000000	98.933219
3788.000000	98.933466
3787.000000	98.935050
3786.000000	98.938346
3785.000000	98.941421
3784.000000	98.941813
3783.000000	98.939352
3782.000000	98.936498
3781.000000	98.936111
3780.000000	98.938665
3779.000000	98.941349
3778.000000	98.940780
3777.000000	98.936796
3776.000000	98.932484
3775.000000	98.931067
3774.000000	98.933205
3773.000000	98.936567
3772.000000	98.938015
3771.000000	98.936518
3770.000000	98.934041
3769.000000	98.933324
3768.000000	98.935496
3767.000000	98.940314
3766.000000	98.946759
3765.000000	98.952273
3764.000000	98.953613
3763.000000	98.949660
3762.000000	98.942628
3761.000000	98.936061
3760.000000	98.931783
3759.000000	98.928976
3758.000000	98.926424
3757.000000	98.924885
3756.000000	98.925877
3755.000000	98.929644
3754.000000	98.935556
3753.000000	98.943447
3752.000000	98.953429
3751.000000	98.963738
3750.000000	98.970170
3749.000000	98.970364
3748.000000	98.966669
3747.000000	98.964011
3746.000000	98.966961
3745.000000	98.975316
3744.000000	98.981407
3743.000000	98.977268
3742.000000	98.964499
3741.000000	98.951759
3740.000000	98.944550
3739.000000	98.941956
3738.000000	98.942728
3737.000000	98.947624
3736.000000	98.955636
3735.000000	98.963117
3734.000000	98.968368
3733.000000	98.973382
3732.000000	98.979393
3731.000000	98.984967
3730.000000	98.989054
3729.000000	98.992013
3728.000000	98.993555
3727.000000	98.991976
3726.000000	98.986412
3725.000000	98.978880
3724.000000	98.972901
3723.000000	98.970094
3722.000000	98.968891
3721.000000	98.967115
3720.000000	98.964896
3719.000000	98.964012
3718.000000	98.965045
3717.000000	98.966534
3716.000000	98.966634
3715.000000	98.964674
3714.000000	98.961164
3713.000000	98.957194
3712.000000	98.954232
3711.000000	98.953254
3710.000000	98.954366
3709.000000	98.956423
3708.000000	98.957591
3707.000000	98.957338
3706.000000	98.957675
3705.000000	98.960934
3704.000000	98.966610
3703.000000	98.971722
3702.000000	98.973461
3701.000000	98.972526
3700.000000	98.971962
3699.000000	98.973532
3698.000000	98.975850
3697.000000	98.976158
3696.000000	98.972736
3695.000000	98.966375
3694.000000	98.959936
3693.000000	98.956337
3692.000000	98.957014
3691.000000	98.961271
3690.000000	98.967546
3689.000000	98.974067
3688.000000	98.979377
3687.000000	98.982164
3686.000000	98.982159
3685.000000	98.980792
3684.000000	98.979377
3683.000000	98.977238
3682.000000	98.972408
3681.000000	98.963788
3680.000000	98.951692
3679.000000	98.938047
3678.000000	98.926043
3677.000000	98.920356
3676.000000	98.924372
3675.000000	98.933419
3674.000000	98.937063
3673.000000	98.931923
3672.000000	98.923536
3671.000000	98.918954
3670.000000	98.920655
3669.000000	98.923813
3668.000000	98.921989
3667.000000	98.914455
3666.000000	98.905343
3665.000000	98.898590
3664.000000	98.894841
3663.000000	98.891633
3662.000000	98.886439
3661.000000	98.879273
3660.000000	98.872596
3659.000000	98.868973
3658.000000	98.868999
3657.000000	98.870874
3656.000000	98.871367
3655.000000	98.867985
3654.000000	98.860588
3653.000000	98.850383
3652.000000	98.837574
3651.000000	98.821217
3650.000000	98.802262
3649.000000	98.785963
3648.000000	98.778379
3647.000000	98.779454
3646.000000	98.782314
3645.000000	98.780659
3644.000000	98.774051
3643.000000	98.765761
3642.000000	98.758666
3641.000000	98.753614
3640.000000	98.750231
3639.000000	98.748138
3638.000000	98.746663
3637.000000	98.744159
3636.000000	98.738807
3635.000000	98.730353
3634.000000	98.720441
3633.000000	98.711187
3632.000000	98.703928
3631.000000	98.699269
3630.000000	98.696702
3629.000000	98.693133
3628.000000	98.684003
3627.000000	98.669074
3626.000000	98.653854
3625.000000	98.643392
3624.000000	98.638131
3623.000000	98.634738
3622.000000	98.629523
3621.000000	98.621097
3620.000000	98.610621
3619.000000	98.600086
3618.000000	98.590048
3617.000000	98.580045
3616.000000	98.570268
3615.000000	98.561127
3614.000000	98.551581
3613.000000	98.539132
3612.000000	98.522256
3611.000000	98.502309
3610.000000	98.482845
3609.000000	98.467724
3608.000000	98.459329
3607.000000	98.457007
3606.000000	98.457701
3605.000000	98.458368
3604.000000	98.457561
3603.000000	98.455268
3602.000000	98.451382
3601.000000	98.444971
3600.000000	98.435082
3599.000000	98.422224
3598.000000	98.407960
3597.000000	98.393313
3596.000000	98.378174
3595.000000	98.362130
3594.000000	98.345421
3593.000000	98.328872
3592.000000	98.313321
3591.000000	98.298924
3590.000000	98.285370
3589.000000	98.272338
3588.000000	98.260480
3587.000000	98.250916
3586.000000	98.243819
3585.000000	98.238028
3584.000000	98.232110
3583.000000	98.225496
3582.000000	98.218149
3581.000000	98.209691
3580.000000	98.199570
3579.000000	98.188108
3578.000000	98.176365
3577.000000	98.165074
3576.000000	98.153840
3575.000000	98.141376
3574.000000	98.126537
3573.000000	98.109085
3572.000000	98.090123
3571.000000	98.071632
3570.000000	98.055702
3569.000000	98.043216
3568.000000	98.032767
3567.000000	98.020827
3566.000000	98.004913
3565.000000	97.986133
3564.000000	97.967377
3563.000000	97.950946
3562.000000	97.938657
3561.000000	97.931408
3560.000000	97.927939
3559.000000	97.924529
3558.000000	97.916738
3557.000000	97.902117
3556.000000	97.881488
3555.000000	97.857664
3554.000000	97.833378
3553.000000	97.810372
3552.000000	97.789765
3551.000000	97.772105
3550.000000	97.757035
3549.000000	97.743900
3548.000000	97.733099
3547.000000	97.726200
3546.000000	97.723830
3545.000000	97.723343
3544.000000	97.719607
3543.000000	97.708498
3542.000000	97.689458
3541.000000	97.665292
3540.000000	97.640157
3539.000000	97.617337
3538.000000	97.597939
3537.000000	97.580954
3536.000000	97.564376
3535.000000	97.546750
3534.000000	97.528408
3533.000000	97.511680
3532.000000	97.499627
3531.000000	97.493517
3530.000000	97.490847
3529.000000	97.486481
3528.000000	97.476795
3527.000000	97.462687
3526.000000	97.447870
3525.000000	97.434605
3524.000000	97.421889
3523.000000	97.407419
3522.000000	97.390290
3521.000000	97.371336
3520.000000	97.351695
3519.000000	97.332010
3518.000000	97.312720
3517.000000	97.294341
3516.000000	97.277399
3515.000000	97.262520
3514.000000	97.250543
3513.000000	97.241861
3512.000000	97.235315
3511.000000	97.228260
3510.000000	97.218443
3509.000000	97.205890
3508.000000	97.192493
3507.000000	97.179864
3506.000000	97.168186
3505.000000	97.156831
3504.000000	97.145194
3503.000000	97.133075
3502.000000	97.120919
3501.000000	97.109659
3500.000000	97.099877
3499.000000	97.091210
3498.000000	97.082922
3497.000000	97.074803
3496.000000	97.066855
3495.000000	97.058016
3494.000000	97.046255
3493.000000	97.030778
3492.000000	97.013526
3491.000000	96.997723
3490.000000	96.985158
3489.000000	96.975329
3488.000000	96.966778
3487.000000	96.958291
3486.000000	96.948761
3485.000000	96.936957
3484.000000	96.922372
3483.000000	96.906397
3482.000000	96.892049
3481.000000	96.881760
3480.000000	96.875123
3479.000000	96.869092
3478.000000	96.860727
3477.000000	96.849637
3476.000000	96.837867
3475.000000	96.827872
3474.000000	96.820784
3473.000000	96.816071
3472.000000	96.811764
3471.000000	96.805000
3470.000000	96.793780
3469.000000	96.779158
3468.000000	96.764988
3467.000000	96.754447
3466.000000	96.747083
3465.000000	96.740154
3464.000000	96.732260
3463.000000	96.724414
3462.000000	96.717605
3461.000000	96.710739
3460.000000	96.701661
3459.000000	96.689459
3458.000000	96.675034
3457.000000	96.659905
3456.000000	96.645208
3455.000000	96.631675
3454.000000	96.619843
3453.000000	96.609891
3452.000000	96.601485
3451.000000	96.594217
3450.000000	96.588280
3449.000000	96.584328
3448.000000	96.582193
3447.000000	96.579790
3446.000000	96.573970
3445.000000	96.562880
3444.000000	96.547369
3443.000000	96.530533
3442.000000	96.516248
3441.000000	96.507330
3440.000000	96.503902
3439.000000	96.503205
3438.000000	96.501577
3437.000000	96.497083
3436.000000	96.490023
3435.000000	96.480988
3434.000000	96.469498
3433.000000	96.455191
3432.000000	96.439465
3431.000000	96.424806
3430.000000	96.412654
3429.000000	96.402697
3428.000000	96.393972
3427.000000	96.385718
3426.000000	96.377275
3425.000000	96.368288
3424.000000	96.359320
3423.000000	96.351465
3422.000000	96.344812
3421.000000	96.337853
3420.000000	96.329083
3419.000000	96.318907
3418.000000	96.309210
3417.000000	96.301045
3416.000000	96.293451
3415.000000	96.284863
3414.000000	96.275381
3413.000000	96.266868
3412.000000	96.260369
3411.000000	96.254142
3410.000000	96.245273
3409.000000	96.233330
3408.000000	96.221415
3407.000000	96.212990
3406.000000	96.208284
3405.000000	96.204338
3404.000000	96.198014
3403.000000	96.188314
3402.000000	96.176372
3401.000000	96.164417
3400.000000	96.154734
3399.000000	96.148315
3398.000000	96.143620
3397.000000	96.137175
3396.000000	96.126395
3395.000000	96.112004
3394.000000	96.097376
3393.000000	96.085443
3392.000000	96.076379
3391.000000	96.068331
3390.000000	96.060105
3389.000000	96.052538
3388.000000	96.047115
3387.000000	96.043700
3386.000000	96.040059
3385.000000	96.033651
3384.000000	96.023574
3383.000000	96.010872
3382.000000	95.997546
3381.000000	95.985540
3380.000000	95.976091
3379.000000	95.969168
3378.000000	95.963186
3377.000000	95.955414
3376.000000	95.943156
3375.000000	95.925396
3374.000000	95.903968
3373.000000	95.882966
3372.000000	95.866154
3371.000000	95.854295
3370.000000	95.844931
3369.000000	95.834651
3368.000000	95.821444
3367.000000	95.805325
3366.000000	95.787608
3365.000000	95.769938
3364.000000	95.753258
3363.000000	95.737110
3362.000000	95.720145
3361.000000	95.701663
3360.000000	95.682376
3359.000000	95.663387
3358.000000	95.644736
3357.000000	95.625350
3356.000000	95.604285
3355.000000	95.581824
3354.000000	95.559357
3353.000000	95.538181
3352.000000	95.518206
3351.000000	95.497897
3350.000000	95.475890
3349.000000	95.452559
3348.000000	95.429556
3347.000000	95.407917
3346.000000	95.387240
3345.000000	95.366690
3344.000000	95.345929
3343.000000	95.324837
3342.000000	95.303205
3341.000000	95.281325
3340.000000	95.260216
3339.000000	95.240603
3338.000000	95.222002
3337.000000	95.203190
3336.000000	95.183345
3335.000000	95.162514
3334.000000	95.141464
3333.000000	95.121298
3332.000000	95.102628
3331.000000	95.084805
3330.000000	95.066550
3329.000000	95.047679
3328.000000	95.029514
3327.000000	95.013233
3326.000000	94.998597
3325.000000	94.984820
3324.000000	94.971874
3323.000000	94.959984
3322.000000	94.948434
3321.000000	94.936065
3320.000000	94.922743
3319.000000	94.909539
3318.000000	94.897436
3317.000000	94.886431
3316.000000	94.876041
3315.000000	94.866283
3314.000000	94.857882
3313.000000	94.851284
3312.000000	94.845234
3311.000000	94.836798
3310.000000	94.823853
3309.000000	94.807810
3308.000000	94.792861
3307.000000	94.781968
3306.000000	94.774397
3305.000000	94.767517
3304.000000	94.759813
3303.000000	94.751609
3302.000000	94.744153
3301.000000	94.739203
3300.000000	94.738488
3299.000000	94.741742
3298.000000	94.745483
3297.000000	94.745184
3296.000000	94.739102
3295.000000	94.729592
3294.000000	94.720894
3293.000000	94.716260
3292.000000	94.716366
3291.000000	94.719002
3290.000000	94.720360
3289.000000	94.717849
3288.000000	94.712180
3287.000000	94.706393
3286.000000	94.703067
3285.000000	94.702860
3284.000000	94.704797
3283.000000	94.706770
3282.000000	94.706358
3281.000000	94.703065
3280.000000	94.700144
3279.000000	94.702502
3278.000000	94.711865
3277.000000	94.724600
3276.000000	94.735058
3275.000000	94.740783
3274.000000	94.743928
3273.000000	94.748306
3272.000000	94.755656
3271.000000	94.764224
3270.000000	94.770369
3269.000000	94.771756
3268.000000	94.769617
3267.000000	94.768004
3266.000000	94.770558
3265.000000	94.777900
3264.000000	94.788143
3263.000000	94.799371
3262.000000	94.811014
3261.000000	94.822937
3260.000000	94.833871
3259.000000	94.841601
3258.000000	94.845290
3257.000000	94.847491
3256.000000	94.853094
3255.000000	94.865393
3254.000000	94.882950
3253.000000	94.900662
3252.000000	94.913884
3251.000000	94.921445
3250.000000	94.925374
3249.000000	94.928777
3248.000000	94.934168
3247.000000	94.942665
3246.000000	94.953573
3245.000000	94.964644
3244.000000	94.973459
3243.000000	94.979054
3242.000000	94.982273
3241.000000	94.984696
3240.000000	94.987551
3239.000000	94.991745
3238.000000	94.998429
3237.000000	95.008712
3236.000000	95.022433
3235.000000	95.037731
3234.000000	95.052442
3233.000000	95.065729
3232.000000	95.077791
3231.000000	95.088200
3230.000000	95.095606
3229.000000	95.099482
3228.000000	95.101402
3227.000000	95.103941
3226.000000	95.108640
3225.000000	95.115467
3224.000000	95.123628
3223.000000	95.132200
3222.000000	95.140542
3221.000000	95.149094
3220.000000	95.159684
3219.000000	95.173769
3218.000000	95.189804
3217.000000	95.203265
3216.000000	95.210079
3215.000000	95.210157
3214.000000	95.207289
3213.000000	95.205681
3212.000000	95.207010
3211.000000	95.210572
3210.000000	95.215317
3209.000000	95.220862
3208.000000	95.226916
3207.000000	95.233064
3206.000000	95.239753
3205.000000	95.248734
3204.000000	95.261417
3203.000000	95.276768
3202.000000	95.291841
3201.000000	95.304555
3200.000000	95.315331
3199.000000	95.325906
3198.000000	95.337337
3197.000000	95.349456
3196.000000	95.361233
3195.000000	95.371082
3194.000000	95.377793
3193.000000	95.382317
3192.000000	95.388192
3191.000000	95.398874
3190.000000	95.414511
3189.000000	95.431955
3188.000000	95.447921
3187.000000	95.461437
3186.000000	95.473584
3185.000000	95.486080
3184.000000	95.500303
3183.000000	95.516504
3182.000000	95.533074
3181.000000	95.547241
3180.000000	95.557409
3179.000000	95.564820
3178.000000	95.572606
3177.000000	95.583361
3176.000000	95.597934
3175.000000	95.615867
3174.000000	95.635869
3173.000000	95.655696
3172.000000	95.672629
3171.000000	95.685056
3170.000000	95.693564
3169.000000	95.700245
3168.000000	95.707086
3167.000000	95.715189
3166.000000	95.725126
3165.000000	95.737217
3164.000000	95.751211
3163.000000	95.766098
3162.000000	95.780699
3161.000000	95.794530
3160.000000	95.808066
3159.000000	95.822281
3158.000000	95.837762
3157.000000	95.853844
3156.000000	95.868743
3155.000000	95.881275
3154.000000	95.892836
3153.000000	95.906838
3152.000000	95.925203
3151.000000	95.945676
3150.000000	95.963546
3149.000000	95.976066
3148.000000	95.984463
3147.000000	95.991850
3146.000000	96.000386
