PE IR       SUBTECH     SPECTRUM    ASCII       PEDS        4.00        
   -1
3C-YYX-C019_1.ASC
23/09/07
11:26:45.00
23/09/07
11:30:09.00
uco
Sample 019 By uco Date Thursday, September 07 2023
450.000000
#HDR
-1
-1
#GR
cm-1
%T
1.0
0.0
4000.000000
-1.000000
3551
8
98.412638
75.401920
#DATA
4000.000000	98.342732
3999.000000	98.338282
3998.000000	98.332593
3997.000000	98.328846
3996.000000	98.328874
3995.000000	98.331814
3994.000000	98.334710
3993.000000	98.334663
3992.000000	98.330778
3991.000000	98.324347
3990.000000	98.317552
3989.000000	98.311919
3988.000000	98.307898
3987.000000	98.305371
3986.000000	98.304185
3985.000000	98.304300
3984.000000	98.305677
3983.000000	98.308064
3982.000000	98.310823
3981.000000	98.313022
3980.000000	98.313770
3979.000000	98.312530
3978.000000	98.309310
3977.000000	98.304859
3976.000000	98.300713
3975.000000	98.298675
3974.000000	98.299725
3973.000000	98.303406
3972.000000	98.308305
3971.000000	98.313005
3970.000000	98.316667
3969.000000	98.318886
3968.000000	98.319485
3967.000000	98.318357
3966.000000	98.315413
3965.000000	98.310828
3964.000000	98.305422
3963.000000	98.300543
3962.000000	98.297214
3961.000000	98.295485
3960.000000	98.294551
3959.000000	98.293473
3958.000000	98.291760
3957.000000	98.289390
3956.000000	98.286921
3955.000000	98.285329
3954.000000	98.285366
3953.000000	98.287038
3952.000000	98.289716
3951.000000	98.292791
3950.000000	98.295820
3949.000000	98.298163
3948.000000	98.298972
3947.000000	98.297828
3946.000000	98.295488
3945.000000	98.293623
3944.000000	98.293758
3943.000000	98.296305
3942.000000	98.300096
3941.000000	98.303569
3940.000000	98.305870
3939.000000	98.306444
3938.000000	98.304636
3937.000000	98.300086
3936.000000	98.293914
3935.000000	98.288776
3934.000000	98.287403
3933.000000	98.291139
3932.000000	98.298824
3931.000000	98.307215
3930.000000	98.312618
3929.000000	98.313070
3928.000000	98.309720
3927.000000	98.305321
3926.000000	98.301836
3925.000000	98.299380
3924.000000	98.297486
3923.000000	98.296547
3922.000000	98.296858
3921.000000	98.296883
3920.000000	98.294157
3919.000000	98.287930
3918.000000	98.280753
3917.000000	98.276946
3916.000000	98.279166
3915.000000	98.286472
3914.000000	98.294909
3913.000000	98.299989
3912.000000	98.299139
3911.000000	98.293015
3910.000000	98.284590
3909.000000	98.276475
3908.000000	98.269889
3907.000000	98.264935
3906.000000	98.261464
3905.000000	98.259649
3904.000000	98.260542
3903.000000	98.266168
3902.000000	98.277419
3901.000000	98.291203
3900.000000	98.301976
3899.000000	98.306048
3898.000000	98.304288
3897.000000	98.300330
3896.000000	98.296487
3895.000000	98.292955
3894.000000	98.290027
3893.000000	98.289128
3892.000000	98.291372
3891.000000	98.295115
3890.000000	98.297465
3889.000000	98.297339
3888.000000	98.295327
3887.000000	98.292285
3886.000000	98.288615
3885.000000	98.284759
3884.000000	98.283449
3883.000000	98.287697
3882.000000	98.296404
3881.000000	98.303058
3880.000000	98.300387
3879.000000	98.288649
3878.000000	98.276108
3877.000000	98.270248
3876.000000	98.272961
3875.000000	98.280526
3874.000000	98.285518
3873.000000	98.282875
3872.000000	98.274472
3871.000000	98.266207
3870.000000	98.261787
3869.000000	98.261153
3868.000000	98.264584
3867.000000	98.272867
3866.000000	98.284479
3865.000000	98.295773
3864.000000	98.303349
3863.000000	98.306028
3862.000000	98.304347
3861.000000	98.299158
3860.000000	98.292281
3859.000000	98.284942
3858.000000	98.276115
3857.000000	98.263053
3856.000000	98.245757
3855.000000	98.229895
3854.000000	98.222021
3853.000000	98.223522
3852.000000	98.233453
3851.000000	98.249790
3850.000000	98.266742
3849.000000	98.278863
3848.000000	98.284882
3847.000000	98.286775
3846.000000	98.286301
3845.000000	98.283330
3844.000000	98.277230
3843.000000	98.269224
3842.000000	98.262808
3841.000000	98.261619
3840.000000	98.266687
3839.000000	98.274746
3838.000000	98.280840
3837.000000	98.283519
3836.000000	98.286312
3835.000000	98.292319
3834.000000	98.300003
3833.000000	98.305144
3832.000000	98.305318
3831.000000	98.301796
3830.000000	98.297797
3829.000000	98.295050
3828.000000	98.292883
3827.000000	98.289171
3826.000000	98.282250
3825.000000	98.273248
3824.000000	98.266618
3823.000000	98.267936
3822.000000	98.277464
3821.000000	98.285308
3820.000000	98.282409
3819.000000	98.273475
3818.000000	98.268602
3817.000000	98.271349
3816.000000	98.277383
3815.000000	98.280423
3814.000000	98.280309
3813.000000	98.280066
3812.000000	98.279796
3811.000000	98.278247
3810.000000	98.275594
3809.000000	98.273799
3808.000000	98.274450
3807.000000	98.276206
3806.000000	98.276168
3805.000000	98.274145
3804.000000	98.272710
3803.000000	98.275250
3802.000000	98.282180
3801.000000	98.287764
3800.000000	98.287372
3799.000000	98.284125
3798.000000	98.281609
3797.000000	98.280435
3796.000000	98.280049
3795.000000	98.280264
3794.000000	98.281175
3793.000000	98.282616
3792.000000	98.284810
3791.000000	98.289037
3790.000000	98.295946
3789.000000	98.303926
3788.000000	98.310543
3787.000000	98.314214
3786.000000	98.314144
3785.000000	98.310224
3784.000000	98.304283
3783.000000	98.300218
3782.000000	98.301137
3781.000000	98.306112
3780.000000	98.310466
3779.000000	98.309610
3778.000000	98.303484
3777.000000	98.296256
3776.000000	98.292135
3775.000000	98.292716
3774.000000	98.297032
3773.000000	98.303010
3772.000000	98.308770
3771.000000	98.312836
3770.000000	98.314032
3769.000000	98.312433
3768.000000	98.310752
3767.000000	98.311630
3766.000000	98.314303
3765.000000	98.315308
3764.000000	98.312677
3763.000000	98.308113
3762.000000	98.304432
3761.000000	98.302554
3760.000000	98.301844
3759.000000	98.301748
3758.000000	98.302263
3757.000000	98.303132
3756.000000	98.303931
3755.000000	98.304417
3754.000000	98.303933
3753.000000	98.301085
3752.000000	98.295051
3751.000000	98.286615
3750.000000	98.277018
3749.000000	98.267779
3748.000000	98.261776
3747.000000	98.262444
3746.000000	98.271976
3745.000000	98.286736
3744.000000	98.297055
3743.000000	98.302044
3742.000000	98.308009
3741.000000	98.312741
3740.000000	98.310711
3739.000000	98.302373
3738.000000	98.293785
3737.000000	98.291397
3736.000000	98.299733
3735.000000	98.319707
3734.000000	98.344056
3733.000000	98.360796
3732.000000	98.363744
3731.000000	98.356076
3730.000000	98.344250
3729.000000	98.331892
3728.000000	98.320573
3727.000000	98.311929
3726.000000	98.307020
3725.000000	98.305550
3724.000000	98.306814
3723.000000	98.310402
3722.000000	98.315146
3721.000000	98.319970
3720.000000	98.325236
3719.000000	98.330861
3718.000000	98.334193
3717.000000	98.331806
3716.000000	98.324259
3715.000000	98.316112
3714.000000	98.309888
3713.000000	98.303037
3712.000000	98.292809
3711.000000	98.283295
3710.000000	98.281798
3709.000000	98.289199
3708.000000	98.300993
3707.000000	98.312741
3706.000000	98.322508
3705.000000	98.331248
3704.000000	98.340996
3703.000000	98.351179
3702.000000	98.356949
3701.000000	98.353882
3700.000000	98.344582
3699.000000	98.335797
3698.000000	98.330063
3697.000000	98.323932
3696.000000	98.313332
3695.000000	98.298828
3694.000000	98.285356
3693.000000	98.279423
3692.000000	98.286451
3691.000000	98.307395
3690.000000	98.332760
3689.000000	98.344320
3688.000000	98.333317
3687.000000	98.311085
3686.000000	98.293118
3685.000000	98.284382
3684.000000	98.281581
3683.000000	98.279529
3682.000000	98.274211
3681.000000	98.262822
3680.000000	98.244395
3679.000000	98.221511
3678.000000	98.200192
3677.000000	98.187654
3676.000000	98.186467
3675.000000	98.189426
3674.000000	98.188578
3673.000000	98.185749
3672.000000	98.185964
3671.000000	98.192381
3670.000000	98.202430
3669.000000	98.207661
3668.000000	98.204734
3667.000000	98.197845
3666.000000	98.190406
3665.000000	98.183492
3664.000000	98.177601
3663.000000	98.172663
3662.000000	98.167193
3661.000000	98.159627
3660.000000	98.151047
3659.000000	98.144421
3658.000000	98.140304
3657.000000	98.135058
3656.000000	98.125557
3655.000000	98.115193
3654.000000	98.109199
3653.000000	98.107329
3652.000000	98.105087
3651.000000	98.098381
3650.000000	98.086628
3649.000000	98.074334
3648.000000	98.066746
3647.000000	98.062992
3646.000000	98.058443
3645.000000	98.050728
3644.000000	98.041196
3643.000000	98.032829
3642.000000	98.027425
3641.000000	98.024222
3640.000000	98.021704
3639.000000	98.019197
3638.000000	98.015514
3637.000000	98.008655
3636.000000	97.997914
3635.000000	97.985158
3634.000000	97.972848
3633.000000	97.961547
3632.000000	97.950210
3631.000000	97.938226
3630.000000	97.925829
3629.000000	97.913786
3628.000000	97.904770
3627.000000	97.901958
3626.000000	97.903600
3625.000000	97.903387
3624.000000	97.898726
3623.000000	97.893141
3622.000000	97.891033
3621.000000	97.891754
3620.000000	97.888817
3619.000000	97.875701
3618.000000	97.853106
3617.000000	97.827855
3616.000000	97.805568
3615.000000	97.786821
3614.000000	97.767811
3613.000000	97.744316
3612.000000	97.717275
3611.000000	97.692608
3610.000000	97.674402
3609.000000	97.663196
3608.000000	97.659289
3607.000000	97.662685
3606.000000	97.670134
3605.000000	97.675384
3604.000000	97.674193
3603.000000	97.666730
3602.000000	97.655872
3601.000000	97.644557
3600.000000	97.634599
3599.000000	97.626361
3598.000000	97.617694
3597.000000	97.604748
3596.000000	97.585100
3595.000000	97.560718
3594.000000	97.536160
3593.000000	97.515264
3592.000000	97.499292
3591.000000	97.487999
3590.000000	97.480104
3589.000000	97.473824
3588.000000	97.467429
3587.000000	97.459943
3586.000000	97.450385
3585.000000	97.437892
3584.000000	97.423099
3583.000000	97.407848
3582.000000	97.393723
3581.000000	97.381198
3580.000000	97.369932
3579.000000	97.359778
3578.000000	97.350088
3577.000000	97.339340
3576.000000	97.325858
3575.000000	97.308822
3574.000000	97.288174
3573.000000	97.265027
3572.000000	97.242692
3571.000000	97.225367
3570.000000	97.214644
3569.000000	97.207443
3568.000000	97.198492
3567.000000	97.185571
3566.000000	97.170708
3565.000000	97.155755
3564.000000	97.140578
3563.000000	97.124202
3562.000000	97.106020
3561.000000	97.086836
3560.000000	97.069053
3559.000000	97.054369
3558.000000	97.041485
3557.000000	97.027355
3556.000000	97.010942
3555.000000	96.993837
3554.000000	96.977121
3553.000000	96.959479
3552.000000	96.940042
3551.000000	96.920853
3550.000000	96.904204
3549.000000	96.889368
3548.000000	96.873809
3547.000000	96.856639
3546.000000	96.839423
3545.000000	96.824013
3544.000000	96.810680
3543.000000	96.798089
3542.000000	96.783890
3541.000000	96.766676
3540.000000	96.748415
3539.000000	96.733353
3538.000000	96.723176
3537.000000	96.714253
3536.000000	96.701290
3535.000000	96.683048
3534.000000	96.662596
3533.000000	96.643831
3532.000000	96.629395
3531.000000	96.620541
3530.000000	96.616235
3529.000000	96.612920
3528.000000	96.607061
3527.000000	96.597836
3526.000000	96.586098
3525.000000	96.571976
3524.000000	96.555185
3523.000000	96.536630
3522.000000	96.517920
3521.000000	96.499702
3520.000000	96.481624
3519.000000	96.463377
3518.000000	96.444886
3517.000000	96.426436
3516.000000	96.409172
3515.000000	96.394760
3514.000000	96.383388
3513.000000	96.373032
3512.000000	96.361306
3511.000000	96.347512
3510.000000	96.332394
3509.000000	96.316935
3508.000000	96.302186
3507.000000	96.289348
3506.000000	96.279025
3505.000000	96.270693
3504.000000	96.263208
3503.000000	96.254968
3502.000000	96.243733
3501.000000	96.228131
3500.000000	96.209707
3499.000000	96.192029
3498.000000	96.177254
3497.000000	96.164541
3496.000000	96.151738
3495.000000	96.137434
3494.000000	96.120965
3493.000000	96.102234
3492.000000	96.082652
3491.000000	96.064947
3490.000000	96.050912
3489.000000	96.039998
3488.000000	96.030402
3487.000000	96.020252
3486.000000	96.007502
3485.000000	95.990580
3484.000000	95.970338
3483.000000	95.950493
3482.000000	95.934845
3481.000000	95.924274
3480.000000	95.917047
3479.000000	95.910973
3478.000000	95.904503
3477.000000	95.896673
3476.000000	95.887076
3475.000000	95.875582
3474.000000	95.862024
3473.000000	95.846787
3472.000000	95.831345
3471.000000	95.817113
3470.000000	95.803898
3469.000000	95.790625
3468.000000	95.777143
3467.000000	95.763861
3466.000000	95.750361
3465.000000	95.736399
3464.000000	95.723875
3463.000000	95.715414
3462.000000	95.710503
3461.000000	95.705155
3460.000000	95.695885
3459.000000	95.682199
3458.000000	95.665208
3457.000000	95.646224
3456.000000	95.627350
3455.000000	95.611184
3454.000000	95.598599
3453.000000	95.588639
3452.000000	95.580945
3451.000000	95.576561
3450.000000	95.575395
3449.000000	95.574664
3448.000000	95.571028
3447.000000	95.563251
3446.000000	95.551946
3445.000000	95.538000
3444.000000	95.522324
3443.000000	95.506246
3442.000000	95.491344
3441.000000	95.479228
3440.000000	95.471193
3439.000000	95.466752
3438.000000	95.462595
3437.000000	95.454773
3436.000000	95.442348
3435.000000	95.427647
3434.000000	95.413089
3433.000000	95.399657
3432.000000	95.388066
3431.000000	95.378996
3430.000000	95.371489
3429.000000	95.363256
3428.000000	95.353294
3427.000000	95.342162
3426.000000	95.329704
3425.000000	95.315101
3424.000000	95.299716
3423.000000	95.286900
3422.000000	95.277386
3421.000000	95.267368
3420.000000	95.252995
3419.000000	95.234972
3418.000000	95.217021
3417.000000	95.201813
3416.000000	95.189928
3415.000000	95.180677
3414.000000	95.172175
3413.000000	95.162047
3412.000000	95.149685
3411.000000	95.136831
3410.000000	95.125369
3409.000000	95.115924
3408.000000	95.108958
3407.000000	95.104787
3406.000000	95.101530
3405.000000	95.095381
3404.000000	95.084512
3403.000000	95.071009
3402.000000	95.057593
3401.000000	95.044606
3400.000000	95.031267
3399.000000	95.017676
3398.000000	95.003751
3397.000000	94.988177
3396.000000	94.970489
3395.000000	94.952784
3394.000000	94.937417
3393.000000	94.924068
3392.000000	94.910612
3391.000000	94.895944
3390.000000	94.880668
3389.000000	94.865982
3388.000000	94.853176
3387.000000	94.843230
3386.000000	94.835544
3385.000000	94.827649
3384.000000	94.817118
3383.000000	94.803251
3382.000000	94.786792
3381.000000	94.769341
3380.000000	94.753218
3379.000000	94.740055
3378.000000	94.728855
3377.000000	94.717017
3376.000000	94.703720
3375.000000	94.690425
3374.000000	94.677494
3373.000000	94.662564
3372.000000	94.643653
3371.000000	94.622078
3370.000000	94.600840
3369.000000	94.581386
3368.000000	94.563271
3367.000000	94.545932
3366.000000	94.529575
3365.000000	94.514871
3364.000000	94.502374
3363.000000	94.491314
3362.000000	94.478933
3361.000000	94.462553
3360.000000	94.442680
3359.000000	94.422274
3358.000000	94.402539
3357.000000	94.381297
3356.000000	94.356422
3355.000000	94.329214
3354.000000	94.303274
3353.000000	94.281371
3352.000000	94.264318
3351.000000	94.251278
3350.000000	94.239897
3349.000000	94.227135
3348.000000	94.210833
3347.000000	94.190160
3346.000000	94.164933
3345.000000	94.136169
3344.000000	94.107261
3343.000000	94.082441
3342.000000	94.063006
3341.000000	94.046400
3340.000000	94.029380
3339.000000	94.010555
3338.000000	93.989781
3337.000000	93.967393
3336.000000	93.944873
3335.000000	93.924406
3334.000000	93.906602
3333.000000	93.889855
3332.000000	93.872593
3331.000000	93.854761
3330.000000	93.836742
3329.000000	93.818347
3328.000000	93.799359
3327.000000	93.779789
3326.000000	93.759509
3325.000000	93.739111
3324.000000	93.720845
3323.000000	93.706507
3322.000000	93.694219
3321.000000	93.679805
3320.000000	93.661745
3319.000000	93.642569
3318.000000	93.624830
3317.000000	93.608065
3316.000000	93.590653
3315.000000	93.572504
3314.000000	93.554568
3313.000000	93.537446
3312.000000	93.521433
3311.000000	93.506459
3310.000000	93.491478
3309.000000	93.475566
3308.000000	93.459981
3307.000000	93.446857
3306.000000	93.435373
3305.000000	93.421562
3304.000000	93.402805
3303.000000	93.380716
3302.000000	93.359050
3301.000000	93.340554
3300.000000	93.326243
3299.000000	93.315247
3298.000000	93.304618
3297.000000	93.291844
3296.000000	93.278319
3295.000000	93.267880
3294.000000	93.260914
3293.000000	93.252924
3292.000000	93.240413
3291.000000	93.225466
3290.000000	93.212703
3289.000000	93.203778
3288.000000	93.196873
3287.000000	93.189944
3286.000000	93.182650
3285.000000	93.176509
3284.000000	93.174191
3283.000000	93.176975
3282.000000	93.182045
3281.000000	93.184466
3280.000000	93.183345
3279.000000	93.183513
3278.000000	93.189866
3277.000000	93.202128
3276.000000	93.216888
3275.000000	93.232695
3274.000000	93.250212
3273.000000	93.268960
3272.000000	93.286401
3271.000000	93.299769
3270.000000	93.307487
3269.000000	93.309915
3268.000000	93.310356
3267.000000	93.314169
3266.000000	93.325008
3265.000000	93.342118
3264.000000	93.362166
3263.000000	93.382611
3262.000000	93.402488
3261.000000	93.421385
3260.000000	93.439332
3259.000000	93.457087
3258.000000	93.475668
3257.000000	93.496158
3256.000000	93.520048
3255.000000	93.548279
3254.000000	93.579211
3253.000000	93.609046
3252.000000	93.634969
3251.000000	93.656726
3250.000000	93.674913
3249.000000	93.689893
3248.000000	93.703235
3247.000000	93.717768
3246.000000	93.734600
3245.000000	93.751406
3244.000000	93.765270
3243.000000	93.776161
3242.000000	93.786474
3241.000000	93.798555
3240.000000	93.813777
3239.000000	93.832628
3238.000000	93.854305
3237.000000	93.876968
3236.000000	93.899195
3235.000000	93.920376
3234.000000	93.939407
3233.000000	93.954598
3232.000000	93.965468
3231.000000	93.973324
3230.000000	93.979384
3229.000000	93.983899
3228.000000	93.987739
3227.000000	93.992994
3226.000000	94.000979
3225.000000	94.011170
3224.000000	94.022816
3223.000000	94.036106
3222.000000	94.051118
3221.000000	94.067323
3220.000000	94.084746
3219.000000	94.103437
3218.000000	94.120941
3217.000000	94.132857
3216.000000	94.137646
3215.000000	94.139278
3214.000000	94.143137
3213.000000	94.150554
3212.000000	94.159098
3211.000000	94.166977
3210.000000	94.175179
3209.000000	94.185446
3208.000000	94.197872
3207.000000	94.210607
3206.000000	94.221506
3205.000000	94.230184
3204.000000	94.238601
3203.000000	94.248985
3202.000000	94.261280
3201.000000	94.273592
3200.000000	94.284883
3199.000000	94.295913
3198.000000	94.307621
3197.000000	94.320321
3196.000000	94.334476
3195.000000	94.350377
3194.000000	94.366880
3193.000000	94.382337
3192.000000	94.397199
3191.000000	94.413817
3190.000000	94.433191
3189.000000	94.453756
3188.000000	94.473607
3187.000000	94.491788
3186.000000	94.507247
3185.000000	94.519215
3184.000000	94.529612
3183.000000	94.542468
3182.000000	94.559648
3181.000000	94.578927
3180.000000	94.597139
3179.000000	94.612970
3178.000000	94.626154
3177.000000	94.636793
3176.000000	94.647195
3175.000000	94.661616
3174.000000	94.681814
3173.000000	94.704577
3172.000000	94.725341
3171.000000	94.742716
3170.000000	94.757814
3169.000000	94.771525
3168.000000	94.784845
3167.000000	94.800163
3166.000000	94.819279
3165.000000	94.840638
3164.000000	94.860854
3163.000000	94.878534
3162.000000	94.895035
3161.000000	94.911969
3160.000000	94.929685
3159.000000	94.947660
3158.000000	94.964771
3157.000000	94.979451
3156.000000	94.991061
3155.000000	95.001187
3154.000000	95.012602
3153.000000	95.026935
3152.000000	95.043541
3151.000000	95.060009
3150.000000	95.073622
3149.000000	95.083715
3148.000000	95.093193
3147.000000	95.106360
3146.000000	95.124132
