PE IR       SUBTECH     SPECTRUM    ASCII       PEDS        4.00        
   -1
3C-XXX-C001_1.ASC
23/09/07
10:20:01.00
23/09/07
11:30:09.00
uco
Sample 033 By uco Date Thursday, September 07 2023
450.000000
#HDR
-1
-1
#GR
cm-1
%T
1.0
0.0
4000.000000
-1.000000
3551
8
98.787969
87.328344
#DATA
4000.000000	98.719399
3999.000000	98.717111
3998.000000	98.718289
3997.000000	98.722592
3996.000000	98.727553
3995.000000	98.730322
3994.000000	98.729586
3993.000000	98.726067
3992.000000	98.721472
3991.000000	98.716973
3990.000000	98.712565
3989.000000	98.707714
3988.000000	98.702327
3987.000000	98.697040
3986.000000	98.692702
3985.000000	98.689900
3984.000000	98.689067
3983.000000	98.690590
3982.000000	98.694333
3981.000000	98.699084
3980.000000	98.702892
3979.000000	98.704241
3978.000000	98.702845
3977.000000	98.699475
3976.000000	98.695386
3975.000000	98.692023
3974.000000	98.690764
3973.000000	98.692326
3972.000000	98.696104
3971.000000	98.700206
3970.000000	98.702557
3969.000000	98.702262
3968.000000	98.700138
3967.000000	98.697948
3966.000000	98.696888
3965.000000	98.696755
3964.000000	98.696344
3963.000000	98.694578
3962.000000	98.691312
3961.000000	98.687316
3960.000000	98.683735
3959.000000	98.681565
3958.000000	98.681209
3957.000000	98.682135
3956.000000	98.683015
3955.000000	98.682536
3954.000000	98.680472
3953.000000	98.677980
3952.000000	98.676705
3951.000000	98.677607
3950.000000	98.680436
3949.000000	98.683993
3948.000000	98.686773
3947.000000	98.687574
3946.000000	98.685955
3945.000000	98.682347
3944.000000	98.678030
3943.000000	98.675054
3942.000000	98.675289
3941.000000	98.679094
3940.000000	98.684837
3939.000000	98.689570
3938.000000	98.690496
3937.000000	98.686584
3936.000000	98.679555
3935.000000	98.673213
3934.000000	98.671330
3933.000000	98.675496
3932.000000	98.684006
3931.000000	98.692787
3930.000000	98.698177
3929.000000	98.699083
3928.000000	98.696935
3927.000000	98.694198
3926.000000	98.692455
3925.000000	98.691449
3924.000000	98.689960
3923.000000	98.687611
3922.000000	98.685197
3921.000000	98.683041
3920.000000	98.680032
3919.000000	98.675191
3918.000000	98.669923
3917.000000	98.667534
3916.000000	98.669728
3915.000000	98.674577
3914.000000	98.678306
3913.000000	98.678593
3912.000000	98.675750
3911.000000	98.671741
3910.000000	98.668502
3909.000000	98.666941
3908.000000	98.667244
3907.000000	98.669531
3906.000000	98.674073
3905.000000	98.680721
3904.000000	98.688137
3903.000000	98.693908
3902.000000	98.696124
3901.000000	98.694877
3900.000000	98.691927
3899.000000	98.689209
3898.000000	98.687619
3897.000000	98.687136
3896.000000	98.687312
3895.000000	98.687578
3894.000000	98.687610
3893.000000	98.688186
3892.000000	98.690684
3891.000000	98.695016
3890.000000	98.699247
3889.000000	98.701806
3888.000000	98.703235
3887.000000	98.705132
3886.000000	98.707519
3885.000000	98.708406
3884.000000	98.705933
3883.000000	98.700070
3882.000000	98.692561
3881.000000	98.685969
3880.000000	98.681851
3879.000000	98.679383
3878.000000	98.676653
3877.000000	98.673291
3876.000000	98.670952
3875.000000	98.671203
3874.000000	98.673569
3873.000000	98.676161
3872.000000	98.678532
3871.000000	98.682642
3870.000000	98.689210
3869.000000	98.695234
3868.000000	98.697277
3867.000000	98.694934
3866.000000	98.689576
3865.000000	98.682785
3864.000000	98.676858
3863.000000	98.674105
3862.000000	98.674647
3861.000000	98.676848
3860.000000	98.679438
3859.000000	98.681913
3858.000000	98.682966
3857.000000	98.679954
3856.000000	98.672436
3855.000000	98.664750
3854.000000	98.663186
3853.000000	98.669200
3852.000000	98.676171
3851.000000	98.679465
3850.000000	98.680930
3849.000000	98.682926
3848.000000	98.685301
3847.000000	98.686331
3846.000000	98.684421
3845.000000	98.679854
3844.000000	98.675172
3843.000000	98.673608
3842.000000	98.676869
3841.000000	98.684185
3840.000000	98.693016
3839.000000	98.700373
3838.000000	98.703674
3837.000000	98.701844
3836.000000	98.696295
3835.000000	98.689735
3834.000000	98.684347
3833.000000	98.681129
3832.000000	98.679987
3831.000000	98.680174
3830.000000	98.680795
3829.000000	98.681452
3828.000000	98.682362
3827.000000	98.683209
3826.000000	98.681973
3825.000000	98.675869
3824.000000	98.664216
3823.000000	98.650733
3822.000000	98.642323
3821.000000	98.643870
3820.000000	98.652204
3819.000000	98.659594
3818.000000	98.663901
3817.000000	98.668998
3816.000000	98.676802
3815.000000	98.683113
3814.000000	98.683478
3813.000000	98.678658
3812.000000	98.671995
3811.000000	98.665471
3810.000000	98.659569
3809.000000	98.655801
3808.000000	98.656978
3807.000000	98.663784
3806.000000	98.672690
3805.000000	98.679220
3804.000000	98.682478
3803.000000	98.685425
3802.000000	98.689812
3801.000000	98.691823
3800.000000	98.686920
3799.000000	98.677220
3798.000000	98.669421
3797.000000	98.667647
3796.000000	98.669518
3795.000000	98.669088
3794.000000	98.663711
3793.000000	98.656056
3792.000000	98.650713
3791.000000	98.650211
3790.000000	98.653386
3789.000000	98.656582
3788.000000	98.656894
3787.000000	98.654846
3786.000000	98.654009
3785.000000	98.657396
3784.000000	98.664034
3783.000000	98.670042
3782.000000	98.672456
3781.000000	98.671072
3780.000000	98.667431
3779.000000	98.663300
3778.000000	98.659855
3777.000000	98.658016
3776.000000	98.658532
3775.000000	98.660947
3774.000000	98.663097
3773.000000	98.662732
3772.000000	98.659662
3771.000000	98.656061
3770.000000	98.654611
3769.000000	98.656171
3768.000000	98.659812
3767.000000	98.665047
3766.000000	98.672029
3765.000000	98.679263
3764.000000	98.683675
3763.000000	98.683879
3762.000000	98.681628
3761.000000	98.679591
3760.000000	98.679066
3759.000000	98.680103
3758.000000	98.682453
3757.000000	98.686212
3756.000000	98.691455
3755.000000	98.697642
3754.000000	98.703589
3753.000000	98.707749
3752.000000	98.709704
3751.000000	98.711171
3750.000000	98.713012
3749.000000	98.713642
3748.000000	98.711673
3747.000000	98.708979
3746.000000	98.712203
3745.000000	98.724957
3744.000000	98.737711
3743.000000	98.738549
3742.000000	98.728723
3741.000000	98.716628
3740.000000	98.707727
3739.000000	98.703833
3738.000000	98.705473
3737.000000	98.711610
3736.000000	98.718644
3735.000000	98.722473
3734.000000	98.722587
3733.000000	98.722074
3732.000000	98.722916
3731.000000	98.723926
3730.000000	98.723596
3729.000000	98.722560
3728.000000	98.722391
3727.000000	98.722842
3726.000000	98.721731
3725.000000	98.718157
3724.000000	98.713899
3723.000000	98.710862
3722.000000	98.708450
3721.000000	98.704994
3720.000000	98.701343
3719.000000	98.701290
3718.000000	98.707435
3717.000000	98.717791
3716.000000	98.727133
3715.000000	98.731220
3714.000000	98.729465
3713.000000	98.724974
3712.000000	98.722376
3711.000000	98.723012
3710.000000	98.723061
3709.000000	98.719181
3708.000000	98.712702
3707.000000	98.707039
3706.000000	98.704146
3705.000000	98.703672
3704.000000	98.704267
3703.000000	98.705335
3702.000000	98.707641
3701.000000	98.711727
3700.000000	98.716345
3699.000000	98.719725
3698.000000	98.721199
3697.000000	98.720925
3696.000000	98.719290
3695.000000	98.717398
3694.000000	98.717081
3693.000000	98.719526
3692.000000	98.723527
3691.000000	98.726056
3690.000000	98.725794
3689.000000	98.724445
3688.000000	98.723571
3687.000000	98.722530
3686.000000	98.720029
3685.000000	98.715115
3684.000000	98.707256
3683.000000	98.697007
3682.000000	98.686940
3681.000000	98.680244
3680.000000	98.677282
3679.000000	98.674588
3678.000000	98.669170
3677.000000	98.663268
3676.000000	98.662742
3675.000000	98.668280
3674.000000	98.672527
3673.000000	98.670370
3672.000000	98.664704
3671.000000	98.661441
3670.000000	98.662072
3669.000000	98.661146
3668.000000	98.653672
3667.000000	98.641440
3666.000000	98.629222
3665.000000	98.619562
3664.000000	98.611842
3663.000000	98.604220
3662.000000	98.596308
3661.000000	98.589879
3660.000000	98.587125
3659.000000	98.588508
3658.000000	98.592338
3657.000000	98.595436
3656.000000	98.595006
3655.000000	98.590989
3654.000000	98.585674
3653.000000	98.581210
3652.000000	98.577470
3651.000000	98.570780
3650.000000	98.557553
3649.000000	98.540901
3648.000000	98.528333
3647.000000	98.522243
3646.000000	98.517892
3645.000000	98.510037
3644.000000	98.498068
3643.000000	98.485550
3642.000000	98.476190
3641.000000	98.470467
3640.000000	98.466134
3639.000000	98.461084
3638.000000	98.454769
3637.000000	98.447621
3636.000000	98.440560
3635.000000	98.434794
3634.000000	98.430849
3633.000000	98.427527
3632.000000	98.422586
3631.000000	98.415040
3630.000000	98.405896
3629.000000	98.396965
3628.000000	98.388144
3627.000000	98.377249
3626.000000	98.363943
3625.000000	98.350337
3624.000000	98.338539
3623.000000	98.328909
3622.000000	98.319670
3621.000000	98.307914
3620.000000	98.292440
3619.000000	98.276117
3618.000000	98.263015
3617.000000	98.253643
3616.000000	98.245344
3615.000000	98.235483
3614.000000	98.223269
3613.000000	98.210146
3612.000000	98.198615
3611.000000	98.190007
3610.000000	98.183262
3609.000000	98.175638
3608.000000	98.165060
3607.000000	98.151821
3606.000000	98.137854
3605.000000	98.125053
3604.000000	98.114411
3603.000000	98.105688
3602.000000	98.097361
3601.000000	98.087612
3600.000000	98.076296
3599.000000	98.065096
3598.000000	98.054624
3597.000000	98.042387
3596.000000	98.025099
3595.000000	98.003363
3594.000000	97.982799
3593.000000	97.969012
3592.000000	97.962040
3591.000000	97.956513
3590.000000	97.945692
3589.000000	97.925768
3588.000000	97.900192
3587.000000	97.878516
3586.000000	97.866459
3585.000000	97.860548
3584.000000	97.853471
3583.000000	97.840023
3582.000000	97.819222
3581.000000	97.794546
3580.000000	97.772118
3579.000000	97.756754
3578.000000	97.748469
3577.000000	97.742937
3576.000000	97.734998
3575.000000	97.721737
3574.000000	97.703164
3573.000000	97.681822
3572.000000	97.662128
3571.000000	97.648651
3570.000000	97.642808
3569.000000	97.639945
3568.000000	97.630842
3567.000000	97.610053
3566.000000	97.582177
3565.000000	97.556196
3564.000000	97.536200
3563.000000	97.520380
3562.000000	97.505160
3561.000000	97.488461
3560.000000	97.470315
3559.000000	97.451681
3558.000000	97.433240
3557.000000	97.415209
3556.000000	97.397693
3555.000000	97.380623
3554.000000	97.363420
3553.000000	97.345235
3552.000000	97.326045
3551.000000	97.307326
3550.000000	97.291131
3549.000000	97.278166
3548.000000	97.266794
3547.000000	97.254263
3546.000000	97.239379
3545.000000	97.223571
3544.000000	97.208385
3543.000000	97.192549
3542.000000	97.172901
3541.000000	97.148385
3540.000000	97.122361
3539.000000	97.100351
3538.000000	97.085123
3537.000000	97.074098
3536.000000	97.061744
3535.000000	97.044524
3534.000000	97.023322
3533.000000	97.001780
3532.000000	96.983258
3531.000000	96.968939
3530.000000	96.957639
3529.000000	96.947083
3528.000000	96.935726
3527.000000	96.923387
3526.000000	96.910063
3525.000000	96.894701
3524.000000	96.875903
3523.000000	96.853879
3522.000000	96.831056
3521.000000	96.810402
3520.000000	96.793317
3519.000000	96.778949
3518.000000	96.764946
3517.000000	96.749017
3516.000000	96.730674
3515.000000	96.711909
3514.000000	96.695918
3513.000000	96.684416
3512.000000	96.675876
3511.000000	96.666614
3510.000000	96.654003
3509.000000	96.638565
3508.000000	96.622766
3507.000000	96.608309
3506.000000	96.595100
3505.000000	96.582204
3504.000000	96.568940
3503.000000	96.555165
3502.000000	96.541222
3501.000000	96.527917
3500.000000	96.516010
3499.000000	96.505292
3498.000000	96.494474
3497.000000	96.482270
3496.000000	96.468396
3495.000000	96.453300
3494.000000	96.437365
3493.000000	96.420996
3492.000000	96.405161
3491.000000	96.391065
3490.000000	96.379159
3489.000000	96.368760
3488.000000	96.358785
3487.000000	96.348579
3486.000000	96.337748
3485.000000	96.325280
3484.000000	96.309365
3483.000000	96.288921
3482.000000	96.265917
3481.000000	96.245530
3480.000000	96.232728
3479.000000	96.228289
3478.000000	96.228529
3477.000000	96.228538
3476.000000	96.225231
3475.000000	96.218037
3474.000000	96.207962
3473.000000	96.196441
3472.000000	96.184301
3471.000000	96.171020
3470.000000	96.155420
3469.000000	96.137610
3468.000000	96.119762
3467.000000	96.104285
3466.000000	96.091687
3465.000000	96.081014
3464.000000	96.071829
3463.000000	96.064575
3462.000000	96.058917
3461.000000	96.052885
3460.000000	96.044373
3459.000000	96.033118
3458.000000	96.020835
3457.000000	96.009596
3456.000000	95.999982
3455.000000	95.990502
3454.000000	95.978947
3453.000000	95.964692
3452.000000	95.949687
3451.000000	95.937067
3450.000000	95.928799
3449.000000	95.924624
3448.000000	95.922441
3447.000000	95.919062
3446.000000	95.911253
3445.000000	95.897357
3444.000000	95.878430
3443.000000	95.857790
3442.000000	95.839261
3441.000000	95.825293
3440.000000	95.815947
3439.000000	95.809126
3438.000000	95.802005
3437.000000	95.793036
3436.000000	95.782930
3435.000000	95.773421
3434.000000	95.765002
3433.000000	95.756129
3432.000000	95.744742
3431.000000	95.730262
3430.000000	95.714013
3429.000000	95.697968
3428.000000	95.683310
3427.000000	95.670118
3426.000000	95.658246
3425.000000	95.648149
3424.000000	95.640371
3423.000000	95.634067
3422.000000	95.626579
3421.000000	95.615297
3420.000000	95.600111
3419.000000	95.583619
3418.000000	95.568822
3417.000000	95.556960
3416.000000	95.547342
3415.000000	95.538543
3414.000000	95.529537
3413.000000	95.519972
3412.000000	95.509678
3411.000000	95.498227
3410.000000	95.485442
3409.000000	95.472446
3408.000000	95.461538
3407.000000	95.454186
3406.000000	95.449151
3405.000000	95.443242
3404.000000	95.434283
3403.000000	95.423155
3402.000000	95.412807
3401.000000	95.405391
3400.000000	95.400294
3399.000000	95.394552
3398.000000	95.385141
3397.000000	95.371388
3396.000000	95.355485
3395.000000	95.340569
3394.000000	95.328111
3393.000000	95.317041
3392.000000	95.305259
3391.000000	95.291846
3390.000000	95.277861
3389.000000	95.265271
3388.000000	95.255432
3387.000000	95.248447
3386.000000	95.243440
3385.000000	95.238917
3384.000000	95.232949
3383.000000	95.223824
3382.000000	95.211333
3381.000000	95.197350
3380.000000	95.184504
3379.000000	95.173960
3378.000000	95.164747
3377.000000	95.155092
3376.000000	95.143772
3375.000000	95.130154
3374.000000	95.113944
3373.000000	95.095780
3372.000000	95.077704
3371.000000	95.062072
3370.000000	95.049588
3369.000000	95.038601
3368.000000	95.026460
3367.000000	95.011549
3366.000000	94.994242
3365.000000	94.976103
3364.000000	94.958203
3363.000000	94.940184
3362.000000	94.921016
3361.000000	94.900555
3360.000000	94.880046
3359.000000	94.861050
3358.000000	94.844077
3357.000000	94.828242
3356.000000	94.811963
3355.000000	94.794034
3354.000000	94.774375
3353.000000	94.753761
3352.000000	94.732619
3351.000000	94.710375
3350.000000	94.686558
3349.000000	94.662156
3348.000000	94.638892
3347.000000	94.617110
3346.000000	94.595364
3345.000000	94.572445
3344.000000	94.548928
3343.000000	94.526197
3342.000000	94.504818
3341.000000	94.484649
3340.000000	94.465785
3339.000000	94.448474
3338.000000	94.432365
3337.000000	94.416460
3336.000000	94.399694
3335.000000	94.381288
3334.000000	94.361096
3333.000000	94.340178
3332.000000	94.320494
3331.000000	94.303295
3330.000000	94.287897
3329.000000	94.272379
3328.000000	94.255183
3327.000000	94.235928
3326.000000	94.215394
3325.000000	94.195335
3324.000000	94.177778
3323.000000	94.163675
3322.000000	94.152267
3321.000000	94.142075
3320.000000	94.131999
3319.000000	94.121256
3318.000000	94.109155
3317.000000	94.095755
3316.000000	94.082274
3315.000000	94.070006
3314.000000	94.059082
3313.000000	94.048811
3312.000000	94.038577
3311.000000	94.027784
3310.000000	94.015738
3309.000000	94.002738
3308.000000	93.990842
3307.000000	93.982178
3306.000000	93.976459
3305.000000	93.971039
3304.000000	93.963344
3303.000000	93.952763
3302.000000	93.940697
3301.000000	93.929740
3300.000000	93.922429
3299.000000	93.919370
3298.000000	93.918329
3297.000000	93.916037
3296.000000	93.911062
3295.000000	93.904310
3294.000000	93.896968
3293.000000	93.889374
3292.000000	93.882040
3291.000000	93.876195
3290.000000	93.872345
3289.000000	93.869060
3288.000000	93.864244
3287.000000	93.857602
3286.000000	93.851462
3285.000000	93.849208
3284.000000	93.852590
3283.000000	93.859742
3282.000000	93.865725
3281.000000	93.866174
3280.000000	93.861297
3279.000000	93.855915
3278.000000	93.855156
3277.000000	93.860310
3276.000000	93.869060
3275.000000	93.878901
3274.000000	93.888873
3273.000000	93.898195
3272.000000	93.904871
3271.000000	93.906920
3270.000000	93.904826
3269.000000	93.901931
3268.000000	93.902188
3267.000000	93.907586
3266.000000	93.917396
3265.000000	93.929253
3264.000000	93.940768
3263.000000	93.950701
3262.000000	93.959324
3261.000000	93.967814
3260.000000	93.976951
3259.000000	93.986337
3258.000000	93.995101
3257.000000	94.003229
3256.000000	94.011751
3255.000000	94.021686
3254.000000	94.033290
3253.000000	94.046419
3252.000000	94.060940
3251.000000	94.076361
3250.000000	94.091473
3249.000000	94.104910
3248.000000	94.115978
3247.000000	94.124693
3246.000000	94.131232
3245.000000	94.135697
3244.000000	94.138392
3243.000000	94.140156
3242.000000	94.142461
3241.000000	94.147170
3240.000000	94.155830
3239.000000	94.168827
3238.000000	94.185191
3237.000000	94.203100
3236.000000	94.220445
3235.000000	94.235420
3234.000000	94.247340
3233.000000	94.256887
3232.000000	94.264914
3231.000000	94.271032
3230.000000	94.274262
3229.000000	94.275205
3228.000000	94.276461
3227.000000	94.280320
3226.000000	94.286911
3225.000000	94.295208
3224.000000	94.304788
3223.000000	94.315638
3222.000000	94.327164
3221.000000	94.338740
3220.000000	94.350736
3219.000000	94.363513
3218.000000	94.375557
3217.000000	94.384332
3216.000000	94.389391
3215.000000	94.393469
3214.000000	94.399666
3213.000000	94.408261
3212.000000	94.417097
3211.000000	94.424517
3210.000000	94.430990
3209.000000	94.437794
3208.000000	94.445065
3207.000000	94.451922
3206.000000	94.458482
3205.000000	94.466821
3204.000000	94.478982
3203.000000	94.493997
3202.000000	94.508001
3201.000000	94.517966
3200.000000	94.524786
3199.000000	94.532085
3198.000000	94.542413
3197.000000	94.555388
3196.000000	94.568945
3195.000000	94.581477
3194.000000	94.593044
3193.000000	94.605632
3192.000000	94.622120
3191.000000	94.643533
3190.000000	94.666893
3189.000000	94.686805
3188.000000	94.699987
3187.000000	94.707918
3186.000000	94.715154
3185.000000	94.725882
3184.000000	94.741994
3183.000000	94.762918
3182.000000	94.785952
3181.000000	94.807457
3180.000000	94.824966
3179.000000	94.838467
3178.000000	94.849601
3177.000000	94.860128
3176.000000	94.871655
3175.000000	94.885793
3174.000000	94.903051
3173.000000	94.921525
3172.000000	94.937857
3171.000000	94.950246
3170.000000	94.960229
3169.000000	94.971435
3168.000000	94.986824
3167.000000	95.006874
3166.000000	95.029545
3165.000000	95.051526
3164.000000	95.070078
3163.000000	95.084364
3162.000000	95.095380
3161.000000	95.104910
3160.000000	95.114932
3159.000000	95.127625
3158.000000	95.144560
3157.000000	95.164933
3156.000000	95.185040
3155.000000	95.200791
3154.000000	95.211283
3153.000000	95.219565
3152.000000	95.229618
3151.000000	95.242972
3150.000000	95.258493
3149.000000	95.274812
3148.000000	95.291977
3147.000000	95.310543
3146.000000	95.329998
