PE IR       SUBTECH     SPECTRUM    ASCII       PEDS        4.00        
   -1
3C-YYX-C015_1.ASC
23/09/07
11:23:22.00
23/09/07
11:30:09.00
uco
Sample 015 By uco Date Thursday, September 07 2023
450.000000
#HDR
-1
-1
#GR
cm-1
%T
1.0
0.0
4000.000000
-1.000000
3551
8
98.660270
77.400321
#DATA
4000.000000	98.594398
3999.000000	98.595825
3998.000000	98.595340
3997.000000	98.593516
3996.000000	98.591401
3995.000000	98.590101
3994.000000	98.590211
3993.000000	98.591206
3992.000000	98.591580
3991.000000	98.589851
3990.000000	98.585685
3989.000000	98.580208
3988.000000	98.575410
3987.000000	98.572958
3986.000000	98.573190
3985.000000	98.575003
3984.000000	98.576804
3983.000000	98.577756
3982.000000	98.578101
3981.000000	98.578350
3980.000000	98.578236
3979.000000	98.576455
3978.000000	98.571668
3977.000000	98.564105
3976.000000	98.556291
3975.000000	98.551766
3974.000000	98.552292
3973.000000	98.556295
3972.000000	98.560363
3971.000000	98.562324
3970.000000	98.562704
3969.000000	98.563253
3968.000000	98.564619
3967.000000	98.565771
3966.000000	98.565485
3965.000000	98.563894
3964.000000	98.562365
3963.000000	98.561903
3962.000000	98.561887
3961.000000	98.560698
3960.000000	98.557519
3959.000000	98.553232
3958.000000	98.549399
3957.000000	98.546579
3956.000000	98.544115
3955.000000	98.541422
3954.000000	98.539092
3953.000000	98.538606
3952.000000	98.541028
3951.000000	98.546147
3950.000000	98.552411
3949.000000	98.557685
3948.000000	98.560418
3947.000000	98.560213
3946.000000	98.557816
3945.000000	98.554840
3944.000000	98.553339
3943.000000	98.554916
3942.000000	98.559367
3941.000000	98.564875
3940.000000	98.569304
3939.000000	98.570922
3938.000000	98.568545
3937.000000	98.561743
3936.000000	98.551798
3935.000000	98.542118
3934.000000	98.537011
3933.000000	98.539533
3932.000000	98.549056
3931.000000	98.560958
3930.000000	98.569247
3929.000000	98.570429
3928.000000	98.565740
3927.000000	98.559539
3926.000000	98.555909
3925.000000	98.555957
3924.000000	98.557762
3923.000000	98.558873
3922.000000	98.558228
3921.000000	98.555678
3920.000000	98.551261
3919.000000	98.545465
3918.000000	98.540095
3917.000000	98.537927
3916.000000	98.540613
3915.000000	98.547162
3914.000000	98.554336
3913.000000	98.558687
3912.000000	98.558253
3911.000000	98.553556
3910.000000	98.547179
3909.000000	98.541772
3908.000000	98.538382
3907.000000	98.535832
3906.000000	98.531615
3905.000000	98.524119
3904.000000	98.515024
3903.000000	98.508931
3902.000000	98.509362
3901.000000	98.515637
3900.000000	98.524784
3899.000000	98.534074
3898.000000	98.541734
3897.000000	98.546862
3896.000000	98.548986
3895.000000	98.548187
3894.000000	98.545575
3893.000000	98.543292
3892.000000	98.543594
3891.000000	98.546871
3890.000000	98.550857
3889.000000	98.552930
3888.000000	98.552575
3887.000000	98.551533
3886.000000	98.551392
3885.000000	98.551246
3884.000000	98.549807
3883.000000	98.547906
3882.000000	98.547363
3881.000000	98.548031
3880.000000	98.547340
3879.000000	98.543815
3878.000000	98.539032
3877.000000	98.535396
3876.000000	98.534635
3875.000000	98.536753
3874.000000	98.539010
3873.000000	98.538231
3872.000000	98.534539
3871.000000	98.531715
3870.000000	98.532901
3869.000000	98.536507
3868.000000	98.538710
3867.000000	98.538008
3866.000000	98.536018
3865.000000	98.535494
3864.000000	98.537414
3863.000000	98.540013
3862.000000	98.540645
3861.000000	98.538230
3860.000000	98.534548
3859.000000	98.532137
3858.000000	98.531664
3857.000000	98.531020
3856.000000	98.527443
3855.000000	98.521068
3854.000000	98.515107
3853.000000	98.513802
3852.000000	98.518875
3851.000000	98.527055
3850.000000	98.534178
3849.000000	98.538739
3848.000000	98.540689
3847.000000	98.540435
3846.000000	98.538714
3845.000000	98.536488
3844.000000	98.534358
3843.000000	98.532287
3842.000000	98.529892
3841.000000	98.527551
3840.000000	98.526890
3839.000000	98.528976
3838.000000	98.532463
3837.000000	98.535122
3836.000000	98.536928
3835.000000	98.539678
3834.000000	98.543790
3833.000000	98.547350
3832.000000	98.548179
3831.000000	98.545490
3830.000000	98.539982
3829.000000	98.533041
3828.000000	98.526429
3827.000000	98.521427
3826.000000	98.517377
3825.000000	98.512374
3824.000000	98.506264
3823.000000	98.502931
3822.000000	98.506488
3821.000000	98.514331
3820.000000	98.518985
3819.000000	98.518177
3818.000000	98.516137
3817.000000	98.517344
3816.000000	98.522476
3815.000000	98.527400
3814.000000	98.528493
3813.000000	98.526618
3812.000000	98.525172
3811.000000	98.526805
3810.000000	98.531373
3809.000000	98.536515
3808.000000	98.539584
3807.000000	98.539437
3806.000000	98.536790
3805.000000	98.533437
3804.000000	98.531771
3803.000000	98.534976
3802.000000	98.544096
3801.000000	98.554201
3800.000000	98.558495
3799.000000	98.556562
3798.000000	98.552143
3797.000000	98.548396
3796.000000	98.546260
3795.000000	98.545105
3794.000000	98.543886
3793.000000	98.542152
3792.000000	98.540822
3791.000000	98.541639
3790.000000	98.545187
3789.000000	98.549762
3788.000000	98.553046
3787.000000	98.553922
3786.000000	98.552459
3785.000000	98.549059
3784.000000	98.544580
3783.000000	98.540773
3782.000000	98.539754
3781.000000	98.542611
3780.000000	98.548134
3779.000000	98.552801
3778.000000	98.553257
3777.000000	98.549331
3776.000000	98.543848
3775.000000	98.540047
3774.000000	98.538832
3773.000000	98.538643
3772.000000	98.537873
3771.000000	98.536928
3770.000000	98.537279
3769.000000	98.538981
3768.000000	98.541065
3767.000000	98.542705
3766.000000	98.543242
3765.000000	98.542172
3764.000000	98.539848
3763.000000	98.537511
3762.000000	98.536101
3761.000000	98.535274
3760.000000	98.533900
3759.000000	98.531445
3758.000000	98.528866
3757.000000	98.527685
3756.000000	98.528904
3755.000000	98.532859
3754.000000	98.538460
3753.000000	98.542719
3752.000000	98.542558
3751.000000	98.538469
3750.000000	98.535060
3749.000000	98.535693
3748.000000	98.540158
3747.000000	98.547349
3746.000000	98.556186
3745.000000	98.564044
3744.000000	98.567662
3743.000000	98.568208
3742.000000	98.567897
3741.000000	98.565223
3740.000000	98.558910
3739.000000	98.550541
3738.000000	98.544411
3737.000000	98.546548
3736.000000	98.561787
3735.000000	98.587507
3734.000000	98.611163
3733.000000	98.621088
3732.000000	98.617136
3731.000000	98.606775
3730.000000	98.595539
3729.000000	98.584261
3728.000000	98.573223
3727.000000	98.564489
3726.000000	98.559787
3725.000000	98.558525
3724.000000	98.559592
3723.000000	98.563401
3722.000000	98.570261
3721.000000	98.579258
3720.000000	98.589074
3719.000000	98.597640
3718.000000	98.601644
3717.000000	98.598538
3716.000000	98.590016
3715.000000	98.581545
3714.000000	98.576980
3713.000000	98.574774
3712.000000	98.570760
3711.000000	98.564756
3710.000000	98.561167
3709.000000	98.562472
3708.000000	98.567383
3707.000000	98.573114
3706.000000	98.577343
3705.000000	98.580341
3704.000000	98.584612
3703.000000	98.591683
3702.000000	98.598852
3701.000000	98.601473
3700.000000	98.598819
3699.000000	98.594077
3698.000000	98.589175
3697.000000	98.583171
3696.000000	98.574639
3695.000000	98.563804
3694.000000	98.552715
3693.000000	98.544929
3692.000000	98.545081
3691.000000	98.556314
3690.000000	98.574499
3689.000000	98.586991
3688.000000	98.584093
3687.000000	98.568888
3686.000000	98.550432
3685.000000	98.534536
3684.000000	98.522821
3683.000000	98.514833
3682.000000	98.509124
3681.000000	98.503710
3680.000000	98.496738
3679.000000	98.487282
3678.000000	98.475541
3677.000000	98.464099
3676.000000	98.457875
3675.000000	98.458280
3674.000000	98.460230
3673.000000	98.460014
3672.000000	98.458837
3671.000000	98.460400
3670.000000	98.464695
3669.000000	98.465786
3668.000000	98.460809
3667.000000	98.453133
3666.000000	98.445359
3665.000000	98.437175
3664.000000	98.427978
3663.000000	98.418918
3662.000000	98.411824
3661.000000	98.407374
3660.000000	98.405245
3659.000000	98.404684
3658.000000	98.403949
3657.000000	98.400600
3656.000000	98.394411
3655.000000	98.388635
3654.000000	98.385373
3653.000000	98.382802
3652.000000	98.377563
3651.000000	98.367097
3650.000000	98.351231
3649.000000	98.334710
3648.000000	98.324219
3647.000000	98.320250
3646.000000	98.317702
3645.000000	98.312362
3644.000000	98.304085
3643.000000	98.296092
3642.000000	98.291824
3641.000000	98.291714
3640.000000	98.293335
3639.000000	98.293876
3638.000000	98.290959
3637.000000	98.283003
3636.000000	98.270429
3635.000000	98.256383
3634.000000	98.244839
3633.000000	98.237310
3632.000000	98.232027
3631.000000	98.225959
3630.000000	98.216693
3629.000000	98.204166
3628.000000	98.192178
3627.000000	98.183926
3626.000000	98.177665
3625.000000	98.170409
3624.000000	98.163298
3623.000000	98.160140
3622.000000	98.162210
3621.000000	98.165425
3620.000000	98.162537
3619.000000	98.149145
3618.000000	98.127804
3617.000000	98.104715
3616.000000	98.084511
3615.000000	98.068814
3614.000000	98.056231
3613.000000	98.043640
3612.000000	98.029724
3611.000000	98.015381
3610.000000	97.999890
3609.000000	97.982144
3608.000000	97.965932
3607.000000	97.958622
3606.000000	97.962532
3605.000000	97.971791
3604.000000	97.978854
3603.000000	97.980109
3602.000000	97.976190
3601.000000	97.969589
3600.000000	97.962350
3599.000000	97.954471
3598.000000	97.943438
3597.000000	97.926379
3596.000000	97.903641
3595.000000	97.879983
3594.000000	97.860484
3593.000000	97.846202
3592.000000	97.834808
3591.000000	97.824179
3590.000000	97.813246
3589.000000	97.801218
3588.000000	97.787499
3587.000000	97.773259
3586.000000	97.760789
3585.000000	97.751252
3584.000000	97.744565
3583.000000	97.739942
3582.000000	97.735650
3581.000000	97.729685
3580.000000	97.721349
3579.000000	97.711833
3578.000000	97.702144
3577.000000	97.691668
3576.000000	97.679093
3575.000000	97.663565
3574.000000	97.644482
3573.000000	97.621594
3572.000000	97.596749
3571.000000	97.573900
3570.000000	97.556548
3569.000000	97.545159
3568.000000	97.537111
3567.000000	97.528758
3566.000000	97.517835
3565.000000	97.504130
3564.000000	97.489329
3563.000000	97.475580
3562.000000	97.463695
3561.000000	97.452684
3560.000000	97.440817
3559.000000	97.426394
3558.000000	97.408164
3557.000000	97.386400
3556.000000	97.363975
3555.000000	97.344697
3554.000000	97.329989
3553.000000	97.317903
3552.000000	97.306173
3551.000000	97.294622
3550.000000	97.283795
3549.000000	97.273427
3548.000000	97.263367
3547.000000	97.254398
3546.000000	97.246983
3545.000000	97.240214
3544.000000	97.232704
3543.000000	97.223208
3542.000000	97.210009
3541.000000	97.192127
3540.000000	97.171785
3539.000000	97.153386
3538.000000	97.138876
3537.000000	97.125606
3536.000000	97.110037
3535.000000	97.092062
3534.000000	97.073948
3533.000000	97.057491
3532.000000	97.043876
3531.000000	97.034270
3530.000000	97.028170
3529.000000	97.022377
3528.000000	97.013848
3527.000000	97.002927
3526.000000	96.991937
3525.000000	96.981750
3524.000000	96.971466
3523.000000	96.960233
3522.000000	96.947904
3521.000000	96.934731
3520.000000	96.921576
3519.000000	96.909541
3518.000000	96.898334
3517.000000	96.885930
3516.000000	96.870755
3515.000000	96.853493
3514.000000	96.835813
3513.000000	96.818653
3512.000000	96.802621
3511.000000	96.788818
3510.000000	96.777800
3509.000000	96.768566
3508.000000	96.759862
3507.000000	96.751618
3506.000000	96.743927
3505.000000	96.735420
3504.000000	96.724154
3503.000000	96.710087
3502.000000	96.695766
3501.000000	96.684253
3500.000000	96.676446
3499.000000	96.670102
3498.000000	96.661343
3497.000000	96.648118
3496.000000	96.632211
3495.000000	96.616636
3494.000000	96.601587
3493.000000	96.585010
3492.000000	96.566934
3491.000000	96.550498
3490.000000	96.538178
3489.000000	96.529121
3488.000000	96.521005
3487.000000	96.512359
3486.000000	96.502088
3485.000000	96.488927
3484.000000	96.473149
3483.000000	96.457609
3482.000000	96.445399
3481.000000	96.436761
3480.000000	96.429362
3479.000000	96.420718
3478.000000	96.409729
3477.000000	96.397001
3476.000000	96.384784
3475.000000	96.375568
3474.000000	96.369697
3473.000000	96.364905
3472.000000	96.358353
3471.000000	96.348449
3470.000000	96.335127
3469.000000	96.319950
3468.000000	96.305842
3467.000000	96.294860
3466.000000	96.286029
3465.000000	96.276918
3464.000000	96.267186
3463.000000	96.258682
3462.000000	96.251877
3461.000000	96.244533
3460.000000	96.234532
3459.000000	96.222033
3458.000000	96.208256
3457.000000	96.194086
3456.000000	96.180624
3455.000000	96.169199
3454.000000	96.159736
3453.000000	96.150901
3452.000000	96.142442
3451.000000	96.135973
3450.000000	96.132574
3449.000000	96.130981
3448.000000	96.128637
3447.000000	96.123238
3446.000000	96.113088
3445.000000	96.097978
3444.000000	96.080535
3443.000000	96.065159
3442.000000	96.054578
3441.000000	96.048157
3440.000000	96.043796
3439.000000	96.039867
3438.000000	96.034945
3437.000000	96.027853
3436.000000	96.019153
3435.000000	96.011100
3434.000000	96.005030
3433.000000	95.999961
3432.000000	95.994118
3431.000000	95.986546
3430.000000	95.976871
3429.000000	95.965181
3428.000000	95.952672
3427.000000	95.940604
3426.000000	95.928372
3425.000000	95.914443
3424.000000	95.899505
3423.000000	95.886345
3422.000000	95.875722
3421.000000	95.864848
3420.000000	95.851348
3419.000000	95.836662
3418.000000	95.823798
3417.000000	95.813720
3416.000000	95.805434
3415.000000	95.797938
3414.000000	95.790665
3413.000000	95.783180
3412.000000	95.775519
3411.000000	95.767700
3410.000000	95.758646
3409.000000	95.747343
3408.000000	95.735560
3407.000000	95.726893
3406.000000	95.722031
3405.000000	95.717112
3404.000000	95.708252
3403.000000	95.695970
3402.000000	95.683486
3401.000000	95.672479
3400.000000	95.661996
3399.000000	95.650173
3398.000000	95.635584
3397.000000	95.618125
3396.000000	95.599896
3395.000000	95.584177
3394.000000	95.572492
3393.000000	95.563589
3392.000000	95.555775
3391.000000	95.548690
3390.000000	95.542122
3389.000000	95.534961
3388.000000	95.526545
3387.000000	95.517530
3386.000000	95.508151
3385.000000	95.496860
3384.000000	95.482159
3383.000000	95.464931
3382.000000	95.447976
3381.000000	95.434036
3380.000000	95.424556
3379.000000	95.418915
3378.000000	95.414111
3377.000000	95.406497
3376.000000	95.394644
3375.000000	95.379777
3374.000000	95.363532
3373.000000	95.346778
3372.000000	95.330608
3371.000000	95.316401
3370.000000	95.304065
3369.000000	95.291748
3368.000000	95.277837
3367.000000	95.261834
3366.000000	95.243217
3365.000000	95.221849
3364.000000	95.200156
3363.000000	95.182406
3362.000000	95.170326
3361.000000	95.160907
3360.000000	95.149515
3359.000000	95.133812
3358.000000	95.114151
3357.000000	95.092040
3356.000000	95.069387
3355.000000	95.047719
3354.000000	95.027002
3353.000000	95.006250
3352.000000	94.985726
3351.000000	94.966912
3350.000000	94.949948
3349.000000	94.933039
3348.000000	94.914947
3347.000000	94.896192
3346.000000	94.877058
3345.000000	94.856449
3344.000000	94.833958
3343.000000	94.811516
3342.000000	94.791684
3341.000000	94.775411
3340.000000	94.762050
3339.000000	94.750076
3338.000000	94.737170
3337.000000	94.721303
3336.000000	94.702602
3335.000000	94.682961
3334.000000	94.663462
3333.000000	94.643710
3332.000000	94.623960
3331.000000	94.605689
3330.000000	94.589428
3329.000000	94.573946
3328.000000	94.558266
3327.000000	94.542703
3326.000000	94.527291
3325.000000	94.511059
3324.000000	94.493579
3323.000000	94.475517
3322.000000	94.457085
3321.000000	94.438100
3320.000000	94.419905
3319.000000	94.404687
3318.000000	94.391943
3317.000000	94.378037
3316.000000	94.360705
3315.000000	94.341986
3314.000000	94.325196
3313.000000	94.310919
3312.000000	94.297447
3311.000000	94.283414
3310.000000	94.268536
3309.000000	94.253113
3308.000000	94.238145
3307.000000	94.224669
3306.000000	94.211869
3305.000000	94.197162
3304.000000	94.179060
3303.000000	94.158855
3302.000000	94.139067
3301.000000	94.121750
3300.000000	94.108731
3299.000000	94.101164
3298.000000	94.097498
3297.000000	94.093703
3296.000000	94.086760
3295.000000	94.076837
3294.000000	94.065450
3293.000000	94.053469
3292.000000	94.041814
3291.000000	94.032028
3290.000000	94.024852
3289.000000	94.019597
3288.000000	94.015830
3287.000000	94.014159
3286.000000	94.014597
3285.000000	94.015908
3284.000000	94.016998
3283.000000	94.017222
3282.000000	94.015223
3281.000000	94.010230
3280.000000	94.005521
3279.000000	94.007197
3278.000000	94.017658
3277.000000	94.032449
3276.000000	94.045608
3275.000000	94.056316
3274.000000	94.067743
3273.000000	94.081534
3272.000000	94.096013
3271.000000	94.108807
3270.000000	94.119027
3269.000000	94.127432
3268.000000	94.136206
3267.000000	94.147750
3266.000000	94.162101
3265.000000	94.176243
3264.000000	94.187489
3263.000000	94.196783
3262.000000	94.207505
3261.000000	94.221768
3260.000000	94.238962
3259.000000	94.257177
3258.000000	94.275027
3257.000000	94.292793
3256.000000	94.312550
3255.000000	94.336238
3254.000000	94.362763
3253.000000	94.388032
3252.000000	94.408524
3251.000000	94.424104
3250.000000	94.437144
3249.000000	94.450348
3248.000000	94.465774
3247.000000	94.483812
3246.000000	94.501955
3245.000000	94.516260
3244.000000	94.525571
3243.000000	94.533147
3242.000000	94.543029
3241.000000	94.556015
3240.000000	94.570269
3239.000000	94.584527
3238.000000	94.599301
3237.000000	94.615651
3236.000000	94.633800
3235.000000	94.652592
3234.000000	94.669856
3233.000000	94.684001
3232.000000	94.695372
3231.000000	94.705246
3230.000000	94.713627
3229.000000	94.719581
3228.000000	94.723811
3227.000000	94.728987
3226.000000	94.736879
3225.000000	94.746855
3224.000000	94.757649
3223.000000	94.768995
3222.000000	94.781038
3221.000000	94.793844
3220.000000	94.808071
3219.000000	94.824090
3218.000000	94.839724
3217.000000	94.851060
3216.000000	94.856656
3215.000000	94.859459
3214.000000	94.863341
3213.000000	94.869269
3212.000000	94.875868
3211.000000	94.882064
3210.000000	94.887904
3209.000000	94.893931
3208.000000	94.901148
3207.000000	94.910500
3206.000000	94.921528
3205.000000	94.932516
3204.000000	94.942644
3203.000000	94.952848
3202.000000	94.964004
3201.000000	94.975613
3200.000000	94.986921
3199.000000	94.997947
3198.000000	95.008747
3197.000000	95.019118
3196.000000	95.029678
3195.000000	95.041711
3194.000000	95.055298
3193.000000	95.069146
3192.000000	95.082878
3191.000000	95.097863
3190.000000	95.114897
3189.000000	95.132770
3188.000000	95.149964
3187.000000	95.166221
3186.000000	95.181660
3185.000000	95.196013
3184.000000	95.209832
3183.000000	95.224791
3182.000000	95.241602
3181.000000	95.258728
3180.000000	95.274078
3179.000000	95.286788
3178.000000	95.297116
3177.000000	95.306260
3176.000000	95.316825
3175.000000	95.331279
3174.000000	95.348789
3173.000000	95.365471
3172.000000	95.378913
3171.000000	95.390850
3170.000000	95.404110
3169.000000	95.419002
3168.000000	95.434180
3167.000000	95.449244
3166.000000	95.464368
3165.000000	95.478666
3164.000000	95.491134
3163.000000	95.502639
3162.000000	95.515423
3161.000000	95.531016
3160.000000	95.549544
3159.000000	95.570041
3158.000000	95.590171
3157.000000	95.606646
3156.000000	95.617617
3155.000000	95.624647
3154.000000	95.631557
3153.000000	95.641675
3152.000000	95.656190
3151.000000	95.673863
3150.000000	95.691552
3149.000000	95.706404
3148.000000	95.718523
3147.000000	95.730593
3146.000000	95.744146
