PE IR       SUBTECH     SPECTRUM    ASCII       PEDS        4.00        
   -1
3C-YYX-C001_1.ASC
23/09/07
11:09:54.00
23/09/07
11:30:09.00
uco
Sample 001 By uco Date Thursday, September 07 2023
450.000000
#HDR
-1
-1
#GR
cm-1
%T
1.0
0.0
4000.000000
-1.000000
3551
8
98.721156
81.728797
#DATA
4000.000000	98.668557
3999.000000	98.666845
3998.000000	98.663414
3997.000000	98.660592
3996.000000	98.659944
3995.000000	98.661618
3994.000000	98.664507
3993.000000	98.667177
3992.000000	98.668559
3991.000000	98.668100
3990.000000	98.665603
3989.000000	98.661256
3988.000000	98.655846
3987.000000	98.650592
3986.000000	98.646566
3985.000000	98.644374
3984.000000	98.644406
3983.000000	98.646856
3982.000000	98.650972
3981.000000	98.654632
3980.000000	98.655459
3979.000000	98.652680
3978.000000	98.647617
3977.000000	98.642414
3976.000000	98.638658
3975.000000	98.637215
3974.000000	98.638680
3973.000000	98.643183
3972.000000	98.649605
3971.000000	98.655467
3970.000000	98.658354
3969.000000	98.657595
3968.000000	98.654660
3967.000000	98.651725
3966.000000	98.649782
3965.000000	98.648326
3964.000000	98.646692
3963.000000	98.645191
3962.000000	98.644619
3961.000000	98.644842
3960.000000	98.644294
3959.000000	98.641238
3958.000000	98.635622
3957.000000	98.629551
3956.000000	98.625772
3955.000000	98.625484
3954.000000	98.627424
3953.000000	98.629312
3952.000000	98.630155
3951.000000	98.631004
3950.000000	98.633457
3949.000000	98.637531
3948.000000	98.641228
3947.000000	98.642175
3946.000000	98.639535
3945.000000	98.634528
3944.000000	98.629869
3943.000000	98.628645
3942.000000	98.632375
3941.000000	98.640084
3940.000000	98.649063
3939.000000	98.655866
3938.000000	98.657391
3937.000000	98.652187
3936.000000	98.641838
3935.000000	98.630756
3934.000000	98.623886
3933.000000	98.624226
3932.000000	98.631035
3931.000000	98.639993
3930.000000	98.645638
3929.000000	98.644677
3928.000000	98.638297
3927.000000	98.631273
3926.000000	98.628329
3925.000000	98.630401
3924.000000	98.634198
3923.000000	98.636005
3922.000000	98.635175
3921.000000	98.633263
3920.000000	98.631429
3919.000000	98.629402
3918.000000	98.626685
3917.000000	98.624227
3916.000000	98.624083
3915.000000	98.627047
3914.000000	98.631141
3913.000000	98.632923
3912.000000	98.630346
3911.000000	98.624407
3910.000000	98.618145
3909.000000	98.613867
3908.000000	98.611893
3907.000000	98.611342
3906.000000	98.611450
3905.000000	98.612294
3904.000000	98.614606
3903.000000	98.618861
3902.000000	98.624504
3901.000000	98.629814
3900.000000	98.633157
3899.000000	98.634161
3898.000000	98.633549
3897.000000	98.632383
3896.000000	98.631344
3895.000000	98.630397
3894.000000	98.629458
3893.000000	98.628920
3892.000000	98.629707
3891.000000	98.632069
3890.000000	98.634991
3889.000000	98.637103
3888.000000	98.637483
3887.000000	98.636213
3886.000000	98.634427
3885.000000	98.633074
3884.000000	98.632591
3883.000000	98.632853
3882.000000	98.633122
3881.000000	98.632265
3880.000000	98.629560
3879.000000	98.625646
3878.000000	98.622465
3877.000000	98.621436
3876.000000	98.622497
3875.000000	98.624329
3874.000000	98.624754
3873.000000	98.622409
3872.000000	98.618491
3871.000000	98.615722
3870.000000	98.615091
3869.000000	98.615226
3868.000000	98.615845
3867.000000	98.618245
3866.000000	98.622310
3865.000000	98.626345
3864.000000	98.629243
3863.000000	98.631239
3862.000000	98.632635
3861.000000	98.632906
3860.000000	98.631875
3859.000000	98.629697
3858.000000	98.625480
3857.000000	98.617225
3856.000000	98.604694
3855.000000	98.591372
3854.000000	98.581901
3853.000000	98.577562
3852.000000	98.578269
3851.000000	98.584801
3850.000000	98.595821
3849.000000	98.607559
3848.000000	98.617516
3847.000000	98.624746
3846.000000	98.628508
3845.000000	98.628080
3844.000000	98.624007
3843.000000	98.618386
3842.000000	98.613925
3841.000000	98.612757
3840.000000	98.616360
3839.000000	98.624565
3838.000000	98.634154
3837.000000	98.640892
3836.000000	98.643808
3835.000000	98.644831
3834.000000	98.645311
3833.000000	98.645043
3832.000000	98.643857
3831.000000	98.642188
3830.000000	98.640346
3829.000000	98.638028
3828.000000	98.634990
3827.000000	98.631147
3826.000000	98.626178
3825.000000	98.619876
3824.000000	98.613471
3823.000000	98.610372
3822.000000	98.613662
3821.000000	98.621024
3820.000000	98.625236
3819.000000	98.623195
3818.000000	98.618262
3817.000000	98.614732
3816.000000	98.614683
3815.000000	98.616555
3814.000000	98.617747
3813.000000	98.617031
3812.000000	98.614605
3811.000000	98.612204
3810.000000	98.612006
3809.000000	98.614818
3808.000000	98.619069
3807.000000	98.621539
3806.000000	98.620482
3805.000000	98.617754
3804.000000	98.617196
3803.000000	98.622224
3802.000000	98.632842
3801.000000	98.642349
3800.000000	98.643885
3799.000000	98.639083
3798.000000	98.632915
3797.000000	98.628146
3796.000000	98.625414
3795.000000	98.624208
3794.000000	98.623962
3793.000000	98.624754
3792.000000	98.627090
3791.000000	98.631041
3790.000000	98.635029
3789.000000	98.636367
3788.000000	98.634123
3787.000000	98.630455
3786.000000	98.628527
3785.000000	98.629390
3784.000000	98.631520
3783.000000	98.633098
3782.000000	98.633792
3781.000000	98.634242
3780.000000	98.635143
3779.000000	98.636199
3778.000000	98.636170
3777.000000	98.634773
3776.000000	98.633669
3775.000000	98.634757
3774.000000	98.637876
3773.000000	98.640858
3772.000000	98.641529
3771.000000	98.639547
3770.000000	98.636449
3769.000000	98.634285
3768.000000	98.635116
3767.000000	98.640193
3766.000000	98.647922
3765.000000	98.653795
3764.000000	98.654117
3763.000000	98.649180
3762.000000	98.642179
3761.000000	98.636225
3760.000000	98.633468
3759.000000	98.634459
3758.000000	98.637339
3757.000000	98.639114
3756.000000	98.638245
3755.000000	98.635523
3754.000000	98.632960
3753.000000	98.632291
3752.000000	98.633860
3751.000000	98.635775
3750.000000	98.634892
3749.000000	98.631125
3748.000000	98.628452
3747.000000	98.630759
3746.000000	98.639379
3745.000000	98.651466
3744.000000	98.659829
3743.000000	98.662605
3742.000000	98.664089
3741.000000	98.664135
3740.000000	98.659829
3739.000000	98.652689
3738.000000	98.647894
3737.000000	98.649433
3736.000000	98.656830
3735.000000	98.666049
3734.000000	98.671967
3733.000000	98.671981
3732.000000	98.668192
3731.000000	98.664753
3730.000000	98.663988
3729.000000	98.665463
3728.000000	98.668175
3727.000000	98.671410
3726.000000	98.673305
3725.000000	98.671441
3724.000000	98.666071
3723.000000	98.660606
3722.000000	98.657848
3721.000000	98.658020
3720.000000	98.660906
3719.000000	98.666417
3718.000000	98.672194
3717.000000	98.673886
3716.000000	98.669277
3715.000000	98.660782
3714.000000	98.652730
3713.000000	98.648203
3712.000000	98.648762
3711.000000	98.654522
3710.000000	98.662716
3709.000000	98.668501
3708.000000	98.669356
3707.000000	98.666309
3706.000000	98.661828
3705.000000	98.658126
3704.000000	98.656986
3703.000000	98.659028
3702.000000	98.662890
3701.000000	98.666022
3700.000000	98.667850
3699.000000	98.670052
3698.000000	98.673007
3697.000000	98.674567
3696.000000	98.672503
3695.000000	98.666625
3694.000000	98.657909
3693.000000	98.647812
3692.000000	98.639151
3691.000000	98.636047
3690.000000	98.638964
3689.000000	98.641072
3688.000000	98.635964
3687.000000	98.627137
3686.000000	98.621605
3685.000000	98.620575
3684.000000	98.620863
3683.000000	98.619351
3682.000000	98.614614
3681.000000	98.606290
3680.000000	98.594774
3679.000000	98.581364
3678.000000	98.567992
3677.000000	98.557099
3676.000000	98.551668
3675.000000	98.551676
3674.000000	98.552725
3673.000000	98.552517
3672.000000	98.552655
3671.000000	98.555838
3670.000000	98.561808
3669.000000	98.564999
3668.000000	98.562018
3667.000000	98.555923
3666.000000	98.550099
3665.000000	98.545102
3664.000000	98.540196
3663.000000	98.534816
3662.000000	98.528331
3661.000000	98.520139
3660.000000	98.510863
3659.000000	98.502443
3658.000000	98.495949
3657.000000	98.490216
3656.000000	98.484012
3655.000000	98.479169
3654.000000	98.478190
3653.000000	98.479782
3652.000000	98.478947
3651.000000	98.470373
3650.000000	98.453515
3649.000000	98.436685
3648.000000	98.429572
3647.000000	98.430369
3646.000000	98.429404
3645.000000	98.421147
3644.000000	98.408372
3643.000000	98.398027
3642.000000	98.394272
3641.000000	98.394737
3640.000000	98.393817
3639.000000	98.388609
3638.000000	98.379892
3637.000000	98.369667
3636.000000	98.359752
3635.000000	98.351550
3634.000000	98.345074
3633.000000	98.338484
3632.000000	98.330314
3631.000000	98.321738
3630.000000	98.315581
3629.000000	98.312570
3628.000000	98.310049
3627.000000	98.306361
3626.000000	98.302247
3625.000000	98.297407
3624.000000	98.291802
3623.000000	98.286648
3622.000000	98.281667
3621.000000	98.273584
3620.000000	98.259249
3619.000000	98.240063
3618.000000	98.220839
3617.000000	98.204833
3616.000000	98.192413
3615.000000	98.182327
3614.000000	98.172251
3613.000000	98.159921
3612.000000	98.145647
3611.000000	98.131887
3610.000000	98.118738
3609.000000	98.103568
3608.000000	98.086679
3607.000000	98.073457
3606.000000	98.068296
3605.000000	98.069848
3604.000000	98.073894
3603.000000	98.077165
3602.000000	98.077861
3601.000000	98.074812
3600.000000	98.067713
3599.000000	98.057283
3598.000000	98.043797
3597.000000	98.027068
3596.000000	98.008285
3595.000000	97.990561
3594.000000	97.975631
3593.000000	97.962110
3592.000000	97.948024
3591.000000	97.933381
3590.000000	97.918832
3589.000000	97.904213
3588.000000	97.889448
3587.000000	97.875831
3586.000000	97.864380
3585.000000	97.854750
3584.000000	97.846621
3583.000000	97.839556
3582.000000	97.831777
3581.000000	97.821113
3580.000000	97.808006
3579.000000	97.796419
3578.000000	97.789596
3577.000000	97.786077
3576.000000	97.780983
3575.000000	97.770639
3574.000000	97.755080
3573.000000	97.737335
3572.000000	97.721063
3571.000000	97.708009
3570.000000	97.696360
3569.000000	97.682063
3568.000000	97.663296
3567.000000	97.643752
3566.000000	97.628225
3565.000000	97.616694
3564.000000	97.606582
3563.000000	97.596137
3562.000000	97.584030
3561.000000	97.569003
3560.000000	97.551277
3559.000000	97.532761
3558.000000	97.514980
3557.000000	97.498023
3556.000000	97.481939
3555.000000	97.467237
3554.000000	97.453336
3553.000000	97.438381
3552.000000	97.422124
3551.000000	97.407113
3550.000000	97.395294
3549.000000	97.385399
3548.000000	97.374754
3547.000000	97.362302
3546.000000	97.348794
3545.000000	97.335248
3544.000000	97.322363
3543.000000	97.310274
3542.000000	97.297684
3541.000000	97.282879
3540.000000	97.266509
3539.000000	97.251715
3538.000000	97.240260
3537.000000	97.230011
3536.000000	97.217558
3535.000000	97.202201
3534.000000	97.185649
3533.000000	97.169764
3532.000000	97.156213
3531.000000	97.146499
3530.000000	97.140161
3529.000000	97.134071
3528.000000	97.125606
3527.000000	97.115499
3526.000000	97.105517
3525.000000	97.094840
3524.000000	97.080998
3523.000000	97.063381
3522.000000	97.043916
3521.000000	97.024962
3520.000000	97.008037
3519.000000	96.993828
3518.000000	96.981741
3517.000000	96.970100
3516.000000	96.957857
3515.000000	96.945467
3514.000000	96.933322
3513.000000	96.920661
3512.000000	96.906975
3511.000000	96.893323
3510.000000	96.881044
3509.000000	96.870172
3508.000000	96.860350
3507.000000	96.851890
3506.000000	96.844287
3505.000000	96.834848
3504.000000	96.820855
3503.000000	96.803093
3502.000000	96.785722
3501.000000	96.772504
3500.000000	96.763967
3499.000000	96.757624
3498.000000	96.749884
3497.000000	96.738668
3496.000000	96.724991
3495.000000	96.711143
3494.000000	96.697272
3493.000000	96.681403
3492.000000	96.663201
3491.000000	96.645644
3490.000000	96.632097
3489.000000	96.623063
3488.000000	96.616567
3487.000000	96.610095
3486.000000	96.601276
3485.000000	96.588375
3484.000000	96.571715
3483.000000	96.554023
3482.000000	96.538393
3481.000000	96.526406
3480.000000	96.518622
3479.000000	96.515128
3478.000000	96.514419
3477.000000	96.513075
3476.000000	96.507988
3475.000000	96.498595
3474.000000	96.486583
3473.000000	96.474393
3472.000000	96.464240
3471.000000	96.456906
3470.000000	96.450582
3469.000000	96.442072
3468.000000	96.429870
3467.000000	96.415123
3466.000000	96.399658
3465.000000	96.384750
3464.000000	96.371947
3463.000000	96.362676
3462.000000	96.355876
3461.000000	96.348004
3460.000000	96.336718
3459.000000	96.323134
3458.000000	96.309704
3457.000000	96.297687
3456.000000	96.287318
3455.000000	96.278415
3454.000000	96.269519
3453.000000	96.258692
3452.000000	96.246711
3451.000000	96.237920
3450.000000	96.235901
3449.000000	96.239034
3448.000000	96.241408
3447.000000	96.237599
3446.000000	96.226089
3445.000000	96.209060
3444.000000	96.190430
3443.000000	96.173950
3442.000000	96.161871
3441.000000	96.154716
3440.000000	96.151839
3439.000000	96.151142
3438.000000	96.148592
3437.000000	96.140391
3436.000000	96.126716
3435.000000	96.111841
3434.000000	96.099584
3433.000000	96.089813
3432.000000	96.079997
3431.000000	96.068500
3430.000000	96.055446
3429.000000	96.041971
3428.000000	96.029984
3427.000000	96.021247
3426.000000	96.015437
3425.000000	96.010023
3424.000000	96.002933
3423.000000	95.994265
3422.000000	95.984598
3421.000000	95.973239
3420.000000	95.959475
3419.000000	95.944518
3418.000000	95.930711
3417.000000	95.919456
3416.000000	95.910733
3415.000000	95.903692
3414.000000	95.896946
3413.000000	95.889104
3412.000000	95.879728
3411.000000	95.869285
3410.000000	95.858224
3409.000000	95.847058
3408.000000	95.837103
3407.000000	95.829295
3406.000000	95.822090
3405.000000	95.812404
3404.000000	95.799297
3403.000000	95.785292
3402.000000	95.773367
3401.000000	95.764243
3400.000000	95.756710
3399.000000	95.748711
3398.000000	95.737730
3397.000000	95.722541
3396.000000	95.705583
3395.000000	95.691635
3394.000000	95.682947
3393.000000	95.677220
3392.000000	95.671110
3391.000000	95.663812
3390.000000	95.656117
3389.000000	95.648025
3388.000000	95.639100
3387.000000	95.629898
3386.000000	95.621373
3385.000000	95.613332
3384.000000	95.604215
3383.000000	95.591774
3382.000000	95.574063
3381.000000	95.551520
3380.000000	95.528460
3379.000000	95.510350
3378.000000	95.498573
3377.000000	95.489351
3376.000000	95.478355
3375.000000	95.464684
3374.000000	95.449896
3373.000000	95.435506
3372.000000	95.422677
3371.000000	95.412291
3370.000000	95.403523
3369.000000	95.393632
3368.000000	95.380462
3367.000000	95.364216
3366.000000	95.346129
3365.000000	95.327083
3364.000000	95.308381
3363.000000	95.291847
3362.000000	95.277684
3361.000000	95.263607
3360.000000	95.247363
3359.000000	95.228862
3358.000000	95.208985
3357.000000	95.187795
3356.000000	95.165210
3355.000000	95.142245
3354.000000	95.120294
3353.000000	95.100040
3352.000000	95.081846
3351.000000	95.065999
3350.000000	95.051730
3349.000000	95.037218
3348.000000	95.021282
3347.000000	95.004120
3346.000000	94.985950
3345.000000	94.966309
3344.000000	94.945345
3343.000000	94.924528
3342.000000	94.905391
3341.000000	94.888633
3340.000000	94.874597
3339.000000	94.862854
3338.000000	94.851009
3337.000000	94.835891
3336.000000	94.816746
3335.000000	94.795674
3334.000000	94.774399
3333.000000	94.752517
3332.000000	94.729821
3331.000000	94.708082
3330.000000	94.689189
3329.000000	94.673015
3328.000000	94.658085
3327.000000	94.642966
3326.000000	94.626196
3325.000000	94.606564
3324.000000	94.584779
3323.000000	94.563813
3322.000000	94.546548
3321.000000	94.533995
3320.000000	94.525698
3319.000000	94.519968
3318.000000	94.513310
3317.000000	94.501913
3316.000000	94.485184
3315.000000	94.466545
3314.000000	94.449721
3313.000000	94.435483
3312.000000	94.422429
3311.000000	94.409071
3310.000000	94.394376
3309.000000	94.378044
3308.000000	94.361393
3307.000000	94.346448
3306.000000	94.333227
3305.000000	94.319515
3304.000000	94.304119
3303.000000	94.288846
3302.000000	94.276435
3301.000000	94.267875
3300.000000	94.262437
3299.000000	94.258528
3298.000000	94.253592
3297.000000	94.245078
3296.000000	94.232815
3295.000000	94.219356
3294.000000	94.207256
3293.000000	94.197274
3292.000000	94.189428
3291.000000	94.183744
3290.000000	94.179285
3289.000000	94.174379
3288.000000	94.168759
3287.000000	94.163843
3286.000000	94.160278
3285.000000	94.157196
3284.000000	94.154322
3283.000000	94.152551
3282.000000	94.151719
3281.000000	94.150344
3280.000000	94.148976
3279.000000	94.150926
3278.000000	94.158077
3277.000000	94.168181
3276.000000	94.178358
3275.000000	94.189355
3274.000000	94.203533
3273.000000	94.220215
3272.000000	94.235387
3271.000000	94.245453
3270.000000	94.249757
3269.000000	94.250362
3268.000000	94.251025
3267.000000	94.255441
3266.000000	94.264829
3265.000000	94.277508
3264.000000	94.291658
3263.000000	94.307330
3262.000000	94.325055
3261.000000	94.343975
3260.000000	94.362674
3259.000000	94.380694
3258.000000	94.398088
3257.000000	94.414677
3256.000000	94.430835
3255.000000	94.447773
3254.000000	94.465774
3253.000000	94.483291
3252.000000	94.498957
3251.000000	94.513408
3250.000000	94.528053
3249.000000	94.543303
3248.000000	94.559183
3247.000000	94.576195
3246.000000	94.594017
3245.000000	94.610301
3244.000000	94.622524
3243.000000	94.630688
3242.000000	94.637112
3241.000000	94.644279
3240.000000	94.653858
3239.000000	94.666923
3238.000000	94.683641
3237.000000	94.702600
3236.000000	94.721097
3235.000000	94.736476
3234.000000	94.747740
3233.000000	94.756580
3232.000000	94.766114
3231.000000	94.777168
3230.000000	94.786316
3229.000000	94.789565
3228.000000	94.787975
3227.000000	94.787527
3226.000000	94.792847
3225.000000	94.803334
3224.000000	94.815687
3223.000000	94.827826
3222.000000	94.839388
3221.000000	94.850767
3220.000000	94.863257
3219.000000	94.878106
3218.000000	94.893851
3217.000000	94.906473
3216.000000	94.913821
3215.000000	94.918561
3214.000000	94.924940
3213.000000	94.933736
3212.000000	94.942204
3211.000000	94.948122
3210.000000	94.952329
3209.000000	94.957398
3208.000000	94.965177
3207.000000	94.975421
3206.000000	94.986303
3205.000000	94.996300
3204.000000	95.005561
3203.000000	95.014918
3202.000000	95.024053
3201.000000	95.032084
3200.000000	95.039823
3199.000000	95.049756
3198.000000	95.063315
3197.000000	95.079692
3196.000000	95.097298
3195.000000	95.114573
3194.000000	95.129332
3193.000000	95.139952
3192.000000	95.148323
3191.000000	95.159331
3190.000000	95.175859
3189.000000	95.195636
3188.000000	95.213952
3187.000000	95.227989
3186.000000	95.237930
3185.000000	95.246082
3184.000000	95.256179
3183.000000	95.271581
3182.000000	95.292184
3181.000000	95.313988
3180.000000	95.332752
3179.000000	95.347045
3178.000000	95.357690
3177.000000	95.366309
3176.000000	95.375723
3175.000000	95.389466
3174.000000	95.408611
3173.000000	95.430010
3172.000000	95.448997
3171.000000	95.463225
3170.000000	95.473140
3169.000000	95.480623
3168.000000	95.488681
3167.000000	95.500697
3166.000000	95.517762
3165.000000	95.537199
3164.000000	95.555336
3163.000000	95.571169
3162.000000	95.586308
3161.000000	95.602203
3160.000000	95.618835
3159.000000	95.635460
3158.000000	95.651278
3157.000000	95.665685
3156.000000	95.678874
3155.000000	95.691951
3154.000000	95.705873
3153.000000	95.720550
3152.000000	95.735098
3151.000000	95.748163
3150.000000	95.758232
3149.000000	95.765271
3148.000000	95.772258
3147.000000	95.783189
3146.000000	95.798530
