PE IR       SUBTECH     SPECTRUM    ASCII       PEDS        4.00        
   -1
3C-YYX-F015_1.ASC
23/09/07
11:04:42.00
23/09/07
11:30:09.00
uco
Sample 015 By uco Date Thursday, September 07 2023
450.000000
#HDR
-1
-1
#GR
cm-1
%T
1.0
0.0
4000.000000
-1.000000
3551
8
98.780350
82.952214
#DATA
4000.000000	98.661653
3999.000000	98.662116
3998.000000	98.661406
3997.000000	98.660985
3996.000000	98.661688
3995.000000	98.662832
3994.000000	98.663099
3993.000000	98.662036
3992.000000	98.660360
3991.000000	98.658857
3990.000000	98.657426
3989.000000	98.655402
3988.000000	98.652569
3987.000000	98.649618
3986.000000	98.647706
3985.000000	98.647757
3984.000000	98.650129
3983.000000	98.654486
3982.000000	98.659694
3981.000000	98.664068
3980.000000	98.666086
3979.000000	98.665183
3978.000000	98.661794
3977.000000	98.656697
3976.000000	98.650500
3975.000000	98.643931
3974.000000	98.638414
3973.000000	98.635831
3972.000000	98.637142
3971.000000	98.641031
3970.000000	98.644314
3969.000000	98.644036
3968.000000	98.639760
3967.000000	98.633940
3966.000000	98.630068
3965.000000	98.630432
3964.000000	98.634830
3963.000000	98.640795
3962.000000	98.645043
3961.000000	98.645324
3960.000000	98.641676
3959.000000	98.636091
3958.000000	98.630972
3957.000000	98.627726
3956.000000	98.626351
3955.000000	98.625935
3954.000000	98.625553
3953.000000	98.624966
3952.000000	98.624778
3951.000000	98.625973
3950.000000	98.628884
3949.000000	98.632525
3948.000000	98.635166
3947.000000	98.635679
3946.000000	98.634186
3945.000000	98.631277
3944.000000	98.627301
3943.000000	98.623021
3942.000000	98.620379
3941.000000	98.621624
3940.000000	98.626950
3939.000000	98.633413
3938.000000	98.636840
3937.000000	98.634881
3936.000000	98.628805
3935.000000	98.622401
3934.000000	98.619398
3933.000000	98.621748
3932.000000	98.628937
3931.000000	98.638261
3930.000000	98.646001
3929.000000	98.649322
3928.000000	98.647906
3927.000000	98.643867
3926.000000	98.640195
3925.000000	98.638809
3924.000000	98.639676
3923.000000	98.641385
3922.000000	98.642206
3921.000000	98.640758
3920.000000	98.636744
3919.000000	98.631513
3918.000000	98.627612
3917.000000	98.627076
3916.000000	98.629894
3915.000000	98.634084
3914.000000	98.636927
3913.000000	98.636537
3912.000000	98.633033
3911.000000	98.628513
3910.000000	98.625423
3909.000000	98.624275
3908.000000	98.623265
3907.000000	98.619540
3906.000000	98.611272
3905.000000	98.599700
3904.000000	98.590073
3903.000000	98.588947
3902.000000	98.598507
3901.000000	98.613911
3900.000000	98.627309
3899.000000	98.633987
3898.000000	98.634919
3897.000000	98.633545
3896.000000	98.631568
3895.000000	98.628794
3894.000000	98.625389
3893.000000	98.622822
3892.000000	98.622689
3891.000000	98.624847
3890.000000	98.628052
3889.000000	98.631437
3888.000000	98.634165
3887.000000	98.634619
3886.000000	98.631517
3885.000000	98.626171
3884.000000	98.622461
3883.000000	98.622644
3882.000000	98.624934
3881.000000	98.625306
3880.000000	98.621315
3879.000000	98.614641
3878.000000	98.609236
3877.000000	98.607359
3876.000000	98.608572
3875.000000	98.610790
3874.000000	98.611732
3873.000000	98.610751
3872.000000	98.609291
3871.000000	98.609196
3870.000000	98.610995
3869.000000	98.614285
3868.000000	98.619226
3867.000000	98.625822
3866.000000	98.632819
3865.000000	98.638567
3864.000000	98.642171
3863.000000	98.642979
3862.000000	98.640050
3861.000000	98.633264
3860.000000	98.624665
3859.000000	98.616850
3858.000000	98.611100
3857.000000	98.606922
3856.000000	98.603489
3855.000000	98.599804
3854.000000	98.593581
3853.000000	98.585808
3852.000000	98.583415
3851.000000	98.589686
3850.000000	98.600351
3849.000000	98.610035
3848.000000	98.616608
3847.000000	98.620693
3846.000000	98.622894
3845.000000	98.622329
3844.000000	98.617729
3843.000000	98.609789
3842.000000	98.602343
3841.000000	98.600349
3840.000000	98.606079
3839.000000	98.616851
3838.000000	98.627555
3837.000000	98.635277
3836.000000	98.640873
3835.000000	98.645610
3834.000000	98.648996
3833.000000	98.650059
3832.000000	98.648977
3831.000000	98.646870
3830.000000	98.644569
3829.000000	98.641569
3828.000000	98.636654
3827.000000	98.629223
3826.000000	98.620262
3825.000000	98.611991
3824.000000	98.606557
3823.000000	98.605204
3822.000000	98.607599
3821.000000	98.611439
3820.000000	98.614379
3819.000000	98.616704
3818.000000	98.620227
3817.000000	98.625233
3816.000000	98.629804
3815.000000	98.631889
3814.000000	98.632001
3813.000000	98.631447
3812.000000	98.629832
3811.000000	98.626621
3810.000000	98.622542
3809.000000	98.618971
3808.000000	98.616501
3807.000000	98.614959
3806.000000	98.615027
3805.000000	98.618347
3804.000000	98.625167
3803.000000	98.633269
3802.000000	98.638632
3801.000000	98.638529
3800.000000	98.635573
3799.000000	98.634742
3798.000000	98.637011
3797.000000	98.639810
3796.000000	98.640452
3795.000000	98.638353
3794.000000	98.634892
3793.000000	98.631824
3792.000000	98.630307
3791.000000	98.630898
3790.000000	98.633151
3789.000000	98.635630
3788.000000	98.637192
3787.000000	98.637924
3786.000000	98.638522
3785.000000	98.639106
3784.000000	98.639085
3783.000000	98.638237
3782.000000	98.637236
3781.000000	98.636959
3780.000000	98.637824
3779.000000	98.639563
3778.000000	98.641348
3777.000000	98.642402
3776.000000	98.642424
3775.000000	98.641574
3774.000000	98.640396
3773.000000	98.639518
3772.000000	98.639204
3771.000000	98.639523
3770.000000	98.641287
3769.000000	98.645953
3768.000000	98.654081
3767.000000	98.663764
3766.000000	98.671132
3765.000000	98.672648
3764.000000	98.667742
3763.000000	98.658610
3762.000000	98.647550
3761.000000	98.635590
3760.000000	98.623978
3759.000000	98.615514
3758.000000	98.612649
3757.000000	98.614489
3756.000000	98.617411
3755.000000	98.618154
3754.000000	98.616077
3753.000000	98.613374
3752.000000	98.613037
3751.000000	98.614785
3750.000000	98.614501
3749.000000	98.610976
3748.000000	98.608844
3747.000000	98.613421
3746.000000	98.626416
3745.000000	98.642655
3744.000000	98.652450
3743.000000	98.654504
3742.000000	98.655246
3741.000000	98.655842
3740.000000	98.653107
3739.000000	98.646087
3738.000000	98.637409
3737.000000	98.630743
3736.000000	98.629368
3735.000000	98.635112
3734.000000	98.646134
3733.000000	98.657537
3732.000000	98.664963
3731.000000	98.667321
3730.000000	98.666255
3729.000000	98.663704
3728.000000	98.660623
3727.000000	98.657050
3726.000000	98.652884
3725.000000	98.648992
3724.000000	98.646905
3723.000000	98.647203
3722.000000	98.648606
3721.000000	98.649581
3720.000000	98.650335
3719.000000	98.652335
3718.000000	98.656078
3717.000000	98.659916
3716.000000	98.661663
3715.000000	98.660214
3714.000000	98.655548
3713.000000	98.649440
3712.000000	98.646374
3711.000000	98.650466
3710.000000	98.659641
3709.000000	98.667103
3708.000000	98.668751
3707.000000	98.665503
3706.000000	98.660878
3705.000000	98.658233
3704.000000	98.659070
3703.000000	98.662376
3702.000000	98.665466
3701.000000	98.666219
3700.000000	98.665107
3699.000000	98.664168
3698.000000	98.664344
3697.000000	98.664259
3696.000000	98.661367
3695.000000	98.654234
3694.000000	98.643943
3693.000000	98.634268
3692.000000	98.630179
3691.000000	98.634487
3690.000000	98.643571
3689.000000	98.648407
3688.000000	98.644290
3687.000000	98.635985
3686.000000	98.629970
3685.000000	98.627421
3684.000000	98.625996
3683.000000	98.623821
3682.000000	98.621016
3681.000000	98.618158
3680.000000	98.614672
3679.000000	98.609421
3678.000000	98.602277
3677.000000	98.594453
3676.000000	98.587403
3675.000000	98.582142
3674.000000	98.578795
3673.000000	98.577204
3672.000000	98.576746
3671.000000	98.577491
3670.000000	98.580249
3669.000000	98.584274
3668.000000	98.587014
3667.000000	98.586407
3666.000000	98.581913
3665.000000	98.574623
3664.000000	98.566310
3663.000000	98.558297
3662.000000	98.551264
3661.000000	98.545772
3660.000000	98.542129
3659.000000	98.539295
3658.000000	98.534748
3657.000000	98.526806
3656.000000	98.517665
3655.000000	98.512379
3654.000000	98.512958
3653.000000	98.516002
3652.000000	98.515316
3651.000000	98.505791
3650.000000	98.488494
3649.000000	98.473228
3648.000000	98.468771
3647.000000	98.471936
3646.000000	98.473835
3645.000000	98.470117
3644.000000	98.462424
3643.000000	98.455058
3642.000000	98.451298
3641.000000	98.451158
3640.000000	98.452152
3639.000000	98.451612
3638.000000	98.448157
3637.000000	98.441750
3636.000000	98.432826
3635.000000	98.421629
3634.000000	98.408634
3633.000000	98.395559
3632.000000	98.385038
3631.000000	98.378930
3630.000000	98.376344
3629.000000	98.373565
3628.000000	98.368896
3627.000000	98.365218
3626.000000	98.364292
3625.000000	98.363706
3624.000000	98.360992
3623.000000	98.356160
3622.000000	98.350071
3621.000000	98.341888
3620.000000	98.329548
3619.000000	98.313666
3618.000000	98.299068
3617.000000	98.289886
3616.000000	98.285241
3615.000000	98.280528
3614.000000	98.271469
3613.000000	98.257719
3612.000000	98.242920
3611.000000	98.230440
3610.000000	98.219949
3609.000000	98.209704
3608.000000	98.200627
3607.000000	98.195619
3606.000000	98.195160
3605.000000	98.196075
3604.000000	98.194730
3603.000000	98.189399
3602.000000	98.180378
3601.000000	98.169147
3600.000000	98.157571
3599.000000	98.146917
3598.000000	98.136676
3597.000000	98.125164
3596.000000	98.111735
3595.000000	98.098241
3594.000000	98.087101
3593.000000	98.078710
3592.000000	98.071222
3591.000000	98.063224
3590.000000	98.055111
3589.000000	98.048077
3588.000000	98.041856
3587.000000	98.034458
3586.000000	98.024940
3585.000000	98.014887
3584.000000	98.006105
3583.000000	97.998414
3582.000000	97.990177
3581.000000	97.980232
3580.000000	97.969088
3579.000000	97.958458
3578.000000	97.949392
3577.000000	97.941439
3576.000000	97.933137
3575.000000	97.923060
3574.000000	97.910325
3573.000000	97.894988
3572.000000	97.878270
3571.000000	97.862043
3570.000000	97.847936
3569.000000	97.836747
3568.000000	97.828443
3567.000000	97.822095
3566.000000	97.815648
3565.000000	97.806836
3564.000000	97.794876
3563.000000	97.780591
3562.000000	97.765555
3561.000000	97.751053
3560.000000	97.737363
3559.000000	97.723918
3558.000000	97.710385
3557.000000	97.697285
3556.000000	97.685365
3555.000000	97.674330
3554.000000	97.662423
3553.000000	97.647809
3552.000000	97.630916
3551.000000	97.614854
3550.000000	97.603072
3549.000000	97.596969
3548.000000	97.595354
3547.000000	97.595323
3546.000000	97.593836
3545.000000	97.589298
3544.000000	97.581606
3543.000000	97.570592
3542.000000	97.555413
3541.000000	97.536207
3540.000000	97.515657
3539.000000	97.497687
3538.000000	97.484137
3537.000000	97.473198
3536.000000	97.461580
3535.000000	97.448013
3534.000000	97.434061
3533.000000	97.422351
3532.000000	97.414588
3531.000000	97.410599
3530.000000	97.408084
3529.000000	97.403800
3528.000000	97.396006
3527.000000	97.385775
3526.000000	97.375089
3525.000000	97.363991
3524.000000	97.350552
3523.000000	97.333704
3522.000000	97.315267
3521.000000	97.298689
3520.000000	97.286318
3519.000000	97.278110
3518.000000	97.272217
3517.000000	97.266255
3516.000000	97.258338
3515.000000	97.247734
3514.000000	97.235054
3513.000000	97.221818
3512.000000	97.209274
3511.000000	97.197481
3510.000000	97.185662
3509.000000	97.173677
3508.000000	97.162814
3507.000000	97.154900
3506.000000	97.150754
3505.000000	97.149472
3504.000000	97.148668
3503.000000	97.145443
3502.000000	97.137844
3501.000000	97.125828
3500.000000	97.110723
3499.000000	97.094064
3498.000000	97.077323
3497.000000	97.062335
3496.000000	97.050584
3495.000000	97.041396
3494.000000	97.031728
3493.000000	97.019040
3492.000000	97.004240
3491.000000	96.990971
3490.000000	96.982079
3489.000000	96.977178
3488.000000	96.973456
3487.000000	96.967853
3486.000000	96.958326
3485.000000	96.944127
3484.000000	96.926216
3483.000000	96.907666
3482.000000	96.892696
3481.000000	96.884053
3480.000000	96.880984
3479.000000	96.880012
3478.000000	96.877955
3477.000000	96.874028
3476.000000	96.869085
3475.000000	96.863237
3474.000000	96.855010
3473.000000	96.843196
3472.000000	96.828714
3471.000000	96.814025
3470.000000	96.801228
3469.000000	96.791280
3468.000000	96.784200
3467.000000	96.778846
3466.000000	96.773009
3465.000000	96.765103
3464.000000	96.755947
3463.000000	96.747840
3462.000000	96.741497
3461.000000	96.734730
3460.000000	96.724644
3459.000000	96.710588
3458.000000	96.694637
3457.000000	96.679804
3456.000000	96.668220
3455.000000	96.660351
3454.000000	96.655249
3453.000000	96.651646
3452.000000	96.649003
3451.000000	96.647498
3450.000000	96.646847
3449.000000	96.645436
3448.000000	96.640968
3447.000000	96.632153
3446.000000	96.619704
3445.000000	96.605575
3444.000000	96.591592
3443.000000	96.579063
3442.000000	96.569277
3441.000000	96.563446
3440.000000	96.561579
3439.000000	96.561589
3438.000000	96.560248
3437.000000	96.555459
3436.000000	96.547383
3435.000000	96.537322
3434.000000	96.526204
3433.000000	96.514693
3432.000000	96.503991
3431.000000	96.495397
3430.000000	96.489007
3429.000000	96.483686
3428.000000	96.478460
3427.000000	96.473198
3426.000000	96.467788
3425.000000	96.461408
3424.000000	96.453060
3423.000000	96.442501
3422.000000	96.430415
3421.000000	96.418009
3420.000000	96.406548
3419.000000	96.396959
3418.000000	96.389549
3417.000000	96.384019
3416.000000	96.379488
3415.000000	96.374454
3414.000000	96.367235
3413.000000	96.357109
3412.000000	96.344878
3411.000000	96.331957
3410.000000	96.319366
3409.000000	96.308197
3408.000000	96.300350
3407.000000	96.297221
3406.000000	96.297418
3405.000000	96.296972
3404.000000	96.292635
3403.000000	96.284507
3402.000000	96.275070
3401.000000	96.266359
3400.000000	96.258449
3399.000000	96.249935
3398.000000	96.239103
3397.000000	96.225122
3396.000000	96.208879
3395.000000	96.192659
3394.000000	96.178559
3393.000000	96.167152
3392.000000	96.157708
3391.000000	96.149381
3390.000000	96.141783
3389.000000	96.134642
3388.000000	96.127562
3387.000000	96.120384
3386.000000	96.113437
3385.000000	96.106885
3384.000000	96.099705
3383.000000	96.089821
3382.000000	96.075936
3381.000000	96.059458
3380.000000	96.044175
3379.000000	96.033462
3378.000000	96.027643
3377.000000	96.023966
3376.000000	96.018831
3375.000000	96.010043
3374.000000	95.997729
3373.000000	95.983869
3372.000000	95.970891
3371.000000	95.960117
3370.000000	95.951241
3369.000000	95.943098
3368.000000	95.934513
3367.000000	95.924368
3366.000000	95.911711
3365.000000	95.896721
3364.000000	95.881232
3363.000000	95.867490
3362.000000	95.856161
3361.000000	95.845731
3360.000000	95.833631
3359.000000	95.817787
3358.000000	95.797755
3357.000000	95.775237
3356.000000	95.753373
3355.000000	95.734806
3354.000000	95.720130
3353.000000	95.708188
3352.000000	95.697290
3351.000000	95.685667
3350.000000	95.671584
3349.000000	95.654334
3348.000000	95.635258
3347.000000	95.616955
3346.000000	95.601135
3345.000000	95.587457
3344.000000	95.574329
3343.000000	95.560409
3342.000000	95.545376
3341.000000	95.529744
3340.000000	95.514055
3339.000000	95.498244
3338.000000	95.482096
3337.000000	95.466407
3336.000000	95.452834
3335.000000	95.441872
3334.000000	95.431608
3333.000000	95.419476
3332.000000	95.404947
3331.000000	95.389579
3330.000000	95.374758
3329.000000	95.360358
3328.000000	95.345535
3327.000000	95.329837
3326.000000	95.313319
3325.000000	95.296298
3324.000000	95.279319
3323.000000	95.262974
3322.000000	95.247614
3321.000000	95.233508
3320.000000	95.220923
3319.000000	95.209538
3318.000000	95.198173
3317.000000	95.185831
3316.000000	95.172932
3315.000000	95.160831
3314.000000	95.150175
3313.000000	95.140267
3312.000000	95.129747
3311.000000	95.117298
3310.000000	95.102249
3309.000000	95.085531
3308.000000	95.069912
3307.000000	95.058102
3306.000000	95.050332
3305.000000	95.044227
3304.000000	95.036779
3303.000000	95.026028
3302.000000	95.011691
3301.000000	94.995521
3300.000000	94.980931
3299.000000	94.970778
3298.000000	94.965027
3297.000000	94.961167
3296.000000	94.956741
3295.000000	94.950670
3294.000000	94.942528
3293.000000	94.932336
3292.000000	94.921448
3291.000000	94.912103
3290.000000	94.905335
3289.000000	94.900191
3288.000000	94.895544
3287.000000	94.891634
3286.000000	94.889213
3285.000000	94.888183
3284.000000	94.887749
3283.000000	94.887207
3282.000000	94.886060
3281.000000	94.884218
3280.000000	94.882957
3279.000000	94.884769
3278.000000	94.891252
3277.000000	94.901328
3276.000000	94.912265
3275.000000	94.922337
3274.000000	94.931675
3273.000000	94.940869
3272.000000	94.949586
3271.000000	94.956778
3270.000000	94.961842
3269.000000	94.965419
3268.000000	94.969211
3267.000000	94.974979
3266.000000	94.983469
3265.000000	94.994292
3264.000000	95.006795
3263.000000	95.020769
3262.000000	95.036237
3261.000000	95.052789
3260.000000	95.069364
3259.000000	95.084673
3258.000000	95.098165
3257.000000	95.110888
3256.000000	95.125111
3255.000000	95.142426
3254.000000	95.162015
3253.000000	95.181332
3252.000000	95.198549
3251.000000	95.213861
3250.000000	95.228321
3249.000000	95.242204
3248.000000	95.255043
3247.000000	95.266655
3246.000000	95.277282
3245.000000	95.286640
3244.000000	95.293537
3243.000000	95.297121
3242.000000	95.298469
3241.000000	95.300608
3240.000000	95.306634
3239.000000	95.317763
3238.000000	95.333182
3237.000000	95.351143
3236.000000	95.369545
3235.000000	95.385948
3234.000000	95.398539
3233.000000	95.407696
3232.000000	95.415685
3231.000000	95.424023
3230.000000	95.431930
3229.000000	95.438117
3228.000000	95.443218
3227.000000	95.449322
3226.000000	95.457615
3225.000000	95.467691
3224.000000	95.478686
3223.000000	95.489827
3222.000000	95.500188
3221.000000	95.509414
3220.000000	95.518709
3219.000000	95.529607
3218.000000	95.541380
3217.000000	95.551132
3216.000000	95.556994
3215.000000	95.560161
3214.000000	95.563062
3213.000000	95.566581
3212.000000	95.570116
3211.000000	95.573621
3210.000000	95.578220
3209.000000	95.584561
3208.000000	95.591617
3207.000000	95.597796
3206.000000	95.603199
3205.000000	95.610030
3204.000000	95.620208
3203.000000	95.632577
3202.000000	95.643465
3201.000000	95.650570
3200.000000	95.655721
3199.000000	95.663040
3198.000000	95.674598
3197.000000	95.688667
3196.000000	95.701658
3195.000000	95.710971
3194.000000	95.716349
3193.000000	95.720076
3192.000000	95.726071
3191.000000	95.737377
3190.000000	95.753700
3189.000000	95.771774
3188.000000	95.788291
3187.000000	95.801998
3186.000000	95.813472
3185.000000	95.824220
3184.000000	95.836057
3183.000000	95.849809
3182.000000	95.863836
3181.000000	95.874878
3180.000000	95.881251
3179.000000	95.884648
3178.000000	95.888496
3177.000000	95.895264
3176.000000	95.905925
3175.000000	95.920597
3174.000000	95.938267
3173.000000	95.956296
3172.000000	95.971608
3171.000000	95.982838
3170.000000	95.990902
3169.000000	95.997730
3168.000000	96.004900
3167.000000	96.013175
3166.000000	96.022538
3165.000000	96.032479
3164.000000	96.042663
3163.000000	96.053478
3162.000000	96.065825
3161.000000	96.080353
3160.000000	96.096808
3159.000000	96.113796
3158.000000	96.129145
3157.000000	96.141097
3156.000000	96.149820
3155.000000	96.157707
3154.000000	96.167704
3153.000000	96.180925
3152.000000	96.195612
3151.000000	96.208507
3150.000000	96.217746
3149.000000	96.225003
3148.000000	96.234413
3147.000000	96.248670
3146.000000	96.266079
