PE IR       SUBTECH     SPECTRUM    ASCII       PEDS        4.00        
   -1
3C-XXX-F013_1.ASC
23/09/07
10:46:50.00
23/09/07
11:30:09.00
uco
Sample 013 By uco Date Thursday, September 07 2023
450.000000
#HDR
-1
-1
#GR
cm-1
%T
1.0
0.0
4000.000000
-1.000000
3551
8
99.028918
87.692026
#DATA
4000.000000	98.931083
3999.000000	98.926822
3998.000000	98.920889
3997.000000	98.915611
3996.000000	98.913023
3995.000000	98.913358
3994.000000	98.915052
3993.000000	98.916256
3992.000000	98.916275
3991.000000	98.915566
3990.000000	98.914761
3989.000000	98.914030
3988.000000	98.913355
3987.000000	98.912860
3986.000000	98.912583
3985.000000	98.912311
3984.000000	98.912149
3983.000000	98.913047
3982.000000	98.916002
3981.000000	98.920417
3980.000000	98.923769
3979.000000	98.923515
3978.000000	98.919338
3977.000000	98.913322
3976.000000	98.907988
3975.000000	98.904433
3974.000000	98.902383
3973.000000	98.901444
3972.000000	98.901729
3971.000000	98.903268
3970.000000	98.905348
3969.000000	98.906838
3968.000000	98.907181
3967.000000	98.906836
3966.000000	98.906641
3965.000000	98.906884
3964.000000	98.907024
3963.000000	98.906292
3962.000000	98.904528
3961.000000	98.902366
3960.000000	98.900542
3959.000000	98.899070
3958.000000	98.897034
3957.000000	98.893284
3956.000000	98.887559
3955.000000	98.881084
3954.000000	98.875922
3953.000000	98.873568
3952.000000	98.874036
3951.000000	98.876306
3950.000000	98.879524
3949.000000	98.883470
3948.000000	98.887767
3947.000000	98.890944
3946.000000	98.890884
3945.000000	98.886452
3944.000000	98.878902
3943.000000	98.871851
3942.000000	98.869159
3941.000000	98.872327
3940.000000	98.879761
3939.000000	98.888093
3938.000000	98.893929
3937.000000	98.895187
3936.000000	98.892133
3935.000000	98.887318
3934.000000	98.884191
3933.000000	98.885172
3932.000000	98.890187
3931.000000	98.896738
3930.000000	98.901575
3929.000000	98.902533
3928.000000	98.899389
3927.000000	98.893785
3926.000000	98.888591
3925.000000	98.886596
3924.000000	98.888583
3923.000000	98.892489
3922.000000	98.894910
3921.000000	98.893121
3920.000000	98.886122
3919.000000	98.875369
3918.000000	98.865174
3917.000000	98.860835
3916.000000	98.864363
3915.000000	98.872373
3914.000000	98.878943
3913.000000	98.880507
3912.000000	98.877708
3911.000000	98.873701
3910.000000	98.870963
3909.000000	98.869404
3908.000000	98.867149
3907.000000	98.862864
3906.000000	98.857708
3905.000000	98.855610
3904.000000	98.860452
3903.000000	98.871443
3902.000000	98.882845
3901.000000	98.889671
3900.000000	98.892354
3899.000000	98.894770
3898.000000	98.898648
3897.000000	98.901930
3896.000000	98.901986
3895.000000	98.898472
3894.000000	98.893348
3893.000000	98.889651
3892.000000	98.889871
3891.000000	98.894134
3890.000000	98.899563
3889.000000	98.902786
3888.000000	98.902488
3887.000000	98.899511
3886.000000	98.895679
3885.000000	98.892066
3884.000000	98.887784
3883.000000	98.881428
3882.000000	98.873543
3881.000000	98.866870
3880.000000	98.863904
3879.000000	98.863977
3878.000000	98.864134
3877.000000	98.862994
3876.000000	98.861893
3875.000000	98.862943
3874.000000	98.866270
3873.000000	98.868737
3872.000000	98.866817
3871.000000	98.861733
3870.000000	98.860112
3869.000000	98.866285
3868.000000	98.876083
3867.000000	98.882395
3866.000000	98.882827
3865.000000	98.880273
3864.000000	98.878768
3863.000000	98.879367
3862.000000	98.879838
3861.000000	98.878110
3860.000000	98.874444
3859.000000	98.870835
3858.000000	98.869174
3857.000000	98.869827
3856.000000	98.871389
3855.000000	98.871805
3854.000000	98.870906
3853.000000	98.871772
3852.000000	98.874567
3851.000000	98.875710
3850.000000	98.874855
3849.000000	98.874077
3848.000000	98.874011
3847.000000	98.873414
3846.000000	98.871158
3845.000000	98.868035
3844.000000	98.866073
3843.000000	98.866296
3842.000000	98.867594
3841.000000	98.868486
3840.000000	98.869418
3839.000000	98.872341
3838.000000	98.877725
3837.000000	98.883689
3836.000000	98.888606
3835.000000	98.892670
3834.000000	98.896536
3833.000000	98.899854
3832.000000	98.901345
3831.000000	98.899460
3830.000000	98.893056
3829.000000	98.882298
3828.000000	98.869346
3827.000000	98.858095
3826.000000	98.851566
3825.000000	98.848927
3824.000000	98.846295
3823.000000	98.841256
3822.000000	98.836393
3821.000000	98.837804
3820.000000	98.846174
3819.000000	98.854418
3818.000000	98.857909
3817.000000	98.859114
3816.000000	98.863415
3815.000000	98.871926
3814.000000	98.879885
3813.000000	98.883182
3812.000000	98.882526
3811.000000	98.881073
3810.000000	98.880836
3809.000000	98.881616
3808.000000	98.882464
3807.000000	98.883457
3806.000000	98.884861
3805.000000	98.885763
3804.000000	98.885779
3803.000000	98.887136
3802.000000	98.892941
3801.000000	98.901789
3800.000000	98.906341
3799.000000	98.901757
3798.000000	98.890898
3797.000000	98.880519
3796.000000	98.875247
3795.000000	98.874141
3794.000000	98.873022
3793.000000	98.869545
3792.000000	98.865058
3791.000000	98.862702
3790.000000	98.864767
3789.000000	98.870784
3788.000000	98.877684
3787.000000	98.882036
3786.000000	98.882714
3785.000000	98.881490
3784.000000	98.880731
3783.000000	98.880732
3782.000000	98.880042
3781.000000	98.877713
3780.000000	98.874465
3779.000000	98.871892
3778.000000	98.870786
3777.000000	98.871030
3776.000000	98.872676
3775.000000	98.875589
3774.000000	98.878018
3773.000000	98.876997
3772.000000	98.871387
3771.000000	98.865016
3770.000000	98.864893
3769.000000	98.873417
3768.000000	98.884779
3767.000000	98.891367
3766.000000	98.890829
3765.000000	98.886077
3764.000000	98.880731
3763.000000	98.875789
3762.000000	98.870678
3761.000000	98.865474
3760.000000	98.861098
3759.000000	98.858369
3758.000000	98.857622
3757.000000	98.859015
3756.000000	98.862287
3755.000000	98.866689
3754.000000	98.871958
3753.000000	98.879077
3752.000000	98.888923
3751.000000	98.899498
3750.000000	98.906574
3749.000000	98.908697
3748.000000	98.908602
3747.000000	98.909039
3746.000000	98.910509
3745.000000	98.912282
3744.000000	98.913472
3743.000000	98.912539
3742.000000	98.908366
3741.000000	98.902297
3740.000000	98.896871
3739.000000	98.893764
3738.000000	98.892915
3737.000000	98.893279
3736.000000	98.894383
3735.000000	98.896701
3734.000000	98.900713
3733.000000	98.906533
3732.000000	98.913984
3731.000000	98.921861
3730.000000	98.928336
3729.000000	98.932541
3728.000000	98.934973
3727.000000	98.936284
3726.000000	98.935833
3725.000000	98.931961
3724.000000	98.924000
3723.000000	98.913323
3722.000000	98.902276
3721.000000	98.893265
3720.000000	98.888712
3719.000000	98.890112
3718.000000	98.896486
3717.000000	98.904497
3716.000000	98.910504
3715.000000	98.912541
3714.000000	98.910476
3713.000000	98.905872
3712.000000	98.902476
3711.000000	98.904411
3710.000000	98.911126
3709.000000	98.917219
3708.000000	98.918543
3707.000000	98.915648
3706.000000	98.912039
3705.000000	98.910879
3704.000000	98.913111
3703.000000	98.917578
3702.000000	98.922650
3701.000000	98.927641
3700.000000	98.932497
3699.000000	98.936489
3698.000000	98.937897
3697.000000	98.934746
3696.000000	98.926144
3695.000000	98.913468
3694.000000	98.900370
3693.000000	98.891221
3692.000000	98.888531
3691.000000	98.891275
3690.000000	98.895758
3689.000000	98.898862
3688.000000	98.899962
3687.000000	98.899822
3686.000000	98.899267
3685.000000	98.898846
3684.000000	98.898570
3683.000000	98.897402
3682.000000	98.893698
3681.000000	98.886872
3680.000000	98.878691
3679.000000	98.871711
3678.000000	98.866823
3677.000000	98.864120
3676.000000	98.865639
3675.000000	98.872492
3674.000000	98.878687
3673.000000	98.876991
3672.000000	98.867393
3671.000000	98.856289
3670.000000	98.851361
3669.000000	98.854030
3668.000000	98.857594
3667.000000	98.856456
3666.000000	98.851254
3665.000000	98.845497
3664.000000	98.841743
3663.000000	98.840274
3662.000000	98.839915
3661.000000	98.839576
3660.000000	98.838814
3659.000000	98.837065
3658.000000	98.833281
3657.000000	98.827281
3656.000000	98.821228
3655.000000	98.817602
3654.000000	98.816135
3653.000000	98.814273
3652.000000	98.808738
3651.000000	98.796536
3650.000000	98.778105
3649.000000	98.761336
3648.000000	98.756031
3647.000000	98.762056
3646.000000	98.770119
3645.000000	98.772148
3644.000000	98.767121
3643.000000	98.759988
3642.000000	98.756541
3641.000000	98.758292
3640.000000	98.761868
3639.000000	98.763108
3638.000000	98.760298
3637.000000	98.753630
3636.000000	98.744018
3635.000000	98.733651
3634.000000	98.725954
3633.000000	98.722571
3632.000000	98.721122
3631.000000	98.717323
3630.000000	98.709615
3629.000000	98.702165
3628.000000	98.699408
3627.000000	98.698006
3626.000000	98.693063
3625.000000	98.684814
3624.000000	98.676073
3623.000000	98.668584
3622.000000	98.661697
3621.000000	98.653305
3620.000000	98.642349
3619.000000	98.630974
3618.000000	98.622852
3617.000000	98.619051
3616.000000	98.617487
3615.000000	98.615140
3614.000000	98.610032
3613.000000	98.602419
3612.000000	98.594231
3611.000000	98.586694
3610.000000	98.579366
3609.000000	98.571897
3608.000000	98.565530
3607.000000	98.561618
3606.000000	98.559335
3605.000000	98.556469
3604.000000	98.551811
3603.000000	98.545786
3602.000000	98.539557
3601.000000	98.533981
3600.000000	98.528954
3599.000000	98.523030
3598.000000	98.513817
3597.000000	98.499458
3596.000000	98.480574
3595.000000	98.461079
3594.000000	98.445849
3593.000000	98.436728
3592.000000	98.431739
3591.000000	98.428078
3590.000000	98.424268
3589.000000	98.420044
3588.000000	98.415414
3587.000000	98.410296
3586.000000	98.404703
3585.000000	98.398967
3584.000000	98.393559
3583.000000	98.387966
3582.000000	98.380312
3581.000000	98.369089
3580.000000	98.355587
3579.000000	98.343704
3578.000000	98.336334
3577.000000	98.332254
3576.000000	98.326859
3575.000000	98.316174
3574.000000	98.300070
3573.000000	98.282231
3572.000000	98.267367
3571.000000	98.258450
3570.000000	98.255228
3569.000000	98.254316
3568.000000	98.250796
3567.000000	98.241808
3566.000000	98.228807
3565.000000	98.214824
3564.000000	98.201144
3563.000000	98.187876
3562.000000	98.175411
3561.000000	98.164374
3560.000000	98.154573
3559.000000	98.144675
3558.000000	98.133384
3557.000000	98.120626
3556.000000	98.107039
3555.000000	98.092612
3554.000000	98.076764
3553.000000	98.060242
3552.000000	98.046046
3551.000000	98.036943
3550.000000	98.032327
3549.000000	98.028819
3548.000000	98.023623
3547.000000	98.016987
3546.000000	98.011496
3545.000000	98.008765
3544.000000	98.006906
3543.000000	98.001622
3542.000000	97.989427
3541.000000	97.970361
3540.000000	97.948582
3539.000000	97.930344
3538.000000	97.920024
3537.000000	97.917010
3536.000000	97.916281
3535.000000	97.912538
3534.000000	97.903800
3533.000000	97.891382
3532.000000	97.877831
3531.000000	97.865558
3530.000000	97.856613
3529.000000	97.852293
3528.000000	97.852205
3527.000000	97.853698
3526.000000	97.852805
3525.000000	97.846154
3524.000000	97.832638
3523.000000	97.814125
3522.000000	97.794511
3521.000000	97.777367
3520.000000	97.764059
3519.000000	97.753720
3518.000000	97.744509
3517.000000	97.734739
3516.000000	97.723291
3515.000000	97.709686
3514.000000	97.694397
3513.000000	97.678996
3512.000000	97.665606
3511.000000	97.655903
3510.000000	97.650300
3509.000000	97.647722
3508.000000	97.646158
3507.000000	97.643776
3506.000000	97.639879
3505.000000	97.634786
3504.000000	97.628794
3503.000000	97.621479
3502.000000	97.612434
3501.000000	97.602291
3500.000000	97.592182
3499.000000	97.582297
3498.000000	97.571776
3497.000000	97.560060
3496.000000	97.547627
3495.000000	97.535012
3494.000000	97.522076
3493.000000	97.509118
3492.000000	97.497916
3491.000000	97.490470
3490.000000	97.486791
3489.000000	97.484788
3488.000000	97.482386
3487.000000	97.478716
3486.000000	97.472959
3485.000000	97.463311
3484.000000	97.448447
3483.000000	97.429967
3482.000000	97.412524
3481.000000	97.400614
3480.000000	97.395268
3479.000000	97.394065
3478.000000	97.393779
3477.000000	97.392275
3476.000000	97.388450
3475.000000	97.381734
3474.000000	97.372420
3473.000000	97.361899
3472.000000	97.351665
3471.000000	97.341991
3470.000000	97.332184
3469.000000	97.322087
3468.000000	97.312565
3467.000000	97.304241
3466.000000	97.296619
3465.000000	97.289210
3464.000000	97.282891
3463.000000	97.279017
3462.000000	97.277096
3461.000000	97.274220
3460.000000	97.267373
3459.000000	97.256144
3458.000000	97.243032
3457.000000	97.231330
3456.000000	97.222754
3455.000000	97.216663
3454.000000	97.211311
3453.000000	97.205700
3452.000000	97.200144
3451.000000	97.195291
3450.000000	97.191164
3449.000000	97.187359
3448.000000	97.183605
3447.000000	97.179532
3446.000000	97.174094
3445.000000	97.165982
3444.000000	97.154879
3443.000000	97.142297
3442.000000	97.131220
3441.000000	97.124534
3440.000000	97.122932
3439.000000	97.123934
3438.000000	97.123413
3437.000000	97.118742
3436.000000	97.110499
3435.000000	97.100934
3434.000000	97.091398
3433.000000	97.081832
3432.000000	97.072157
3431.000000	97.063001
3430.000000	97.055060
3429.000000	97.048528
3428.000000	97.043222
3427.000000	97.038470
3426.000000	97.032855
3425.000000	97.024949
3424.000000	97.014654
3423.000000	97.003333
3422.000000	96.992362
3421.000000	96.982084
3420.000000	96.972450
3419.000000	96.964011
3418.000000	96.957526
3417.000000	96.952710
3416.000000	96.947946
3415.000000	96.941481
3414.000000	96.932966
3413.000000	96.923774
3412.000000	96.915564
3411.000000	96.908464
3410.000000	96.901020
3409.000000	96.892255
3408.000000	96.883361
3407.000000	96.876577
3406.000000	96.872332
3405.000000	96.868236
3404.000000	96.861349
3403.000000	96.851287
3402.000000	96.840759
3401.000000	96.833004
3400.000000	96.828667
3399.000000	96.824987
3398.000000	96.818030
3397.000000	96.806031
3396.000000	96.790712
3395.000000	96.775393
3394.000000	96.762080
3393.000000	96.750568
3392.000000	96.739905
3391.000000	96.730037
3390.000000	96.721901
3389.000000	96.716415
3388.000000	96.713626
3387.000000	96.712420
3386.000000	96.710726
3385.000000	96.706209
3384.000000	96.697357
3383.000000	96.684345
3382.000000	96.669114
3381.000000	96.654568
3380.000000	96.643214
3379.000000	96.635858
3378.000000	96.631230
3377.000000	96.626878
3376.000000	96.620577
3375.000000	96.611260
3374.000000	96.599155
3373.000000	96.585480
3372.000000	96.571847
3371.000000	96.559454
3370.000000	96.548500
3369.000000	96.538304
3368.000000	96.527945
3367.000000	96.516842
3366.000000	96.504963
3365.000000	96.492800
3364.000000	96.481049
3363.000000	96.470054
3362.000000	96.459496
3361.000000	96.448770
3360.000000	96.437671
3359.000000	96.426526
3358.000000	96.415507
3357.000000	96.403862
3356.000000	96.390160
3355.000000	96.373746
3354.000000	96.356000
3353.000000	96.339584
3352.000000	96.325927
3351.000000	96.313718
3350.000000	96.300387
3349.000000	96.284709
3348.000000	96.267383
3347.000000	96.249530
3346.000000	96.231802
3345.000000	96.214909
3344.000000	96.199550
3343.000000	96.185168
3342.000000	96.170004
3341.000000	96.153370
3340.000000	96.136952
3339.000000	96.122800
3338.000000	96.110695
3337.000000	96.098507
3336.000000	96.084677
3335.000000	96.069249
3334.000000	96.052947
3333.000000	96.036635
3332.000000	96.021732
3331.000000	96.009648
3330.000000	96.000163
3329.000000	95.991061
3328.000000	95.979822
3327.000000	95.965442
3326.000000	95.948701
3325.000000	95.931341
3324.000000	95.915076
3323.000000	95.900712
3322.000000	95.887807
3321.000000	95.875494
3320.000000	95.863566
3319.000000	95.852371
3318.000000	95.841720
3317.000000	95.830670
3316.000000	95.818728
3315.000000	95.806787
3314.000000	95.796352
3313.000000	95.787833
3312.000000	95.779715
3311.000000	95.769511
3310.000000	95.755901
3309.000000	95.740208
3308.000000	95.725428
3307.000000	95.713442
3306.000000	95.703538
3305.000000	95.693870
3304.000000	95.683648
3303.000000	95.673366
3302.000000	95.663607
3301.000000	95.654702
3300.000000	95.647158
3299.000000	95.640975
3298.000000	95.634522
3297.000000	95.625470
3296.000000	95.613477
3295.000000	95.601156
3294.000000	95.591656
3293.000000	95.585833
3292.000000	95.582225
3291.000000	95.579184
3290.000000	95.576330
3289.000000	95.574024
3288.000000	95.572020
3287.000000	95.569054
3286.000000	95.563981
3285.000000	95.557337
3284.000000	95.551254
3283.000000	95.547345
3282.000000	95.545070
3281.000000	95.543081
3280.000000	95.542034
3279.000000	95.544666
3278.000000	95.552708
3277.000000	95.564504
3276.000000	95.576445
3275.000000	95.586384
3274.000000	95.594749
3273.000000	95.602733
3272.000000	95.610323
3271.000000	95.616401
3270.000000	95.620302
3269.000000	95.622789
3268.000000	95.625521
3267.000000	95.629837
3266.000000	95.636225
3265.000000	95.644794
3264.000000	95.655631
3263.000000	95.668259
3262.000000	95.681108
3261.000000	95.692195
3260.000000	95.700452
3259.000000	95.706190
3258.000000	95.710799
3257.000000	95.716726
3256.000000	95.727217
3255.000000	95.744307
3254.000000	95.766124
3253.000000	95.787142
3252.000000	95.802363
3251.000000	95.811273
3250.000000	95.817486
3249.000000	95.824925
3248.000000	95.834892
3247.000000	95.846174
3246.000000	95.856732
3245.000000	95.865043
3244.000000	95.870702
3243.000000	95.874558
3242.000000	95.878330
3241.000000	95.883807
3240.000000	95.892294
3239.000000	95.904522
3238.000000	95.920406
3237.000000	95.938369
3236.000000	95.955240
3235.000000	95.968008
3234.000000	95.976433
3233.000000	95.983559
3232.000000	95.992736
3231.000000	96.003855
3230.000000	96.013223
3229.000000	96.017501
3228.000000	96.017334
3227.000000	96.016712
3226.000000	96.019141
3225.000000	96.025118
3224.000000	96.032787
3223.000000	96.040060
3222.000000	96.046045
3221.000000	96.051336
3220.000000	96.057483
3219.000000	96.065596
3218.000000	96.074881
3217.000000	96.082814
3216.000000	96.087202
3215.000000	96.088180
3214.000000	96.088055
3213.000000	96.089238
3212.000000	96.092634
3211.000000	96.097899
3210.000000	96.104774
3209.000000	96.113481
3208.000000	96.123709
3207.000000	96.133839
3206.000000	96.142001
3205.000000	96.147918
3204.000000	96.153036
3203.000000	96.158562
3202.000000	96.164152
3201.000000	96.169089
3200.000000	96.173994
3199.000000	96.180368
3198.000000	96.188645
3197.000000	96.197784
3196.000000	96.206686
3195.000000	96.215053
3194.000000	96.222785
3193.000000	96.229724
3192.000000	96.236532
3191.000000	96.244857
3190.000000	96.255726
3189.000000	96.268238
3188.000000	96.280480
3187.000000	96.291530
3186.000000	96.302079
3185.000000	96.313382
3184.000000	96.326025
3183.000000	96.339491
3182.000000	96.352419
3181.000000	96.363408
3180.000000	96.371960
3179.000000	96.378682
3178.000000	96.384628
3177.000000	96.390862
3176.000000	96.398775
3175.000000	96.409916
3174.000000	96.424562
3173.000000	96.440761
3172.000000	96.455656
3171.000000	96.467998
3170.000000	96.478768
3169.000000	96.489495
3168.000000	96.500745
3167.000000	96.512434
3166.000000	96.524642
3165.000000	96.537312
3164.000000	96.549526
3163.000000	96.559959
3162.000000	96.568273
3161.000000	96.575747
3160.000000	96.584340
3159.000000	96.595126
3158.000000	96.607432
3157.000000	96.619379
3156.000000	96.629472
3155.000000	96.638141
3154.000000	96.647644
3153.000000	96.659940
3152.000000	96.674365
3151.000000	96.687873
3150.000000	96.697897
3149.000000	96.704809
3148.000000	96.711154
3147.000000	96.718826
3146.000000	96.727514
