PE IR       SUBTECH     SPECTRUM    ASCII       PEDS        4.00        
   -1
3C-YYX-F012_1.ASC
23/09/07
11:02:20.00
23/09/07
11:30:09.00
uco
Sample 012 By uco Date Thursday, September 07 2023
450.000000
#HDR
-1
-1
#GR
cm-1
%T
1.0
0.0
4000.000000
-1.000000
3551
8
98.897089
83.610137
#DATA
4000.000000	98.839614
3999.000000	98.836953
3998.000000	98.831902
3997.000000	98.826181
3996.000000	98.822171
3995.000000	98.821742
3994.000000	98.825014
3993.000000	98.830116
3992.000000	98.834281
3991.000000	98.835655
3990.000000	98.834327
3989.000000	98.831786
3988.000000	98.829552
3987.000000	98.828086
3986.000000	98.826793
3985.000000	98.825047
3984.000000	98.823278
3983.000000	98.822941
3982.000000	98.824976
3981.000000	98.828156
3980.000000	98.829408
3979.000000	98.826233
3978.000000	98.819049
3977.000000	98.811173
3976.000000	98.806427
3975.000000	98.806508
3974.000000	98.810172
3973.000000	98.814385
3972.000000	98.816325
3971.000000	98.815020
3970.000000	98.811766
3969.000000	98.809070
3968.000000	98.808636
3967.000000	98.810059
3966.000000	98.811372
3965.000000	98.810878
3964.000000	98.808639
3963.000000	98.806257
3962.000000	98.805336
3961.000000	98.806179
3960.000000	98.807692
3959.000000	98.808497
3958.000000	98.807885
3957.000000	98.805874
3956.000000	98.802850
3955.000000	98.799416
3954.000000	98.796255
3953.000000	98.793951
3952.000000	98.793043
3951.000000	98.794200
3950.000000	98.797889
3949.000000	98.803478
3948.000000	98.808988
3947.000000	98.811965
3946.000000	98.810928
3945.000000	98.806409
3944.000000	98.801127
3943.000000	98.798714
3942.000000	98.800976
3941.000000	98.806526
3940.000000	98.812092
3939.000000	98.814888
3938.000000	98.813716
3937.000000	98.808436
3936.000000	98.799445
3935.000000	98.788351
3934.000000	98.778807
3933.000000	98.775521
3932.000000	98.780732
3931.000000	98.791338
3930.000000	98.800657
3929.000000	98.803488
3928.000000	98.799517
3927.000000	98.792745
3926.000000	98.788755
3925.000000	98.791241
3924.000000	98.799049
3923.000000	98.807289
3922.000000	98.811889
3921.000000	98.811814
3920.000000	98.807435
3919.000000	98.799065
3918.000000	98.788500
3917.000000	98.780338
3916.000000	98.778485
3915.000000	98.781659
3914.000000	98.784466
3913.000000	98.783106
3912.000000	98.778141
3911.000000	98.773288
3910.000000	98.771887
3909.000000	98.774705
3908.000000	98.779760
3907.000000	98.784018
3906.000000	98.785732
3905.000000	98.786593
3904.000000	98.791032
3903.000000	98.801397
3902.000000	98.814328
3901.000000	98.823331
3900.000000	98.825117
3899.000000	98.821525
3898.000000	98.815911
3897.000000	98.809913
3896.000000	98.803569
3895.000000	98.796908
3894.000000	98.790283
3893.000000	98.784962
3892.000000	98.783560
3891.000000	98.788951
3890.000000	98.800069
3889.000000	98.811216
3888.000000	98.816599
3887.000000	98.815453
3886.000000	98.812142
3885.000000	98.810533
3884.000000	98.809204
3883.000000	98.804502
3882.000000	98.796858
3881.000000	98.791581
3880.000000	98.793162
3879.000000	98.800044
3878.000000	98.806138
3877.000000	98.806797
3876.000000	98.802740
3875.000000	98.799484
3874.000000	98.801449
3873.000000	98.805697
3872.000000	98.804931
3871.000000	98.798208
3870.000000	98.794249
3869.000000	98.799998
3868.000000	98.810146
3867.000000	98.814884
3866.000000	98.812480
3865.000000	98.809347
3864.000000	98.809983
3863.000000	98.811906
3862.000000	98.810682
3861.000000	98.806332
3860.000000	98.802416
3859.000000	98.802682
3858.000000	98.807838
3857.000000	98.814432
3856.000000	98.815978
3855.000000	98.807575
3854.000000	98.792258
3853.000000	98.780624
3852.000000	98.777479
3851.000000	98.776999
3850.000000	98.775050
3849.000000	98.773315
3848.000000	98.773712
3847.000000	98.775218
3846.000000	98.775953
3845.000000	98.776124
3844.000000	98.777941
3843.000000	98.783644
3842.000000	98.792597
3841.000000	98.801688
3840.000000	98.808282
3839.000000	98.812150
3838.000000	98.814226
3837.000000	98.815881
3836.000000	98.818070
3835.000000	98.820354
3834.000000	98.820975
3833.000000	98.818860
3832.000000	98.815318
3831.000000	98.812524
3830.000000	98.810441
3829.000000	98.806548
3828.000000	98.798966
3827.000000	98.790133
3826.000000	98.785255
3825.000000	98.786061
3824.000000	98.788364
3823.000000	98.788506
3822.000000	98.789451
3821.000000	98.797829
3820.000000	98.812098
3819.000000	98.821162
3818.000000	98.817444
3817.000000	98.804521
3816.000000	98.793642
3815.000000	98.790454
3814.000000	98.789324
3813.000000	98.784217
3812.000000	98.777469
3811.000000	98.774755
3810.000000	98.776786
3809.000000	98.778707
3808.000000	98.777553
3807.000000	98.777823
3806.000000	98.785265
3805.000000	98.797476
3804.000000	98.806892
3803.000000	98.810692
3802.000000	98.813334
3801.000000	98.819068
3800.000000	98.823852
3799.000000	98.821234
3798.000000	98.811411
3797.000000	98.800530
3796.000000	98.793731
3795.000000	98.789876
3794.000000	98.784810
3793.000000	98.777612
3792.000000	98.771473
3791.000000	98.769260
3790.000000	98.770566
3789.000000	98.772636
3788.000000	98.773140
3787.000000	98.771450
3786.000000	98.768692
3785.000000	98.767018
3784.000000	98.767798
3783.000000	98.770053
3782.000000	98.771601
3781.000000	98.771775
3780.000000	98.771806
3779.000000	98.772618
3778.000000	98.773011
3777.000000	98.771675
3776.000000	98.769843
3775.000000	98.770874
3774.000000	98.776107
3773.000000	98.782209
3772.000000	98.784028
3771.000000	98.780865
3770.000000	98.777728
3769.000000	98.779004
3768.000000	98.783464
3767.000000	98.787410
3766.000000	98.789781
3765.000000	98.791900
3764.000000	98.793576
3763.000000	98.792163
3762.000000	98.786660
3761.000000	98.780735
3760.000000	98.779288
3759.000000	98.783456
3758.000000	98.791046
3757.000000	98.800706
3756.000000	98.811573
3755.000000	98.821799
3754.000000	98.830281
3753.000000	98.838067
3752.000000	98.845244
3751.000000	98.847636
3750.000000	98.842868
3749.000000	98.836811
3748.000000	98.835079
3747.000000	98.834994
3746.000000	98.831565
3745.000000	98.825396
3744.000000	98.821418
3743.000000	98.820198
3742.000000	98.816638
3741.000000	98.809204
3740.000000	98.802340
3739.000000	98.800405
3738.000000	98.803814
3737.000000	98.812054
3736.000000	98.825375
3735.000000	98.840231
3734.000000	98.848774
3733.000000	98.847447
3732.000000	98.841337
3731.000000	98.836985
3730.000000	98.835493
3729.000000	98.834100
3728.000000	98.831692
3727.000000	98.829956
3726.000000	98.829411
3725.000000	98.827000
3724.000000	98.820210
3723.000000	98.810631
3722.000000	98.801575
3721.000000	98.795177
3720.000000	98.792341
3719.000000	98.793454
3718.000000	98.798296
3717.000000	98.805717
3716.000000	98.813308
3715.000000	98.818910
3714.000000	98.822434
3713.000000	98.826109
3712.000000	98.832038
3711.000000	98.838742
3710.000000	98.841365
3709.000000	98.836877
3708.000000	98.827686
3707.000000	98.819340
3706.000000	98.815774
3705.000000	98.816919
3704.000000	98.819782
3703.000000	98.821138
3702.000000	98.820321
3701.000000	98.819642
3700.000000	98.821065
3699.000000	98.822855
3698.000000	98.821598
3697.000000	98.816418
3696.000000	98.809187
3695.000000	98.801770
3694.000000	98.795696
3693.000000	98.794103
3692.000000	98.800720
3691.000000	98.815508
3690.000000	98.830997
3689.000000	98.836399
3688.000000	98.828453
3687.000000	98.813586
3686.000000	98.798066
3685.000000	98.784286
3684.000000	98.774029
3683.000000	98.768630
3682.000000	98.767178
3681.000000	98.767313
3680.000000	98.768361
3679.000000	98.770363
3678.000000	98.771738
3677.000000	98.771535
3676.000000	98.772951
3675.000000	98.777686
3674.000000	98.780519
3673.000000	98.776093
3672.000000	98.765660
3671.000000	98.756736
3670.000000	98.754604
3669.000000	98.753575
3668.000000	98.744900
3667.000000	98.728697
3666.000000	98.710970
3665.000000	98.696694
3664.000000	98.686986
3663.000000	98.680246
3662.000000	98.675086
3661.000000	98.671617
3660.000000	98.670076
3659.000000	98.668943
3658.000000	98.666113
3657.000000	98.661798
3656.000000	98.659766
3655.000000	98.663072
3654.000000	98.669902
3653.000000	98.675583
3652.000000	98.676915
3651.000000	98.672842
3650.000000	98.663412
3649.000000	98.651204
3648.000000	98.641221
3647.000000	98.635221
3646.000000	98.630035
3645.000000	98.622003
3644.000000	98.610443
3643.000000	98.598127
3642.000000	98.588604
3641.000000	98.582749
3640.000000	98.578572
3639.000000	98.574750
3638.000000	98.571951
3637.000000	98.570144
3636.000000	98.567341
3635.000000	98.562577
3634.000000	98.558222
3633.000000	98.556403
3632.000000	98.554880
3631.000000	98.549578
3630.000000	98.540904
3629.000000	98.534722
3628.000000	98.533401
3627.000000	98.531252
3626.000000	98.523381
3625.000000	98.511451
3624.000000	98.500603
3623.000000	98.493692
3622.000000	98.488818
3621.000000	98.482215
3620.000000	98.472120
3619.000000	98.459678
3618.000000	98.447287
3617.000000	98.436165
3616.000000	98.425347
3615.000000	98.413085
3614.000000	98.398837
3613.000000	98.383502
3612.000000	98.368223
3611.000000	98.352910
3610.000000	98.336687
3609.000000	98.320858
3608.000000	98.309542
3607.000000	98.305384
3606.000000	98.306195
3605.000000	98.307304
3604.000000	98.305894
3603.000000	98.301809
3602.000000	98.296065
3601.000000	98.289399
3600.000000	98.281714
3599.000000	98.272126
3598.000000	98.260451
3597.000000	98.247969
3596.000000	98.236521
3595.000000	98.226933
3594.000000	98.218253
3593.000000	98.208598
3592.000000	98.196928
3591.000000	98.183578
3590.000000	98.169648
3589.000000	98.156768
3588.000000	98.146152
3587.000000	98.137245
3586.000000	98.128271
3585.000000	98.118317
3584.000000	98.107859
3583.000000	98.097310
3582.000000	98.086029
3581.000000	98.072991
3580.000000	98.058496
3579.000000	98.044668
3578.000000	98.033940
3577.000000	98.027172
3576.000000	98.022806
3575.000000	98.017630
3574.000000	98.008588
3573.000000	97.995006
3572.000000	97.979376
3571.000000	97.965550
3570.000000	97.955741
3569.000000	97.949485
3568.000000	97.944533
3567.000000	97.938464
3566.000000	97.929841
3565.000000	97.918103
3564.000000	97.903111
3563.000000	97.885540
3562.000000	97.867120
3561.000000	97.849826
3560.000000	97.834735
3559.000000	97.821652
3558.000000	97.809777
3557.000000	97.798435
3556.000000	97.786806
3555.000000	97.773432
3554.000000	97.756892
3553.000000	97.737722
3552.000000	97.719237
3551.000000	97.705354
3550.000000	97.697294
3549.000000	97.692968
3548.000000	97.688827
3547.000000	97.682316
3546.000000	97.673643
3545.000000	97.665364
3544.000000	97.658709
3543.000000	97.651120
3542.000000	97.638772
3541.000000	97.621393
3540.000000	97.603232
3539.000000	97.588754
3538.000000	97.577889
3537.000000	97.566437
3536.000000	97.551064
3535.000000	97.532847
3534.000000	97.515591
3533.000000	97.502269
3532.000000	97.493610
3531.000000	97.488409
3530.000000	97.484228
3529.000000	97.478765
3528.000000	97.471521
3527.000000	97.463743
3526.000000	97.456200
3525.000000	97.447767
3524.000000	97.436478
3523.000000	97.421460
3522.000000	97.403532
3521.000000	97.384470
3520.000000	97.366244
3519.000000	97.350444
3518.000000	97.337444
3517.000000	97.325967
3516.000000	97.314240
3515.000000	97.301837
3514.000000	97.290000
3513.000000	97.280056
3512.000000	97.272040
3511.000000	97.264981
3510.000000	97.258173
3509.000000	97.251990
3508.000000	97.247440
3507.000000	97.244895
3506.000000	97.243327
3505.000000	97.240553
3504.000000	97.234115
3503.000000	97.222658
3502.000000	97.207139
3501.000000	97.190410
3500.000000	97.175016
3499.000000	97.161402
3498.000000	97.148389
3497.000000	97.135069
3496.000000	97.121670
3495.000000	97.108507
3494.000000	97.095210
3493.000000	97.081807
3492.000000	97.069806
3491.000000	97.060947
3490.000000	97.055024
3489.000000	97.049948
3488.000000	97.043940
3487.000000	97.036436
3486.000000	97.026828
3485.000000	97.013995
3484.000000	96.998149
3483.000000	96.982282
3482.000000	96.970337
3481.000000	96.963515
3480.000000	96.959247
3479.000000	96.953927
3478.000000	96.946181
3477.000000	96.937388
3476.000000	96.929871
3475.000000	96.924722
3474.000000	96.920994
3473.000000	96.916565
3472.000000	96.909503
3471.000000	96.898907
3470.000000	96.885202
3469.000000	96.870092
3468.000000	96.855829
3467.000000	96.843749
3466.000000	96.833565
3465.000000	96.824647
3464.000000	96.817652
3463.000000	96.813868
3462.000000	96.812654
3461.000000	96.810497
3460.000000	96.803445
3459.000000	96.790330
3458.000000	96.773524
3457.000000	96.757099
3456.000000	96.744594
3455.000000	96.737474
3454.000000	96.734573
3453.000000	96.733081
3452.000000	96.730757
3451.000000	96.727566
3450.000000	96.725001
3449.000000	96.723704
3448.000000	96.721915
3447.000000	96.716484
3446.000000	96.705582
3445.000000	96.690136
3444.000000	96.672696
3443.000000	96.655855
3442.000000	96.641966
3441.000000	96.633069
3440.000000	96.629547
3439.000000	96.628693
3438.000000	96.625878
3437.000000	96.618312
3436.000000	96.607616
3435.000000	96.598133
3434.000000	96.592872
3433.000000	96.591408
3432.000000	96.590975
3431.000000	96.588510
3430.000000	96.582102
3429.000000	96.571822
3428.000000	96.559724
3427.000000	96.548387
3426.000000	96.539152
3425.000000	96.531794
3424.000000	96.525409
3423.000000	96.518861
3422.000000	96.510588
3421.000000	96.499382
3420.000000	96.486004
3419.000000	96.473198
3418.000000	96.463184
3417.000000	96.455514
3416.000000	96.447854
3415.000000	96.438686
3414.000000	96.428915
3413.000000	96.420670
3412.000000	96.414642
3411.000000	96.408998
3410.000000	96.401457
3409.000000	96.392507
3408.000000	96.385673
3407.000000	96.383610
3406.000000	96.384226
3405.000000	96.381684
3404.000000	96.371720
3403.000000	96.355687
3402.000000	96.339070
3401.000000	96.326433
3400.000000	96.317927
3399.000000	96.310117
3398.000000	96.299603
3397.000000	96.285958
3396.000000	96.271606
3395.000000	96.259226
3394.000000	96.249454
3393.000000	96.240929
3392.000000	96.232056
3391.000000	96.222305
3390.000000	96.212107
3389.000000	96.202275
3388.000000	96.193823
3387.000000	96.187717
3386.000000	96.184075
3385.000000	96.181378
3384.000000	96.176844
3383.000000	96.168087
3382.000000	96.154805
3381.000000	96.139045
3380.000000	96.123850
3379.000000	96.111497
3378.000000	96.102663
3377.000000	96.096509
3376.000000	96.091028
3375.000000	96.083725
3374.000000	96.073161
3373.000000	96.060376
3372.000000	96.048177
3371.000000	96.038497
3370.000000	96.030667
3369.000000	96.022432
3368.000000	96.011982
3367.000000	95.998687
3366.000000	95.982844
3365.000000	95.966020
3364.000000	95.951116
3363.000000	95.940506
3362.000000	95.933514
3361.000000	95.926401
3360.000000	95.915406
3359.000000	95.899666
3358.000000	95.881259
3357.000000	95.863068
3356.000000	95.846913
3355.000000	95.833134
3354.000000	95.821102
3353.000000	95.809715
3352.000000	95.797600
3351.000000	95.783496
3350.000000	95.767092
3349.000000	95.749462
3348.000000	95.732207
3347.000000	95.716043
3346.000000	95.700534
3345.000000	95.685098
3344.000000	95.669551
3343.000000	95.653720
3342.000000	95.637475
3341.000000	95.621483
3340.000000	95.606912
3339.000000	95.593828
3338.000000	95.580853
3337.000000	95.567122
3336.000000	95.553594
3335.000000	95.541261
3334.000000	95.528915
3333.000000	95.514323
3332.000000	95.497512
3331.000000	95.481458
3330.000000	95.469169
3329.000000	95.460746
3328.000000	95.453257
3327.000000	95.442904
3326.000000	95.427626
3325.000000	95.408553
3324.000000	95.389149
3323.000000	95.372371
3322.000000	95.358631
3321.000000	95.346570
3320.000000	95.335041
3319.000000	95.323609
3318.000000	95.311812
3317.000000	95.299234
3316.000000	95.286282
3315.000000	95.273965
3314.000000	95.262817
3313.000000	95.252647
3312.000000	95.242942
3311.000000	95.232703
3310.000000	95.220444
3309.000000	95.205641
3308.000000	95.190056
3307.000000	95.176270
3306.000000	95.164780
3305.000000	95.153611
3304.000000	95.140847
3303.000000	95.126634
3302.000000	95.112728
3301.000000	95.101046
3300.000000	95.092696
3299.000000	95.087325
3298.000000	95.083215
3297.000000	95.078808
3296.000000	95.074018
3295.000000	95.069153
3294.000000	95.062945
3293.000000	95.053486
3292.000000	95.041353
3291.000000	95.030087
3290.000000	95.022820
3289.000000	95.019565
3288.000000	95.018418
3287.000000	95.017984
3286.000000	95.017806
3285.000000	95.017704
3284.000000	95.017690
3283.000000	95.017655
3282.000000	95.016430
3281.000000	95.012347
3280.000000	95.006041
3279.000000	95.001487
3278.000000	95.002646
3277.000000	95.009425
3276.000000	95.018370
3275.000000	95.027338
3274.000000	95.037600
3273.000000	95.050887
3272.000000	95.065642
3271.000000	95.077238
3270.000000	95.081966
3269.000000	95.080564
3268.000000	95.078254
3267.000000	95.081311
3266.000000	95.092783
3265.000000	95.110678
3264.000000	95.130026
3263.000000	95.146646
3262.000000	95.159288
3261.000000	95.169007
3260.000000	95.177448
3259.000000	95.185884
3258.000000	95.195322
3257.000000	95.206849
3256.000000	95.221507
3255.000000	95.239596
3254.000000	95.259976
3253.000000	95.280282
3252.000000	95.298181
3251.000000	95.312674
3250.000000	95.324349
3249.000000	95.334543
3248.000000	95.344322
3247.000000	95.353991
3246.000000	95.363260
3245.000000	95.371794
3244.000000	95.379785
3243.000000	95.388091
3242.000000	95.397734
3241.000000	95.409086
3240.000000	95.421633
3239.000000	95.434804
3238.000000	95.449026
3237.000000	95.465392
3236.000000	95.483693
3235.000000	95.501137
3234.000000	95.514000
3233.000000	95.520920
3232.000000	95.524101
3231.000000	95.527028
3230.000000	95.531446
3229.000000	95.536728
3228.000000	95.541376
3227.000000	95.544604
3226.000000	95.547125
3225.000000	95.551094
3224.000000	95.558786
3223.000000	95.570406
3222.000000	95.583676
3221.000000	95.596301
3220.000000	95.608407
3219.000000	95.621453
3218.000000	95.634964
3217.000000	95.646014
3216.000000	95.652356
3215.000000	95.654993
3214.000000	95.656854
3213.000000	95.659673
3212.000000	95.663089
3211.000000	95.666495
3210.000000	95.670764
3209.000000	95.677459
3208.000000	95.686688
3207.000000	95.696477
3206.000000	95.704969
3205.000000	95.712952
3204.000000	95.723347
3203.000000	95.737694
3202.000000	95.753882
3201.000000	95.767986
3200.000000	95.777855
3199.000000	95.784432
3198.000000	95.790099
3197.000000	95.796600
3196.000000	95.803965
3195.000000	95.810580
3194.000000	95.814799
3193.000000	95.817512
3192.000000	95.822762
3191.000000	95.834396
3190.000000	95.852108
3189.000000	95.871758
3188.000000	95.889470
3187.000000	95.904323
3186.000000	95.917537
3185.000000	95.930766
3184.000000	95.945381
3183.000000	95.961601
3182.000000	95.977458
3181.000000	95.989988
3180.000000	95.998285
3179.000000	96.004475
3178.000000	96.011304
3177.000000	96.019947
3176.000000	96.030781
3175.000000	96.044452
3174.000000	96.060739
3173.000000	96.077519
3172.000000	96.092439
3171.000000	96.105128
3170.000000	96.116589
3169.000000	96.127356
3168.000000	96.137648
3167.000000	96.148548
3166.000000	96.161044
3165.000000	96.173965
3164.000000	96.184793
3163.000000	96.192963
3162.000000	96.200971
3161.000000	96.211545
3160.000000	96.224921
3159.000000	96.239500
3158.000000	96.254079
3157.000000	96.268278
3156.000000	96.281528
3155.000000	96.293133
3154.000000	96.303495
3153.000000	96.314171
3152.000000	96.325964
3151.000000	96.337512
3150.000000	96.346686
3149.000000	96.353546
3148.000000	96.361154
3147.000000	96.372868
3146.000000	96.388973
