PE IR       SUBTECH     SPECTRUM    ASCII       PEDS        4.00        
   -1
3C-XXX-F008_1.ASC
23/09/07
10:42:56.00
23/09/07
11:30:09.00
uco
Sample 008 By uco Date Thursday, September 07 2023
450.000000
#HDR
-1
-1
#GR
cm-1
%T
1.0
0.0
4000.000000
-1.000000
3551
8
99.069688
89.056143
#DATA
4000.000000	98.953353
3999.000000	98.952803
3998.000000	98.949673
3997.000000	98.944903
3996.000000	98.940036
3995.000000	98.936660
3994.000000	98.935583
3993.000000	98.936537
3992.000000	98.938568
3991.000000	98.940488
3990.000000	98.941021
3989.000000	98.939134
3988.000000	98.934753
3987.000000	98.929202
3986.000000	98.924673
3985.000000	98.922951
3984.000000	98.924581
3983.000000	98.928806
3982.000000	98.933958
3981.000000	98.938117
3980.000000	98.939899
3979.000000	98.939149
3978.000000	98.936754
3977.000000	98.933672
3976.000000	98.930331
3975.000000	98.927063
3974.000000	98.924858
3973.000000	98.924926
3972.000000	98.927271
3971.000000	98.930006
3970.000000	98.930689
3969.000000	98.928404
3968.000000	98.924505
3967.000000	98.921357
3966.000000	98.920374
3965.000000	98.921342
3964.000000	98.923158
3963.000000	98.924875
3962.000000	98.926082
3961.000000	98.926585
3960.000000	98.926334
3959.000000	98.925601
3958.000000	98.924919
3957.000000	98.924572
3956.000000	98.924214
3955.000000	98.923221
3954.000000	98.921349
3953.000000	98.919046
3952.000000	98.917173
3951.000000	98.916502
3950.000000	98.917257
3949.000000	98.918949
3948.000000	98.920683
3947.000000	98.921745
3946.000000	98.921887
3945.000000	98.921091
3944.000000	98.919698
3943.000000	98.918666
3942.000000	98.918854
3941.000000	98.920151
3940.000000	98.921823
3939.000000	98.923213
3938.000000	98.924041
3937.000000	98.924145
3936.000000	98.923330
3935.000000	98.921995
3934.000000	98.921640
3933.000000	98.924157
3932.000000	98.929490
3931.000000	98.934536
3930.000000	98.935828
3929.000000	98.932545
3928.000000	98.926078
3927.000000	98.918032
3926.000000	98.909901
3925.000000	98.903851
3924.000000	98.901831
3923.000000	98.904024
3922.000000	98.909048
3921.000000	98.914747
3920.000000	98.918302
3919.000000	98.916786
3918.000000	98.909675
3917.000000	98.900836
3916.000000	98.895905
3915.000000	98.896821
3914.000000	98.900467
3913.000000	98.902210
3912.000000	98.900215
3911.000000	98.896368
3910.000000	98.893969
3909.000000	98.894642
3908.000000	98.897318
3907.000000	98.899540
3906.000000	98.900075
3905.000000	98.901405
3904.000000	98.908223
3903.000000	98.921537
3902.000000	98.935951
3901.000000	98.944457
3900.000000	98.944674
3899.000000	98.939437
3898.000000	98.932630
3897.000000	98.925839
3896.000000	98.918944
3895.000000	98.911434
3894.000000	98.902891
3893.000000	98.893869
3892.000000	98.887935
3891.000000	98.889167
3890.000000	98.897089
3889.000000	98.907047
3888.000000	98.913086
3887.000000	98.911556
3886.000000	98.905490
3885.000000	98.901554
3884.000000	98.902495
3883.000000	98.905558
3882.000000	98.906610
3881.000000	98.904581
3880.000000	98.901267
3879.000000	98.897667
3878.000000	98.893517
3877.000000	98.888190
3876.000000	98.881638
3875.000000	98.876635
3874.000000	98.876985
3873.000000	98.882066
3872.000000	98.886370
3871.000000	98.886980
3870.000000	98.888988
3869.000000	98.897780
3868.000000	98.911002
3867.000000	98.922085
3866.000000	98.926988
3865.000000	98.926599
3864.000000	98.924332
3863.000000	98.921522
3862.000000	98.917058
3861.000000	98.909556
3860.000000	98.899162
3859.000000	98.887841
3858.000000	98.878950
3857.000000	98.875137
3856.000000	98.874479
3855.000000	98.870857
3854.000000	98.865990
3853.000000	98.868318
3852.000000	98.875869
3851.000000	98.881238
3850.000000	98.883144
3849.000000	98.884489
3848.000000	98.887418
3847.000000	98.890903
3846.000000	98.891419
3845.000000	98.885731
3844.000000	98.874650
3843.000000	98.863467
3842.000000	98.858112
3841.000000	98.860788
3840.000000	98.869740
3839.000000	98.881518
3838.000000	98.893101
3837.000000	98.903086
3836.000000	98.911894
3835.000000	98.919908
3834.000000	98.925690
3833.000000	98.926841
3832.000000	98.922365
3831.000000	98.913415
3830.000000	98.901980
3829.000000	98.889110
3828.000000	98.875671
3827.000000	98.864321
3826.000000	98.858382
3825.000000	98.858486
3824.000000	98.861651
3823.000000	98.863431
3822.000000	98.864180
3821.000000	98.869321
3820.000000	98.878672
3819.000000	98.886488
3818.000000	98.888916
3817.000000	98.887099
3816.000000	98.886533
3815.000000	98.889334
3814.000000	98.891260
3813.000000	98.888911
3812.000000	98.883907
3811.000000	98.880760
3810.000000	98.881874
3809.000000	98.884745
3808.000000	98.885845
3807.000000	98.885651
3806.000000	98.886516
3805.000000	98.888543
3804.000000	98.889329
3803.000000	98.886964
3802.000000	98.885407
3801.000000	98.889440
3800.000000	98.895350
3799.000000	98.897090
3798.000000	98.893774
3797.000000	98.889175
3796.000000	98.886967
3795.000000	98.886801
3794.000000	98.886344
3793.000000	98.885246
3792.000000	98.885231
3791.000000	98.887572
3790.000000	98.891741
3789.000000	98.896181
3788.000000	98.899549
3787.000000	98.901138
3786.000000	98.901148
3785.000000	98.900670
3784.000000	98.900472
3783.000000	98.899745
3782.000000	98.896824
3781.000000	98.891175
3780.000000	98.885081
3779.000000	98.881757
3778.000000	98.881397
3777.000000	98.881526
3776.000000	98.880775
3775.000000	98.880358
3774.000000	98.881871
3773.000000	98.884374
3772.000000	98.884974
3771.000000	98.882929
3770.000000	98.881464
3769.000000	98.883444
3768.000000	98.887677
3767.000000	98.891173
3766.000000	98.893154
3765.000000	98.894831
3764.000000	98.896234
3763.000000	98.895293
3762.000000	98.890544
3761.000000	98.883445
3760.000000	98.877702
3759.000000	98.875732
3758.000000	98.876837
3757.000000	98.879649
3756.000000	98.883942
3755.000000	98.889346
3754.000000	98.894078
3753.000000	98.895815
3752.000000	98.893735
3751.000000	98.890004
3750.000000	98.887582
3749.000000	98.887939
3748.000000	98.892161
3747.000000	98.900021
3746.000000	98.908665
3745.000000	98.918916
3744.000000	98.931953
3743.000000	98.940624
3742.000000	98.939924
3741.000000	98.933300
3740.000000	98.927653
3739.000000	98.927885
3738.000000	98.933760
3737.000000	98.942304
3736.000000	98.951342
3735.000000	98.957494
3734.000000	98.956728
3733.000000	98.950561
3732.000000	98.945731
3731.000000	98.946952
3730.000000	98.952996
3729.000000	98.959074
3728.000000	98.961016
3727.000000	98.958230
3726.000000	98.952470
3725.000000	98.944726
3724.000000	98.935260
3723.000000	98.925531
3722.000000	98.918329
3721.000000	98.915618
3720.000000	98.916851
3719.000000	98.919491
3718.000000	98.921291
3717.000000	98.921833
3716.000000	98.922083
3715.000000	98.922737
3714.000000	98.922913
3713.000000	98.920872
3712.000000	98.916609
3711.000000	98.912445
3710.000000	98.910446
3709.000000	98.910967
3708.000000	98.913481
3707.000000	98.917608
3706.000000	98.923000
3705.000000	98.928436
3704.000000	98.931722
3703.000000	98.931648
3702.000000	98.930488
3701.000000	98.932113
3700.000000	98.936710
3699.000000	98.939867
3698.000000	98.937261
3697.000000	98.928724
3696.000000	98.917516
3695.000000	98.906686
3694.000000	98.898105
3693.000000	98.894279
3692.000000	98.898430
3691.000000	98.910920
3690.000000	98.926585
3689.000000	98.937942
3688.000000	98.941689
3687.000000	98.940125
3686.000000	98.936173
3685.000000	98.930986
3684.000000	98.925736
3683.000000	98.922055
3682.000000	98.919787
3681.000000	98.916969
3680.000000	98.912685
3679.000000	98.907999
3678.000000	98.902847
3677.000000	98.895490
3676.000000	98.889257
3675.000000	98.888440
3674.000000	98.889644
3673.000000	98.888537
3672.000000	98.883872
3671.000000	98.877256
3670.000000	98.873458
3669.000000	98.873638
3668.000000	98.874010
3667.000000	98.872514
3666.000000	98.869760
3665.000000	98.866255
3664.000000	98.861244
3663.000000	98.853724
3662.000000	98.844400
3661.000000	98.836539
3660.000000	98.833663
3659.000000	98.835986
3658.000000	98.839225
3657.000000	98.838713
3656.000000	98.833891
3655.000000	98.827514
3654.000000	98.822285
3653.000000	98.818531
3652.000000	98.814069
3651.000000	98.806707
3650.000000	98.797657
3649.000000	98.790301
3648.000000	98.785917
3647.000000	98.783351
3646.000000	98.781495
3645.000000	98.779990
3644.000000	98.778905
3643.000000	98.778522
3642.000000	98.778864
3641.000000	98.779151
3640.000000	98.778329
3639.000000	98.776502
3638.000000	98.774661
3637.000000	98.772658
3636.000000	98.768486
3635.000000	98.760708
3634.000000	98.751006
3633.000000	98.743010
3632.000000	98.738489
3631.000000	98.734520
3630.000000	98.728093
3629.000000	98.722625
3628.000000	98.719804
3627.000000	98.714969
3626.000000	98.705753
3625.000000	98.694313
3624.000000	98.684116
3623.000000	98.676894
3622.000000	98.670961
3621.000000	98.662933
3620.000000	98.652165
3619.000000	98.642367
3618.000000	98.636934
3617.000000	98.635364
3616.000000	98.634558
3615.000000	98.631062
3614.000000	98.623233
3613.000000	98.612485
3612.000000	98.601887
3611.000000	98.592839
3610.000000	98.583628
3609.000000	98.572484
3608.000000	98.561038
3607.000000	98.552908
3606.000000	98.549684
3605.000000	98.549865
3604.000000	98.550458
3603.000000	98.548580
3602.000000	98.542707
3601.000000	98.533698
3600.000000	98.523757
3599.000000	98.514013
3598.000000	98.503269
3597.000000	98.489750
3596.000000	98.473987
3595.000000	98.459672
3594.000000	98.450580
3593.000000	98.447261
3592.000000	98.447690
3591.000000	98.449332
3590.000000	98.448834
3589.000000	98.442488
3588.000000	98.429565
3587.000000	98.413213
3586.000000	98.397012
3585.000000	98.382830
3584.000000	98.371156
3583.000000	98.361546
3582.000000	98.352709
3581.000000	98.343125
3580.000000	98.332459
3579.000000	98.322336
3578.000000	98.314954
3577.000000	98.310430
3576.000000	98.305889
3575.000000	98.297453
3574.000000	98.283448
3573.000000	98.266331
3572.000000	98.251729
3571.000000	98.244729
3570.000000	98.245375
3569.000000	98.247283
3568.000000	98.242292
3567.000000	98.228150
3566.000000	98.210080
3565.000000	98.193882
3564.000000	98.180077
3563.000000	98.165688
3562.000000	98.149255
3561.000000	98.132854
3560.000000	98.119643
3559.000000	98.110073
3558.000000	98.101562
3557.000000	98.091352
3556.000000	98.078624
3555.000000	98.064109
3554.000000	98.048994
3553.000000	98.034605
3552.000000	98.022151
3551.000000	98.012085
3550.000000	98.004080
3549.000000	97.997567
3548.000000	97.992119
3547.000000	97.987445
3546.000000	97.983146
3545.000000	97.978450
3544.000000	97.972172
3543.000000	97.962764
3542.000000	97.949080
3541.000000	97.931775
3540.000000	97.913484
3539.000000	97.896993
3538.000000	97.883062
3537.000000	97.870425
3536.000000	97.857522
3535.000000	97.843863
3534.000000	97.830023
3533.000000	97.817155
3532.000000	97.806480
3531.000000	97.798330
3530.000000	97.791449
3529.000000	97.784148
3528.000000	97.776533
3527.000000	97.770419
3526.000000	97.766278
3525.000000	97.761406
3524.000000	97.752317
3523.000000	97.738623
3522.000000	97.723424
3521.000000	97.709750
3520.000000	97.697627
3519.000000	97.685037
3518.000000	97.670818
3517.000000	97.656042
3516.000000	97.642932
3515.000000	97.633072
3514.000000	97.626365
3513.000000	97.621015
3512.000000	97.614505
3511.000000	97.605399
3510.000000	97.594675
3509.000000	97.584842
3508.000000	97.577424
3507.000000	97.571682
3506.000000	97.565795
3505.000000	97.558585
3504.000000	97.550017
3503.000000	97.540656
3502.000000	97.531405
3501.000000	97.523542
3500.000000	97.517731
3499.000000	97.512540
3498.000000	97.504867
3497.000000	97.492714
3496.000000	97.477477
3495.000000	97.462837
3494.000000	97.451395
3493.000000	97.442794
3492.000000	97.434961
3491.000000	97.426504
3490.000000	97.417821
3489.000000	97.410276
3488.000000	97.404417
3487.000000	97.398860
3486.000000	97.390905
3485.000000	97.378442
3484.000000	97.361564
3483.000000	97.343023
3482.000000	97.327168
3481.000000	97.317410
3480.000000	97.313896
3479.000000	97.313614
3478.000000	97.312985
3477.000000	97.310194
3476.000000	97.305213
3475.000000	97.298344
3474.000000	97.289475
3473.000000	97.278639
3472.000000	97.266481
3471.000000	97.254008
3470.000000	97.242440
3469.000000	97.233267
3468.000000	97.227482
3467.000000	97.224288
3466.000000	97.221401
3465.000000	97.217319
3464.000000	97.212657
3463.000000	97.208540
3462.000000	97.204198
3461.000000	97.197194
3460.000000	97.186015
3459.000000	97.171759
3458.000000	97.157152
3457.000000	97.144569
3456.000000	97.134931
3455.000000	97.127716
3454.000000	97.121645
3453.000000	97.115753
3452.000000	97.110220
3451.000000	97.106188
3450.000000	97.104711
3449.000000	97.105662
3448.000000	97.107282
3447.000000	97.106583
3446.000000	97.100830
3445.000000	97.089391
3444.000000	97.074242
3443.000000	97.058845
3442.000000	97.046456
3441.000000	97.038615
3440.000000	97.034331
3439.000000	97.030700
3438.000000	97.025007
3437.000000	97.016845
3436.000000	97.008050
3435.000000	97.000470
3434.000000	96.994250
3433.000000	96.988404
3432.000000	96.982138
3431.000000	96.975005
3430.000000	96.966637
3429.000000	96.957392
3428.000000	96.948840
3427.000000	96.942456
3426.000000	96.937850
3425.000000	96.933115
3424.000000	96.926888
3423.000000	96.919333
3422.000000	96.911050
3421.000000	96.901932
3420.000000	96.891538
3419.000000	96.880107
3418.000000	96.868560
3417.000000	96.857506
3416.000000	96.846668
3415.000000	96.835525
3414.000000	96.824476
3413.000000	96.814913
3412.000000	96.807524
3411.000000	96.800733
3410.000000	96.791934
3409.000000	96.780748
3408.000000	96.770163
3407.000000	96.763445
3406.000000	96.760283
3405.000000	96.756749
3404.000000	96.748937
3403.000000	96.736221
3402.000000	96.721382
3401.000000	96.708383
3400.000000	96.699799
3399.000000	96.695223
3398.000000	96.691560
3397.000000	96.685352
3396.000000	96.675380
3395.000000	96.663166
3394.000000	96.651192
3393.000000	96.641000
3392.000000	96.632754
3391.000000	96.626002
3390.000000	96.620521
3389.000000	96.616503
3388.000000	96.613921
3387.000000	96.611701
3386.000000	96.607786
3385.000000	96.600439
3384.000000	96.589526
3383.000000	96.576384
3382.000000	96.562612
3381.000000	96.549237
3380.000000	96.536833
3379.000000	96.525864
3378.000000	96.516677
3377.000000	96.509179
3376.000000	96.502450
3375.000000	96.494707
3374.000000	96.484052
3373.000000	96.469798
3372.000000	96.453219
3371.000000	96.436876
3370.000000	96.423040
3369.000000	96.412390
3368.000000	96.403716
3367.000000	96.394755
3366.000000	96.383803
3365.000000	96.370960
3364.000000	96.357653
3363.000000	96.344916
3362.000000	96.332511
3361.000000	96.319781
3360.000000	96.306682
3359.000000	96.293364
3358.000000	96.279149
3357.000000	96.262795
3356.000000	96.244019
3355.000000	96.224406
3354.000000	96.206443
3353.000000	96.191509
3352.000000	96.178631
3351.000000	96.165181
3350.000000	96.149057
3349.000000	96.130383
3348.000000	96.111072
3347.000000	96.092840
3346.000000	96.075889
3345.000000	96.059293
3344.000000	96.042094
3343.000000	96.024011
3342.000000	96.005869
3341.000000	95.989630
3340.000000	95.977226
3339.000000	95.968585
3338.000000	95.961015
3337.000000	95.951119
3336.000000	95.937428
3335.000000	95.921014
3334.000000	95.903786
3333.000000	95.886607
3332.000000	95.869061
3331.000000	95.850677
3330.000000	95.832169
3329.000000	95.815283
3328.000000	95.801281
3327.000000	95.789800
3326.000000	95.779479
3325.000000	95.769319
3324.000000	95.758821
3323.000000	95.747216
3322.000000	95.733817
3321.000000	95.719224
3320.000000	95.705002
3319.000000	95.691701
3318.000000	95.678115
3317.000000	95.663077
3316.000000	95.647229
3315.000000	95.632363
3314.000000	95.619563
3313.000000	95.608557
3312.000000	95.598236
3311.000000	95.587303
3310.000000	95.575121
3309.000000	95.562534
3308.000000	95.551303
3307.000000	95.542047
3306.000000	95.533322
3305.000000	95.523261
3304.000000	95.511505
3303.000000	95.499108
3302.000000	95.487406
3301.000000	95.477812
3300.000000	95.471873
3299.000000	95.470026
3298.000000	95.470302
3297.000000	95.469234
3296.000000	95.464335
3295.000000	95.455519
3294.000000	95.444451
3293.000000	95.433190
3292.000000	95.423184
3291.000000	95.414765
3290.000000	95.407503
3289.000000	95.401232
3288.000000	95.396463
3287.000000	95.393526
3286.000000	95.391899
3285.000000	95.390774
3284.000000	95.389626
3283.000000	95.387893
3282.000000	95.384969
3281.000000	95.381491
3280.000000	95.380009
3279.000000	95.383066
3278.000000	95.390648
3277.000000	95.400265
3276.000000	95.409636
3275.000000	95.418690
3274.000000	95.428699
3273.000000	95.439992
3272.000000	95.450711
3271.000000	95.457801
3270.000000	95.459573
3269.000000	95.457575
3268.000000	95.455655
3267.000000	95.456967
3266.000000	95.462052
3265.000000	95.469668
3264.000000	95.478576
3263.000000	95.488064
3262.000000	95.497657
3261.000000	95.507170
3260.000000	95.516701
3259.000000	95.526158
3258.000000	95.535544
3257.000000	95.546243
3256.000000	95.560899
3255.000000	95.580791
3254.000000	95.603710
3253.000000	95.625587
3252.000000	95.643946
3251.000000	95.658953
3250.000000	95.671734
3249.000000	95.683029
3248.000000	95.693279
3247.000000	95.702541
3246.000000	95.709937
3245.000000	95.714181
3244.000000	95.715314
3243.000000	95.715375
3242.000000	95.716884
3241.000000	95.720981
3240.000000	95.727329
3239.000000	95.735648
3238.000000	95.746826
3237.000000	95.761931
3236.000000	95.779812
3235.000000	95.796540
3234.000000	95.808530
3233.000000	95.816196
3232.000000	95.823188
3231.000000	95.831544
3230.000000	95.839185
3229.000000	95.843224
3228.000000	95.844306
3227.000000	95.846034
3226.000000	95.850724
3225.000000	95.857472
3224.000000	95.864087
3223.000000	95.869469
3222.000000	95.874233
3221.000000	95.880243
3220.000000	95.889479
3219.000000	95.901832
3218.000000	95.913832
3217.000000	95.921010
3216.000000	95.922166
3215.000000	95.920699
3214.000000	95.921206
3213.000000	95.925340
3212.000000	95.931382
3211.000000	95.937143
3210.000000	95.942440
3209.000000	95.948575
3208.000000	95.955985
3207.000000	95.963252
3206.000000	95.969131
3205.000000	95.975061
3204.000000	95.984236
3203.000000	95.997555
3202.000000	96.011808
3201.000000	96.022989
3200.000000	96.030596
3199.000000	96.037557
3198.000000	96.046509
3197.000000	96.057501
3196.000000	96.068674
3195.000000	96.077752
3194.000000	96.083218
3193.000000	96.085893
3192.000000	96.089662
3191.000000	96.098989
3190.000000	96.114989
3189.000000	96.134494
3188.000000	96.152973
3187.000000	96.167574
3186.000000	96.177895
3185.000000	96.185706
3184.000000	96.194168
3183.000000	96.205641
3182.000000	96.219251
3181.000000	96.231554
3180.000000	96.240182
3179.000000	96.246008
3178.000000	96.251597
3177.000000	96.258846
3176.000000	96.268745
3175.000000	96.281864
3174.000000	96.297668
3173.000000	96.314108
3172.000000	96.329248
3171.000000	96.343126
3170.000000	96.357162
3169.000000	96.372104
3168.000000	96.387306
3167.000000	96.401631
3166.000000	96.414129
3165.000000	96.424016
3164.000000	96.430930
3163.000000	96.435554
3162.000000	96.439686
3161.000000	96.445549
3160.000000	96.454978
3159.000000	96.468544
3158.000000	96.484801
3157.000000	96.500603
3156.000000	96.513067
3155.000000	96.521792
3154.000000	96.529161
3153.000000	96.538278
3152.000000	96.550268
3151.000000	96.563380
3150.000000	96.574843
3149.000000	96.583852
3148.000000	96.592535
3147.000000	96.603579
3146.000000	96.617152
