PE IR       SUBTECH     SPECTRUM    ASCII       PEDS        4.00        
   -1
3C-YYX-F008_1.ASC
23/09/07
10:59:21.00
23/09/07
11:30:09.00
uco
Sample 008 By uco Date Thursday, September 07 2023
450.000000
#HDR
-1
-1
#GR
cm-1
%T
1.0
0.0
4000.000000
-1.000000
3551
8
98.894761
84.818191
#DATA
4000.000000	98.785987
3999.000000	98.782607
3998.000000	98.778308
3997.000000	98.775233
3996.000000	98.774734
3995.000000	98.776540
3994.000000	98.778950
3993.000000	98.780179
3992.000000	98.779507
3991.000000	98.777229
3990.000000	98.773766
3989.000000	98.769066
3988.000000	98.762960
3987.000000	98.755915
3986.000000	98.749351
3985.000000	98.745185
3984.000000	98.744950
3983.000000	98.748899
3982.000000	98.755629
3981.000000	98.762591
3980.000000	98.767209
3979.000000	98.768039
3978.000000	98.765281
3977.000000	98.760602
3976.000000	98.756498
3975.000000	98.755272
3974.000000	98.757829
3973.000000	98.763056
3972.000000	98.768499
3971.000000	98.771887
3970.000000	98.772520
3969.000000	98.771458
3968.000000	98.770467
3967.000000	98.770587
3966.000000	98.771380
3965.000000	98.771345
3964.000000	98.769022
3963.000000	98.763981
3962.000000	98.757243
3961.000000	98.750954
3960.000000	98.747135
3959.000000	98.746305
3958.000000	98.747149
3957.000000	98.747670
3956.000000	98.746980
3955.000000	98.745734
3954.000000	98.744932
3953.000000	98.744722
3952.000000	98.744527
3951.000000	98.744258
3950.000000	98.744887
3949.000000	98.747473
3948.000000	98.751508
3947.000000	98.754655
3946.000000	98.754555
3945.000000	98.750777
3944.000000	98.745503
3943.000000	98.742608
3942.000000	98.744924
3941.000000	98.751982
3940.000000	98.760283
3939.000000	98.765396
3938.000000	98.764471
3937.000000	98.757700
3936.000000	98.748326
3935.000000	98.741110
3934.000000	98.740009
3933.000000	98.746247
3932.000000	98.757203
3931.000000	98.767494
3930.000000	98.772207
3929.000000	98.769654
3928.000000	98.761919
3927.000000	98.753442
3926.000000	98.748346
3925.000000	98.747663
3924.000000	98.749075
3923.000000	98.749788
3922.000000	98.748876
3921.000000	98.746449
3920.000000	98.742294
3919.000000	98.736247
3918.000000	98.729721
3917.000000	98.726013
3916.000000	98.728279
3915.000000	98.736689
3914.000000	98.747673
3913.000000	98.755911
3912.000000	98.757597
3911.000000	98.752627
3910.000000	98.744167
3909.000000	98.735702
3908.000000	98.729154
3907.000000	98.724710
3906.000000	98.721861
3905.000000	98.720175
3904.000000	98.719670
3903.000000	98.721355
3902.000000	98.726471
3901.000000	98.734352
3900.000000	98.742073
3899.000000	98.747069
3898.000000	98.749779
3897.000000	98.752460
3896.000000	98.755861
3895.000000	98.758621
3894.000000	98.759803
3893.000000	98.760174
3892.000000	98.760874
3891.000000	98.761218
3890.000000	98.760598
3889.000000	98.760443
3888.000000	98.761851
3887.000000	98.763247
3886.000000	98.761164
3885.000000	98.753640
3884.000000	98.743927
3883.000000	98.737383
3882.000000	98.735480
3881.000000	98.735391
3880.000000	98.733419
3879.000000	98.729031
3878.000000	98.725989
3877.000000	98.727886
3876.000000	98.734626
3875.000000	98.742549
3874.000000	98.746242
3873.000000	98.742862
3872.000000	98.735062
3871.000000	98.727976
3870.000000	98.724429
3869.000000	98.724532
3868.000000	98.729103
3867.000000	98.738404
3866.000000	98.748612
3865.000000	98.754158
3864.000000	98.753537
3863.000000	98.750304
3862.000000	98.748094
3861.000000	98.747097
3860.000000	98.745897
3859.000000	98.742513
3858.000000	98.734076
3857.000000	98.717425
3856.000000	98.692776
3855.000000	98.666310
3854.000000	98.647137
3853.000000	98.640127
3852.000000	98.646106
3851.000000	98.665100
3850.000000	98.691622
3849.000000	98.716295
3848.000000	98.733344
3847.000000	98.742140
3846.000000	98.744518
3845.000000	98.742607
3844.000000	98.738805
3843.000000	98.735040
3842.000000	98.732386
3841.000000	98.731837
3840.000000	98.734486
3839.000000	98.739920
3838.000000	98.745928
3837.000000	98.750517
3836.000000	98.754239
3835.000000	98.758285
3834.000000	98.761607
3833.000000	98.761686
3832.000000	98.757040
3831.000000	98.748803
3830.000000	98.740394
3829.000000	98.734841
3828.000000	98.732899
3827.000000	98.732901
3826.000000	98.732102
3825.000000	98.729312
3824.000000	98.726211
3823.000000	98.725355
3822.000000	98.726744
3821.000000	98.725650
3820.000000	98.718393
3819.000000	98.709632
3818.000000	98.706125
3817.000000	98.708308
3816.000000	98.710731
3815.000000	98.708888
3814.000000	98.706266
3813.000000	98.708879
3812.000000	98.716577
3811.000000	98.725371
3810.000000	98.732624
3809.000000	98.737953
3808.000000	98.741113
3807.000000	98.740582
3806.000000	98.736594
3805.000000	98.733705
3804.000000	98.736723
3803.000000	98.746652
3802.000000	98.759362
3801.000000	98.765818
3800.000000	98.762483
3799.000000	98.756327
3798.000000	98.752629
3797.000000	98.750092
3796.000000	98.745961
3795.000000	98.740369
3794.000000	98.736365
3793.000000	98.736362
3792.000000	98.739938
3791.000000	98.745463
3790.000000	98.751662
3789.000000	98.757346
3788.000000	98.761165
3787.000000	98.762048
3786.000000	98.759847
3785.000000	98.755537
3784.000000	98.750828
3783.000000	98.747576
3782.000000	98.747093
3781.000000	98.749048
3780.000000	98.751283
3779.000000	98.751041
3778.000000	98.747745
3777.000000	98.744226
3776.000000	98.744031
3775.000000	98.748016
3774.000000	98.754062
3773.000000	98.759152
3772.000000	98.761382
3771.000000	98.760846
3770.000000	98.759721
3769.000000	98.761000
3768.000000	98.766305
3767.000000	98.773840
3766.000000	98.778994
3765.000000	98.777870
3764.000000	98.771250
3763.000000	98.764035
3762.000000	98.760516
3761.000000	98.760828
3760.000000	98.761809
3759.000000	98.760567
3758.000000	98.757310
3757.000000	98.754231
3756.000000	98.752621
3755.000000	98.751535
3754.000000	98.748749
3753.000000	98.742605
3752.000000	98.733816
3751.000000	98.725498
3750.000000	98.719572
3749.000000	98.715449
3748.000000	98.712924
3747.000000	98.713162
3746.000000	98.718449
3745.000000	98.728395
3744.000000	98.735981
3743.000000	98.739762
3742.000000	98.747559
3741.000000	98.758997
3740.000000	98.765739
3739.000000	98.764360
3738.000000	98.759818
3737.000000	98.758857
3736.000000	98.762768
3735.000000	98.767144
3734.000000	98.768307
3733.000000	98.767191
3732.000000	98.766056
3731.000000	98.766132
3730.000000	98.767893
3729.000000	98.770762
3728.000000	98.773209
3727.000000	98.773919
3726.000000	98.773021
3725.000000	98.772575
3724.000000	98.774475
3723.000000	98.777876
3722.000000	98.779911
3721.000000	98.779204
3720.000000	98.777348
3719.000000	98.776673
3718.000000	98.777729
3717.000000	98.779038
3716.000000	98.779479
3715.000000	98.779365
3714.000000	98.779185
3713.000000	98.779189
3712.000000	98.779883
3711.000000	98.781249
3710.000000	98.781546
3709.000000	98.778932
3708.000000	98.774160
3707.000000	98.770143
3706.000000	98.769801
3705.000000	98.774204
3704.000000	98.781795
3703.000000	98.788933
3702.000000	98.792026
3701.000000	98.790350
3700.000000	98.786761
3699.000000	98.784539
3698.000000	98.783851
3697.000000	98.781695
3696.000000	98.775177
3695.000000	98.764586
3694.000000	98.753022
3693.000000	98.744291
3692.000000	98.741937
3691.000000	98.748254
3690.000000	98.760793
3689.000000	98.770498
3688.000000	98.770226
3687.000000	98.764115
3686.000000	98.760515
3685.000000	98.761315
3684.000000	98.763029
3683.000000	98.762712
3682.000000	98.760138
3681.000000	98.755277
3680.000000	98.746042
3679.000000	98.731179
3678.000000	98.715005
3677.000000	98.706474
3676.000000	98.708618
3675.000000	98.710331
3674.000000	98.701930
3673.000000	98.689086
3672.000000	98.679964
3671.000000	98.677439
3670.000000	98.680252
3669.000000	98.683851
3668.000000	98.685725
3667.000000	98.686574
3666.000000	98.686257
3665.000000	98.684476
3664.000000	98.682136
3663.000000	98.680046
3662.000000	98.677716
3661.000000	98.674219
3660.000000	98.669948
3659.000000	98.666410
3658.000000	98.664033
3657.000000	98.660852
3656.000000	98.654147
3655.000000	98.644803
3654.000000	98.636350
3653.000000	98.629358
3652.000000	98.620989
3651.000000	98.609574
3650.000000	98.597327
3649.000000	98.587661
3648.000000	98.580856
3647.000000	98.574973
3646.000000	98.569380
3645.000000	98.564973
3644.000000	98.562876
3643.000000	98.563585
3642.000000	98.566671
3641.000000	98.570802
3640.000000	98.574510
3639.000000	98.576634
3638.000000	98.576344
3637.000000	98.573613
3636.000000	98.569052
3635.000000	98.562588
3634.000000	98.552770
3633.000000	98.538542
3632.000000	98.521124
3631.000000	98.503530
3630.000000	98.488189
3629.000000	98.473889
3628.000000	98.458238
3627.000000	98.444934
3626.000000	98.439247
3625.000000	98.439782
3624.000000	98.442603
3623.000000	98.446342
3622.000000	98.451592
3621.000000	98.457601
3620.000000	98.459753
3619.000000	98.452030
3618.000000	98.434385
3617.000000	98.414808
3616.000000	98.401183
3615.000000	98.394247
3614.000000	98.388070
3613.000000	98.375886
3612.000000	98.356686
3611.000000	98.335480
3610.000000	98.317410
3609.000000	98.304696
3608.000000	98.298196
3607.000000	98.298337
3606.000000	98.303946
3605.000000	98.311568
3604.000000	98.317123
3603.000000	98.317845
3602.000000	98.313144
3601.000000	98.304504
3600.000000	98.294507
3599.000000	98.285158
3598.000000	98.276029
3597.000000	98.264791
3596.000000	98.250085
3595.000000	98.233638
3594.000000	98.218502
3593.000000	98.206237
3592.000000	98.195838
3591.000000	98.185463
3590.000000	98.174170
3589.000000	98.162255
3588.000000	98.150153
3587.000000	98.137752
3586.000000	98.125557
3585.000000	98.115382
3584.000000	98.108381
3583.000000	98.103536
3582.000000	98.098633
3581.000000	98.092142
3580.000000	98.084437
3579.000000	98.077382
3578.000000	98.071857
3577.000000	98.066054
3576.000000	98.056717
3575.000000	98.042389
3574.000000	98.024919
3573.000000	98.007827
3572.000000	97.993461
3571.000000	97.981788
3570.000000	97.971406
3569.000000	97.960938
3568.000000	97.949717
3567.000000	97.937925
3566.000000	97.926263
3565.000000	97.915301
3564.000000	97.904829
3563.000000	97.893797
3562.000000	97.881498
3561.000000	97.868426
3560.000000	97.855824
3559.000000	97.844548
3558.000000	97.834577
3557.000000	97.825132
3556.000000	97.815131
3555.000000	97.803706
3554.000000	97.790598
3553.000000	97.776013
3552.000000	97.760080
3551.000000	97.742541
3550.000000	97.723355
3549.000000	97.703710
3548.000000	97.686335
3547.000000	97.674400
3546.000000	97.669127
3545.000000	97.668188
3544.000000	97.667076
3543.000000	97.661685
3542.000000	97.649799
3541.000000	97.631853
3540.000000	97.611213
3539.000000	97.592832
3538.000000	97.580192
3537.000000	97.572942
3536.000000	97.567652
3535.000000	97.561156
3534.000000	97.552721
3533.000000	97.543389
3532.000000	97.534231
3531.000000	97.525684
3530.000000	97.517656
3529.000000	97.509636
3528.000000	97.500934
3527.000000	97.491242
3526.000000	97.480868
3525.000000	97.470080
3524.000000	97.458509
3523.000000	97.445704
3522.000000	97.432182
3521.000000	97.419409
3520.000000	97.408496
3519.000000	97.399039
3518.000000	97.389293
3517.000000	97.377512
3516.000000	97.363248
3515.000000	97.347669
3514.000000	97.332785
3513.000000	97.320212
3512.000000	97.310204
3511.000000	97.301745
3510.000000	97.293541
3509.000000	97.284986
3508.000000	97.276182
3507.000000	97.267389
3506.000000	97.258655
3505.000000	97.249689
3504.000000	97.239926
3503.000000	97.229071
3502.000000	97.217938
3501.000000	97.208193
3500.000000	97.200545
3499.000000	97.193609
3498.000000	97.185112
3497.000000	97.173990
3496.000000	97.160728
3495.000000	97.145971
3494.000000	97.130071
3493.000000	97.114355
3492.000000	97.101427
3491.000000	97.093139
3490.000000	97.088599
3489.000000	97.084794
3488.000000	97.078934
3487.000000	97.069889
3486.000000	97.057916
3485.000000	97.043875
3484.000000	97.029019
3483.000000	97.015220
3482.000000	97.004819
3481.000000	96.999400
3480.000000	96.998202
3479.000000	96.998071
3478.000000	96.995727
3477.000000	96.989986
3476.000000	96.981439
3475.000000	96.970615
3474.000000	96.957896
3473.000000	96.945154
3472.000000	96.935322
3471.000000	96.929129
3470.000000	96.923747
3469.000000	96.916074
3468.000000	96.906213
3467.000000	96.896195
3466.000000	96.886364
3465.000000	96.875315
3464.000000	96.862972
3463.000000	96.851448
3462.000000	96.842295
3461.000000	96.834694
3460.000000	96.827036
3459.000000	96.818813
3458.000000	96.810053
3457.000000	96.800363
3456.000000	96.789952
3455.000000	96.780845
3454.000000	96.775298
3453.000000	96.772870
3452.000000	96.770230
3451.000000	96.764572
3450.000000	96.756571
3449.000000	96.749131
3448.000000	96.743545
3447.000000	96.737795
3446.000000	96.729293
3445.000000	96.718354
3444.000000	96.707568
3443.000000	96.698483
3442.000000	96.690448
3441.000000	96.682607
3440.000000	96.675408
3439.000000	96.669368
3438.000000	96.663567
3437.000000	96.656645
3436.000000	96.648680
3435.000000	96.640887
3434.000000	96.633742
3433.000000	96.626584
3432.000000	96.619028
3431.000000	96.611727
3430.000000	96.605379
3429.000000	96.599753
3428.000000	96.594036
3427.000000	96.587572
3426.000000	96.580037
3425.000000	96.571489
3424.000000	96.562538
3423.000000	96.553975
3422.000000	96.545847
3421.000000	96.537274
3420.000000	96.527549
3419.000000	96.517182
3418.000000	96.507482
3417.000000	96.499275
3416.000000	96.492211
3415.000000	96.485238
3414.000000	96.477639
3413.000000	96.469554
3412.000000	96.461324
3411.000000	96.452500
3410.000000	96.442269
3409.000000	96.431204
3408.000000	96.421768
3407.000000	96.415875
3406.000000	96.412094
3405.000000	96.406339
3404.000000	96.395780
3403.000000	96.381679
3402.000000	96.368162
3401.000000	96.358629
3400.000000	96.353153
3399.000000	96.348535
3398.000000	96.340616
3397.000000	96.327526
3396.000000	96.311362
3395.000000	96.296499
3394.000000	96.285928
3393.000000	96.279260
3392.000000	96.274021
3391.000000	96.268318
3390.000000	96.261972
3389.000000	96.255579
3388.000000	96.249239
3387.000000	96.242322
3386.000000	96.234162
3385.000000	96.224753
3384.000000	96.214730
3383.000000	96.204808
3382.000000	96.195493
3381.000000	96.187261
3380.000000	96.180388
3379.000000	96.174149
3378.000000	96.166578
3377.000000	96.155736
3376.000000	96.141430
3375.000000	96.125582
3374.000000	96.110960
3373.000000	96.099485
3372.000000	96.091160
3371.000000	96.084099
3370.000000	96.075753
3369.000000	96.064600
3368.000000	96.050900
3367.000000	96.036017
3366.000000	96.021449
3365.000000	96.008482
3364.000000	95.997877
3363.000000	95.989217
3362.000000	95.980925
3361.000000	95.971420
3360.000000	95.960026
3359.000000	95.946590
3358.000000	95.930976
3357.000000	95.913539
3356.000000	95.895568
3355.000000	95.878559
3354.000000	95.863359
3353.000000	95.850411
3352.000000	95.839928
3351.000000	95.830853
3350.000000	95.820450
3349.000000	95.806392
3348.000000	95.789183
3347.000000	95.771431
3346.000000	95.754724
3345.000000	95.738219
3344.000000	95.720422
3343.000000	95.701481
3342.000000	95.683414
3341.000000	95.668723
3340.000000	95.658798
3339.000000	95.652651
3338.000000	95.646761
3337.000000	95.636878
3336.000000	95.620860
3335.000000	95.599986
3334.000000	95.577669
3333.000000	95.557135
3332.000000	95.540055
3331.000000	95.526466
3330.000000	95.515347
3329.000000	95.505256
3328.000000	95.494621
3327.000000	95.481906
3326.000000	95.466336
3325.000000	95.448810
3324.000000	95.431519
3323.000000	95.416104
3322.000000	95.402593
3321.000000	95.390493
3320.000000	95.379969
3319.000000	95.371183
3318.000000	95.363189
3317.000000	95.354614
3316.000000	95.345106
3315.000000	95.335014
3314.000000	95.323835
3313.000000	95.310258
3312.000000	95.293957
3311.000000	95.276419
3310.000000	95.259770
3309.000000	95.245259
3308.000000	95.232790
3307.000000	95.221269
3306.000000	95.209398
3305.000000	95.196718
3304.000000	95.183935
3303.000000	95.172071
3302.000000	95.161726
3301.000000	95.153580
3300.000000	95.148617
3299.000000	95.146554
3298.000000	95.144713
3297.000000	95.140002
3296.000000	95.131951
3295.000000	95.122575
3294.000000	95.113405
3293.000000	95.104333
3292.000000	95.095399
3291.000000	95.087670
3290.000000	95.081536
3289.000000	95.075675
3288.000000	95.068995
3287.000000	95.062734
3286.000000	95.059390
3285.000000	95.059903
3284.000000	95.062499
3283.000000	95.063929
3282.000000	95.061622
3281.000000	95.055580
3280.000000	95.049193
3279.000000	95.047567
3278.000000	95.053786
3277.000000	95.066271
3276.000000	95.080159
3275.000000	95.091632
3274.000000	95.100601
3273.000000	95.109327
3272.000000	95.118863
3271.000000	95.127329
3270.000000	95.132024
3269.000000	95.133001
3268.000000	95.133789
3267.000000	95.138138
3266.000000	95.146444
3265.000000	95.156086
3264.000000	95.165077
3263.000000	95.174176
3262.000000	95.185242
3261.000000	95.198552
3260.000000	95.212492
3259.000000	95.225505
3258.000000	95.237802
3257.000000	95.251273
3256.000000	95.267931
3255.000000	95.288202
3254.000000	95.310346
3253.000000	95.331392
3252.000000	95.348651
3251.000000	95.360764
3250.000000	95.368283
3249.000000	95.373944
3248.000000	95.381724
3247.000000	95.394258
3246.000000	95.410589
3245.000000	95.426752
3244.000000	95.438941
3243.000000	95.446116
3242.000000	95.450037
3241.000000	95.453676
3240.000000	95.459558
3239.000000	95.468721
3238.000000	95.480692
3237.000000	95.494451
3236.000000	95.509257
3235.000000	95.524364
3234.000000	95.538423
3233.000000	95.549805
3232.000000	95.557324
3231.000000	95.560428
3230.000000	95.559342
3229.000000	95.555885
3228.000000	95.553629
3227.000000	95.555977
3226.000000	95.563885
3225.000000	95.575962
3224.000000	95.590272
3223.000000	95.605173
3222.000000	95.619134
3221.000000	95.631352
3220.000000	95.642545
3219.000000	95.653519
3218.000000	95.662826
3217.000000	95.667771
3216.000000	95.668383
3215.000000	95.668777
3214.000000	95.673044
3213.000000	95.680808
3212.000000	95.688271
3211.000000	95.693056
3210.000000	95.696592
3209.000000	95.701681
3208.000000	95.709240
3207.000000	95.717957
3206.000000	95.726483
3205.000000	95.735012
3204.000000	95.744662
3203.000000	95.755708
3202.000000	95.766932
3201.000000	95.776897
3200.000000	95.785555
3199.000000	95.794174
3198.000000	95.803660
3197.000000	95.813394
3196.000000	95.821817
3195.000000	95.828129
3194.000000	95.833490
3193.000000	95.840690
3192.000000	95.852219
3191.000000	95.868006
3190.000000	95.885205
3189.000000	95.900579
3188.000000	95.913063
3187.000000	95.923681
3186.000000	95.933800
3185.000000	95.944319
3184.000000	95.956017
3183.000000	95.969235
3182.000000	95.982994
3181.000000	95.995525
3180.000000	96.005993
3179.000000	96.014925
3178.000000	96.022968
3177.000000	96.030387
3176.000000	96.038160
3175.000000	96.048116
3174.000000	96.060949
3173.000000	96.074917
3172.000000	96.087439
3171.000000	96.097706
3170.000000	96.106963
3169.000000	96.116785
3168.000000	96.127909
3167.000000	96.140475
3166.000000	96.154410
3165.000000	96.169209
3164.000000	96.183842
3163.000000	96.197214
3162.000000	96.208857
3161.000000	96.219339
3160.000000	96.230039
3159.000000	96.242179
3158.000000	96.255641
3157.000000	96.268798
3156.000000	96.279708
3155.000000	96.287856
3154.000000	96.294954
3153.000000	96.304068
3152.000000	96.317179
3151.000000	96.333029
3150.000000	96.347647
3149.000000	96.357934
3148.000000	96.364609
3147.000000	96.371033
3146.000000	96.379348
