PE IR       SUBTECH     SPECTRUM    ASCII       PEDS        4.00        
   -1
3C-XXX-F010_1.ASC
23/09/07
10:44:27.00
23/09/07
11:30:09.00
uco
Sample 010 By uco Date Thursday, September 07 2023
450.000000
#HDR
-1
-1
#GR
cm-1
%T
1.0
0.0
4000.000000
-1.000000
3551
8
98.981408
88.611382
#DATA
4000.000000	98.828060
3999.000000	98.824220
3998.000000	98.820282
3997.000000	98.817800
3996.000000	98.817701
3995.000000	98.819682
3994.000000	98.822355
3993.000000	98.824068
3992.000000	98.823684
3991.000000	98.820843
3990.000000	98.815908
3989.000000	98.809922
3988.000000	98.804532
3987.000000	98.801389
3986.000000	98.801181
3985.000000	98.803225
3984.000000	98.806186
3983.000000	98.809213
3982.000000	98.812142
3981.000000	98.814708
3980.000000	98.815988
3979.000000	98.814848
3978.000000	98.810853
3977.000000	98.804725
3976.000000	98.798113
3975.000000	98.793004
3974.000000	98.790977
3973.000000	98.792460
3972.000000	98.796506
3971.000000	98.801392
3970.000000	98.805677
3969.000000	98.808796
3968.000000	98.810882
3967.000000	98.812235
3966.000000	98.812825
3965.000000	98.812081
3964.000000	98.809226
3963.000000	98.804277
3962.000000	98.798860
3961.000000	98.795462
3960.000000	98.795327
3959.000000	98.797171
3958.000000	98.798268
3957.000000	98.796816
3956.000000	98.793322
3955.000000	98.789920
3954.000000	98.788487
3953.000000	98.789497
3952.000000	98.792228
3951.000000	98.795601
3950.000000	98.798780
3949.000000	98.801198
3948.000000	98.802341
3947.000000	98.801542
3946.000000	98.798059
3945.000000	98.791585
3944.000000	98.783620
3943.000000	98.778164
3942.000000	98.778928
3941.000000	98.785433
3940.000000	98.793141
3939.000000	98.797133
3938.000000	98.795479
3937.000000	98.789765
3936.000000	98.783102
3935.000000	98.778331
3934.000000	98.777616
3933.000000	98.782654
3932.000000	98.793422
3931.000000	98.806435
3930.000000	98.816326
3929.000000	98.819653
3928.000000	98.816584
3927.000000	98.809477
3926.000000	98.801291
3925.000000	98.795047
3924.000000	98.792423
3923.000000	98.792715
3922.000000	98.794241
3921.000000	98.795746
3920.000000	98.796022
3919.000000	98.793319
3918.000000	98.787029
3917.000000	98.779806
3916.000000	98.775790
3915.000000	98.775894
3914.000000	98.776820
3913.000000	98.774713
3912.000000	98.768807
3911.000000	98.761484
3910.000000	98.755616
3909.000000	98.752469
3908.000000	98.751591
3907.000000	98.751819
3906.000000	98.752381
3905.000000	98.754738
3904.000000	98.762320
3903.000000	98.776130
3902.000000	98.791672
3901.000000	98.802175
3900.000000	98.804662
3899.000000	98.801706
3898.000000	98.797562
3897.000000	98.794088
3896.000000	98.790963
3895.000000	98.787293
3894.000000	98.782206
3893.000000	98.775378
3892.000000	98.769068
3891.000000	98.767003
3890.000000	98.769778
3889.000000	98.774749
3888.000000	98.778171
3887.000000	98.777802
3886.000000	98.776402
3885.000000	98.778131
3884.000000	98.781750
3883.000000	98.782303
3882.000000	98.776820
3881.000000	98.768521
3880.000000	98.764258
3879.000000	98.765955
3878.000000	98.769565
3877.000000	98.770435
3876.000000	98.766457
3875.000000	98.760408
3874.000000	98.758354
3873.000000	98.762529
3872.000000	98.768235
3871.000000	98.770947
3870.000000	98.773918
3869.000000	98.781748
3868.000000	98.791694
3867.000000	98.797172
3866.000000	98.795208
3865.000000	98.789655
3864.000000	98.787138
3863.000000	98.789033
3862.000000	98.791372
3861.000000	98.790350
3860.000000	98.785141
3859.000000	98.777302
3858.000000	98.769375
3857.000000	98.763095
3856.000000	98.757219
3855.000000	98.747350
3854.000000	98.737679
3853.000000	98.740896
3852.000000	98.754356
3851.000000	98.765362
3850.000000	98.769584
3849.000000	98.770022
3848.000000	98.770754
3847.000000	98.772738
3846.000000	98.773478
3845.000000	98.769895
3844.000000	98.762629
3843.000000	98.757129
3842.000000	98.758905
3841.000000	98.767738
3840.000000	98.778000
3839.000000	98.784254
3838.000000	98.785391
3837.000000	98.783964
3836.000000	98.782985
3835.000000	98.783491
3834.000000	98.784219
3833.000000	98.783562
3832.000000	98.781755
3831.000000	98.780126
3830.000000	98.779055
3829.000000	98.777128
3828.000000	98.772615
3827.000000	98.766092
3826.000000	98.760428
3825.000000	98.757401
3824.000000	98.755425
3823.000000	98.750218
3822.000000	98.741170
3821.000000	98.735919
3820.000000	98.738755
3819.000000	98.744966
3818.000000	98.748867
3817.000000	98.750087
3816.000000	98.754097
3815.000000	98.762190
3814.000000	98.767746
3813.000000	98.766173
3812.000000	98.760002
3811.000000	98.755609
3810.000000	98.757065
3809.000000	98.762432
3808.000000	98.767405
3807.000000	98.771468
3806.000000	98.776362
3805.000000	98.781600
3804.000000	98.784037
3803.000000	98.780644
3802.000000	98.775756
3801.000000	98.777110
3800.000000	98.781988
3799.000000	98.782177
3798.000000	98.774509
3797.000000	98.762861
3796.000000	98.754173
3795.000000	98.751329
3794.000000	98.751761
3793.000000	98.752520
3792.000000	98.753886
3791.000000	98.758050
3790.000000	98.766046
3789.000000	98.776180
3788.000000	98.784963
3787.000000	98.789038
3786.000000	98.787159
3785.000000	98.781154
3784.000000	98.774497
3783.000000	98.769531
3782.000000	98.766604
3781.000000	98.765322
3780.000000	98.766098
3779.000000	98.769176
3778.000000	98.772286
3777.000000	98.772493
3776.000000	98.769724
3775.000000	98.767007
3774.000000	98.767191
3773.000000	98.769154
3772.000000	98.768178
3771.000000	98.761873
3770.000000	98.754922
3769.000000	98.754434
3768.000000	98.762006
3767.000000	98.773277
3766.000000	98.783028
3765.000000	98.788267
3764.000000	98.788013
3763.000000	98.782438
3762.000000	98.773215
3761.000000	98.763979
3760.000000	98.758772
3759.000000	98.758382
3758.000000	98.759978
3757.000000	98.762051
3756.000000	98.765955
3755.000000	98.772562
3754.000000	98.780177
3753.000000	98.786278
3752.000000	98.789838
3751.000000	98.791185
3750.000000	98.789625
3749.000000	98.785789
3748.000000	98.784065
3747.000000	98.787343
3746.000000	98.793057
3745.000000	98.800145
3744.000000	98.809303
3743.000000	98.815007
3742.000000	98.813377
3741.000000	98.807234
3740.000000	98.802404
3739.000000	98.803982
3738.000000	98.812106
3737.000000	98.822278
3736.000000	98.830193
3735.000000	98.833327
3734.000000	98.830451
3733.000000	98.823806
3732.000000	98.818450
3731.000000	98.817682
3730.000000	98.821069
3729.000000	98.826269
3728.000000	98.831159
3727.000000	98.834899
3726.000000	98.836284
3725.000000	98.832704
3724.000000	98.823607
3723.000000	98.812701
3722.000000	98.804486
3721.000000	98.800054
3720.000000	98.797695
3719.000000	98.796168
3718.000000	98.796068
3717.000000	98.798559
3716.000000	98.803528
3715.000000	98.809287
3714.000000	98.813402
3713.000000	98.814224
3712.000000	98.812763
3711.000000	98.811402
3710.000000	98.810324
3709.000000	98.808411
3708.000000	98.805750
3707.000000	98.803708
3706.000000	98.803431
3705.000000	98.804328
3704.000000	98.804240
3703.000000	98.802020
3702.000000	98.800645
3701.000000	98.804932
3700.000000	98.815092
3699.000000	98.825319
3698.000000	98.829140
3697.000000	98.824891
3696.000000	98.816129
3695.000000	98.807236
3694.000000	98.800341
3693.000000	98.796023
3692.000000	98.794443
3691.000000	98.795048
3690.000000	98.796929
3689.000000	98.799398
3688.000000	98.800716
3687.000000	98.799421
3686.000000	98.795866
3685.000000	98.791143
3684.000000	98.786716
3683.000000	98.783912
3682.000000	98.781877
3681.000000	98.778069
3680.000000	98.772076
3679.000000	98.766303
3678.000000	98.761593
3677.000000	98.755328
3676.000000	98.750889
3675.000000	98.756049
3674.000000	98.768464
3673.000000	98.780204
3672.000000	98.785781
3671.000000	98.783948
3670.000000	98.779468
3669.000000	98.775121
3668.000000	98.767455
3667.000000	98.754574
3666.000000	98.739208
3665.000000	98.725991
3664.000000	98.718190
3663.000000	98.715658
3662.000000	98.715878
3661.000000	98.717242
3660.000000	98.720219
3659.000000	98.725163
3658.000000	98.729780
3657.000000	98.731091
3656.000000	98.729053
3655.000000	98.725658
3654.000000	98.722530
3653.000000	98.719347
3652.000000	98.713296
3651.000000	98.701210
3650.000000	98.685214
3649.000000	98.672779
3648.000000	98.667744
3647.000000	98.666989
3646.000000	98.665913
3645.000000	98.662155
3644.000000	98.656020
3643.000000	98.650105
3642.000000	98.647522
3641.000000	98.648974
3640.000000	98.651801
3639.000000	98.652991
3638.000000	98.652048
3637.000000	98.649925
3636.000000	98.646504
3635.000000	98.641071
3634.000000	98.635014
3633.000000	98.631526
3632.000000	98.632320
3631.000000	98.634781
3630.000000	98.634934
3629.000000	98.634768
3628.000000	98.635486
3627.000000	98.631808
3626.000000	98.620979
3625.000000	98.605545
3624.000000	98.590318
3623.000000	98.579470
3622.000000	98.573919
3621.000000	98.571028
3620.000000	98.567150
3619.000000	98.560544
3618.000000	98.551864
3617.000000	98.543328
3616.000000	98.536518
3615.000000	98.530340
3614.000000	98.522385
3613.000000	98.511688
3612.000000	98.499499
3611.000000	98.487731
3610.000000	98.477474
3609.000000	98.469730
3608.000000	98.465654
3607.000000	98.464336
3606.000000	98.463032
3605.000000	98.460475
3604.000000	98.457764
3603.000000	98.455973
3602.000000	98.454020
3601.000000	98.449661
3600.000000	98.441750
3599.000000	98.430874
3598.000000	98.417971
3597.000000	98.403030
3596.000000	98.385564
3595.000000	98.366789
3594.000000	98.350483
3593.000000	98.340506
3592.000000	98.337930
3591.000000	98.340351
3590.000000	98.342615
3589.000000	98.339430
3588.000000	98.330320
3587.000000	98.320099
3586.000000	98.312226
3585.000000	98.306021
3584.000000	98.299230
3583.000000	98.289738
3582.000000	98.276537
3581.000000	98.261024
3580.000000	98.246971
3579.000000	98.237613
3578.000000	98.232668
3577.000000	98.228781
3576.000000	98.222548
3575.000000	98.212528
3574.000000	98.199068
3573.000000	98.183841
3572.000000	98.170002
3571.000000	98.161140
3570.000000	98.157962
3569.000000	98.155875
3568.000000	98.148134
3567.000000	98.132990
3566.000000	98.115164
3565.000000	98.100039
3564.000000	98.088967
3563.000000	98.079650
3562.000000	98.069273
3561.000000	98.057129
3560.000000	98.044688
3559.000000	98.033373
3558.000000	98.022960
3557.000000	98.012445
3556.000000	98.001438
3555.000000	97.990110
3554.000000	97.978689
3553.000000	97.967858
3552.000000	97.958770
3551.000000	97.951618
3550.000000	97.945014
3549.000000	97.937427
3548.000000	97.928741
3547.000000	97.920133
3546.000000	97.912521
3545.000000	97.905486
3544.000000	97.898013
3543.000000	97.889409
3542.000000	97.879337
3541.000000	97.867964
3540.000000	97.855910
3539.000000	97.843360
3538.000000	97.829362
3537.000000	97.812989
3536.000000	97.794931
3535.000000	97.776970
3534.000000	97.760270
3533.000000	97.745302
3532.000000	97.733018
3531.000000	97.724462
3530.000000	97.719129
3529.000000	97.715142
3528.000000	97.711620
3527.000000	97.709294
3526.000000	97.708001
3525.000000	97.705092
3524.000000	97.697539
3523.000000	97.684927
3522.000000	97.669469
3521.000000	97.653819
3520.000000	97.639728
3519.000000	97.628048
3518.000000	97.618543
3517.000000	97.609516
3516.000000	97.598818
3515.000000	97.585802
3514.000000	97.571928
3513.000000	97.559172
3512.000000	97.548318
3511.000000	97.539199
3510.000000	97.532146
3509.000000	97.528241
3508.000000	97.527674
3507.000000	97.528414
3506.000000	97.527103
3505.000000	97.521408
3504.000000	97.511767
3503.000000	97.500644
3502.000000	97.489887
3501.000000	97.479308
3500.000000	97.467678
3499.000000	97.454297
3498.000000	97.439734
3497.000000	97.425670
3496.000000	97.413565
3495.000000	97.402998
3494.000000	97.391813
3493.000000	97.378536
3492.000000	97.364217
3491.000000	97.351308
3490.000000	97.341177
3489.000000	97.333389
3488.000000	97.327012
3487.000000	97.321466
3486.000000	97.316030
3485.000000	97.309666
3484.000000	97.301794
3483.000000	97.292822
3482.000000	97.283733
3481.000000	97.275454
3480.000000	97.268596
3479.000000	97.263104
3478.000000	97.257929
3477.000000	97.251686
3476.000000	97.243978
3475.000000	97.235637
3474.000000	97.227366
3473.000000	97.218748
3472.000000	97.209001
3471.000000	97.198344
3470.000000	97.188174
3469.000000	97.180016
3468.000000	97.174256
3467.000000	97.169526
3466.000000	97.163497
3465.000000	97.155019
3464.000000	97.145711
3463.000000	97.138771
3462.000000	97.135629
3461.000000	97.134004
3460.000000	97.129687
3459.000000	97.120179
3458.000000	97.106601
3457.000000	97.092660
3456.000000	97.082017
3455.000000	97.075880
3454.000000	97.072652
3453.000000	97.070132
3452.000000	97.068003
3451.000000	97.067496
3450.000000	97.068566
3449.000000	97.068553
3448.000000	97.064468
3447.000000	97.055960
3446.000000	97.044826
3445.000000	97.032127
3444.000000	97.017554
3443.000000	97.001802
3442.000000	96.988053
3441.000000	96.979863
3440.000000	96.977768
3439.000000	96.978699
3438.000000	96.978653
3437.000000	96.975600
3436.000000	96.969879
3435.000000	96.962521
3434.000000	96.953964
3433.000000	96.944444
3432.000000	96.934850
3431.000000	96.926344
3430.000000	96.919359
3429.000000	96.913472
3428.000000	96.908125
3427.000000	96.902835
3426.000000	96.896868
3425.000000	96.889514
3424.000000	96.880801
3423.000000	96.871312
3422.000000	96.861108
3421.000000	96.849537
3420.000000	96.836600
3419.000000	96.823985
3418.000000	96.813983
3417.000000	96.807310
3416.000000	96.802343
3415.000000	96.796540
3414.000000	96.788486
3413.000000	96.778552
3412.000000	96.767757
3411.000000	96.756591
3410.000000	96.745423
3409.000000	96.735636
3408.000000	96.729162
3407.000000	96.726363
3406.000000	96.725043
3405.000000	96.722225
3404.000000	96.716541
3403.000000	96.708531
3402.000000	96.699317
3401.000000	96.689827
3400.000000	96.680791
3399.000000	96.672340
3398.000000	96.663588
3397.000000	96.653435
3396.000000	96.641853
3395.000000	96.629770
3394.000000	96.617841
3393.000000	96.606256
3392.000000	96.595780
3391.000000	96.587783
3390.000000	96.582597
3389.000000	96.578528
3388.000000	96.573167
3387.000000	96.565496
3386.000000	96.556433
3385.000000	96.547438
3384.000000	96.538955
3383.000000	96.530275
3382.000000	96.520780
3381.000000	96.511033
3380.000000	96.502338
3379.000000	96.495069
3378.000000	96.487884
3377.000000	96.478955
3376.000000	96.467722
3375.000000	96.455055
3374.000000	96.442015
3373.000000	96.429169
3372.000000	96.417043
3371.000000	96.406367
3370.000000	96.397428
3369.000000	96.389461
3368.000000	96.380987
3367.000000	96.370731
3366.000000	96.358403
3365.000000	96.345013
3364.000000	96.332314
3363.000000	96.321275
3362.000000	96.310947
3361.000000	96.299332
3360.000000	96.285648
3359.000000	96.271299
3358.000000	96.258256
3357.000000	96.246735
3356.000000	96.234866
3355.000000	96.220630
3354.000000	96.203925
3353.000000	96.186639
3352.000000	96.170812
3351.000000	96.156846
3350.000000	96.143536
3349.000000	96.129499
3348.000000	96.114135
3347.000000	96.097325
3346.000000	96.078983
3345.000000	96.059517
3344.000000	96.040411
3343.000000	96.023722
3342.000000	96.010818
3341.000000	96.001508
3340.000000	95.993936
3339.000000	95.985252
3338.000000	95.973248
3337.000000	95.958044
3336.000000	95.941824
3335.000000	95.926413
3334.000000	95.911599
3333.000000	95.896375
3332.000000	95.880930
3331.000000	95.866279
3330.000000	95.852512
3329.000000	95.838614
3328.000000	95.823805
3327.000000	95.807922
3326.000000	95.790619
3325.000000	95.771550
3324.000000	95.751739
3323.000000	95.733680
3322.000000	95.719440
3321.000000	95.709305
3320.000000	95.702296
3319.000000	95.697065
3318.000000	95.691979
3317.000000	95.685292
3316.000000	95.676151
3315.000000	95.665175
3314.000000	95.653669
3313.000000	95.642553
3312.000000	95.632022
3311.000000	95.621527
3310.000000	95.609943
3309.000000	95.596547
3308.000000	95.582306
3307.000000	95.569549
3306.000000	95.559724
3305.000000	95.551778
3304.000000	95.542984
3303.000000	95.531111
3302.000000	95.515894
3301.000000	95.499268
3300.000000	95.484578
3299.000000	95.474681
3298.000000	95.469776
3297.000000	95.467075
3296.000000	95.463177
3295.000000	95.456921
3294.000000	95.449776
3293.000000	95.443840
3292.000000	95.439878
3291.000000	95.437063
3290.000000	95.434083
3289.000000	95.430241
3288.000000	95.425604
3287.000000	95.420446
3286.000000	95.415148
3285.000000	95.410900
3284.000000	95.409617
3283.000000	95.411966
3282.000000	95.415524
3281.000000	95.416362
3280.000000	95.413228
3279.000000	95.409126
3278.000000	95.408028
3277.000000	95.410853
3276.000000	95.415821
3275.000000	95.422197
3274.000000	95.431431
3273.000000	95.444075
3272.000000	95.457174
3271.000000	95.466179
3270.000000	95.469212
3269.000000	95.468438
3268.000000	95.467590
3267.000000	95.469218
3266.000000	95.474275
3265.000000	95.482900
3264.000000	95.494302
3263.000000	95.506380
3262.000000	95.516901
3261.000000	95.525502
3260.000000	95.533797
3259.000000	95.543141
3258.000000	95.553157
3257.000000	95.563177
3256.000000	95.574233
3255.000000	95.588200
3254.000000	95.604822
3253.000000	95.620932
3252.000000	95.633364
3251.000000	95.641856
3250.000000	95.648475
3249.000000	95.654832
3248.000000	95.660995
3247.000000	95.666813
3246.000000	95.672987
3245.000000	95.680274
3244.000000	95.688435
3243.000000	95.696765
3242.000000	95.705083
3241.000000	95.713309
3240.000000	95.720634
3239.000000	95.726533
3238.000000	95.732697
3237.000000	95.742443
3236.000000	95.757146
3235.000000	95.774120
3234.000000	95.789228
3233.000000	95.800925
3232.000000	95.810618
3231.000000	95.819437
3230.000000	95.826408
3229.000000	95.830210
3228.000000	95.831308
3227.000000	95.831602
3226.000000	95.832857
3225.000000	95.836317
3224.000000	95.842959
3223.000000	95.852914
3222.000000	95.864847
3221.000000	95.876691
3220.000000	95.887006
3219.000000	95.895280
3218.000000	95.901331
3217.000000	95.905240
3216.000000	95.907864
3215.000000	95.910722
3214.000000	95.914993
3213.000000	95.920668
3212.000000	95.926505
3211.000000	95.930839
3210.000000	95.933048
3209.000000	95.934671
3208.000000	95.938690
3207.000000	95.947081
3206.000000	95.959152
3205.000000	95.972436
3204.000000	95.984663
3203.000000	95.994643
3202.000000	96.002097
3201.000000	96.007607
3200.000000	96.012447
3199.000000	96.017630
3198.000000	96.023282
3197.000000	96.029408
3196.000000	96.036653
3195.000000	96.045357
3194.000000	96.054444
3193.000000	96.062621
3192.000000	96.070735
3191.000000	96.081522
3190.000000	96.096453
3189.000000	96.113632
3188.000000	96.129301
3187.000000	96.140899
3186.000000	96.148511
3185.000000	96.154264
3184.000000	96.160877
3183.000000	96.170297
3182.000000	96.182901
3181.000000	96.197678
3180.000000	96.212936
3179.000000	96.226550
3178.000000	96.236381
3177.000000	96.241878
3176.000000	96.245614
3175.000000	96.252014
3174.000000	96.263500
3173.000000	96.278213
3172.000000	96.291946
3171.000000	96.302138
3170.000000	96.309674
3169.000000	96.317274
3168.000000	96.326731
3167.000000	96.337560
3166.000000	96.347926
3165.000000	96.356847
3164.000000	96.365580
3163.000000	96.376570
3162.000000	96.390918
3161.000000	96.407337
3160.000000	96.423818
3159.000000	96.439625
3158.000000	96.454960
3157.000000	96.468962
3156.000000	96.479248
3155.000000	96.484288
3154.000000	96.486107
3153.000000	96.489815
3152.000000	96.499496
3151.000000	96.514325
3150.000000	96.529328
3149.000000	96.540481
3148.000000	96.548571
3147.000000	96.557425
3146.000000	96.569064
