PE IR       SUBTECH     SPECTRUM    ASCII       PEDS        4.00        
   -1
3C-YYX-F017_1.ASC
23/09/07
11:06:29.00
23/09/07
11:30:09.00
uco
Sample 017 By uco Date Thursday, September 07 2023
450.000000
#HDR
-1
-1
#GR
cm-1
%T
1.0
0.0
4000.000000
-1.000000
3551
8
98.643186
81.322048
#DATA
4000.000000	98.547841
3999.000000	98.547720
3998.000000	98.547324
3997.000000	98.549653
3996.000000	98.551450
3995.000000	98.552614
3994.000000	98.552129
3993.000000	98.550108
3992.000000	98.547379
3991.000000	98.544370
3990.000000	98.540617
3989.000000	98.535554
3988.000000	98.529609
3987.000000	98.524208
3986.000000	98.520660
3985.000000	98.519275
3984.000000	98.519678
3983.000000	98.521561
3982.000000	98.524596
3981.000000	98.527832
3980.000000	98.529812
3979.000000	98.529688
3978.000000	98.527970
3977.000000	98.525884
3976.000000	98.524179
3975.000000	98.522916
3974.000000	98.522281
3973.000000	98.522879
3972.000000	98.524758
3971.000000	98.526554
3970.000000	98.526328
3969.000000	98.523358
3968.000000	98.518960
3967.000000	98.515445
3966.000000	98.514276
3965.000000	98.515280
3964.000000	98.517066
3963.000000	98.517922
3962.000000	98.516791
3961.000000	98.514043
3960.000000	98.511256
3959.000000	98.509849
3958.000000	98.509513
3957.000000	98.508219
3956.000000	98.504293
3955.000000	98.498427
3954.000000	98.493284
3953.000000	98.491088
3952.000000	98.491954
3951.000000	98.494613
3950.000000	98.498079
3949.000000	98.501995
3948.000000	98.505718
3947.000000	98.507802
3946.000000	98.506958
3945.000000	98.503430
3944.000000	98.499439
3943.000000	98.497967
3942.000000	98.500229
3941.000000	98.504683
3940.000000	98.508548
3939.000000	98.509880
3938.000000	98.508323
3937.000000	98.504375
3936.000000	98.498668
3935.000000	98.492374
3934.000000	98.488091
3933.000000	98.489370
3932.000000	98.497660
3931.000000	98.509612
3930.000000	98.518874
3929.000000	98.521238
3928.000000	98.517699
3927.000000	98.512857
3926.000000	98.511161
3925.000000	98.513754
3924.000000	98.517758
3923.000000	98.519078
3922.000000	98.515920
3921.000000	98.509120
3920.000000	98.500288
3919.000000	98.491004
3918.000000	98.483923
3917.000000	98.482874
3916.000000	98.489568
3915.000000	98.500704
3914.000000	98.509652
3913.000000	98.511492
3912.000000	98.505850
3911.000000	98.496517
3910.000000	98.488523
3909.000000	98.484870
3908.000000	98.485284
3907.000000	98.487249
3906.000000	98.488353
3905.000000	98.488612
3904.000000	98.490582
3903.000000	98.496296
3902.000000	98.504637
3901.000000	98.512411
3900.000000	98.517709
3899.000000	98.520685
3898.000000	98.521711
3897.000000	98.520543
3896.000000	98.516963
3895.000000	98.511615
3894.000000	98.505979
3893.000000	98.502202
3892.000000	98.502282
3891.000000	98.506465
3890.000000	98.512237
3889.000000	98.515990
3888.000000	98.515030
3887.000000	98.509391
3886.000000	98.502511
3885.000000	98.498041
3884.000000	98.496075
3883.000000	98.494251
3882.000000	98.491563
3881.000000	98.489363
3880.000000	98.489069
3879.000000	98.490323
3878.000000	98.491953
3877.000000	98.493335
3876.000000	98.494735
3875.000000	98.496850
3874.000000	98.498899
3873.000000	98.497704
3872.000000	98.491078
3871.000000	98.482842
3870.000000	98.481692
3869.000000	98.491302
3868.000000	98.505187
3867.000000	98.514410
3866.000000	98.515651
3865.000000	98.511833
3864.000000	98.507440
3863.000000	98.504517
3862.000000	98.502380
3861.000000	98.500196
3860.000000	98.498323
3859.000000	98.498068
3858.000000	98.500393
3857.000000	98.504450
3856.000000	98.507744
3855.000000	98.508656
3854.000000	98.509624
3853.000000	98.513493
3852.000000	98.517183
3851.000000	98.517231
3850.000000	98.514661
3849.000000	98.511970
3848.000000	98.510472
3847.000000	98.509456
3846.000000	98.507243
3845.000000	98.502632
3844.000000	98.495715
3843.000000	98.488401
3842.000000	98.483341
3841.000000	98.482713
3840.000000	98.487634
3839.000000	98.497281
3838.000000	98.508224
3837.000000	98.516708
3836.000000	98.521772
3835.000000	98.524570
3834.000000	98.525815
3833.000000	98.525433
3832.000000	98.523684
3831.000000	98.520864
3830.000000	98.516507
3829.000000	98.509817
3828.000000	98.501214
3827.000000	98.493609
3826.000000	98.490512
3825.000000	98.492296
3824.000000	98.495466
3823.000000	98.496674
3822.000000	98.496359
3821.000000	98.497571
3820.000000	98.500019
3819.000000	98.500028
3818.000000	98.496199
3817.000000	98.491035
3816.000000	98.489295
3815.000000	98.492224
3814.000000	98.496173
3813.000000	98.498168
3812.000000	98.498987
3811.000000	98.500868
3810.000000	98.504214
3809.000000	98.507113
3808.000000	98.508147
3807.000000	98.508723
3806.000000	98.510767
3805.000000	98.513684
3804.000000	98.515196
3803.000000	98.514706
3802.000000	98.514520
3801.000000	98.515747
3800.000000	98.515065
3799.000000	98.510289
3798.000000	98.503806
3797.000000	98.499950
3796.000000	98.500849
3795.000000	98.504008
3794.000000	98.505343
3793.000000	98.503439
3792.000000	98.499890
3791.000000	98.496744
3790.000000	98.494820
3789.000000	98.493929
3788.000000	98.494155
3787.000000	98.496013
3786.000000	98.499565
3785.000000	98.503822
3784.000000	98.507240
3783.000000	98.508774
3782.000000	98.508452
3781.000000	98.507216
3780.000000	98.506187
3779.000000	98.505669
3778.000000	98.504584
3777.000000	98.501796
3776.000000	98.497484
3775.000000	98.493193
3774.000000	98.490391
3773.000000	98.489180
3772.000000	98.489057
3771.000000	98.491251
3770.000000	98.498202
3769.000000	98.509383
3768.000000	98.520391
3767.000000	98.526876
3766.000000	98.527738
3765.000000	98.524738
3764.000000	98.519865
3763.000000	98.513596
3762.000000	98.506151
3761.000000	98.499539
3760.000000	98.496660
3759.000000	98.498480
3758.000000	98.503473
3757.000000	98.509832
3756.000000	98.515837
3755.000000	98.519016
3754.000000	98.517416
3753.000000	98.512239
3752.000000	98.508465
3751.000000	98.510656
3750.000000	98.517672
3749.000000	98.525585
3748.000000	98.533021
3747.000000	98.539160
3746.000000	98.543198
3745.000000	98.546860
3744.000000	98.552040
3743.000000	98.556768
3742.000000	98.557749
3741.000000	98.554427
3740.000000	98.549250
3739.000000	98.545211
3738.000000	98.543408
3737.000000	98.543620
3736.000000	98.545770
3735.000000	98.548879
3734.000000	98.550468
3733.000000	98.549952
3732.000000	98.549805
3731.000000	98.551710
3730.000000	98.553960
3729.000000	98.553160
3728.000000	98.548058
3727.000000	98.541172
3726.000000	98.536119
3725.000000	98.533556
3724.000000	98.531492
3723.000000	98.528761
3722.000000	98.526027
3721.000000	98.524940
3720.000000	98.526933
3719.000000	98.531810
3718.000000	98.537731
3717.000000	98.542668
3716.000000	98.545517
3715.000000	98.546223
3714.000000	98.544871
3713.000000	98.542153
3712.000000	98.540183
3711.000000	98.540696
3710.000000	98.541606
3709.000000	98.538965
3708.000000	98.532467
3707.000000	98.526183
3706.000000	98.525220
3705.000000	98.531895
3704.000000	98.544174
3703.000000	98.556153
3702.000000	98.561608
3701.000000	98.558764
3700.000000	98.551350
3699.000000	98.543648
3698.000000	98.537027
3697.000000	98.531183
3696.000000	98.525771
3695.000000	98.520675
3694.000000	98.516597
3693.000000	98.516509
3692.000000	98.524300
3691.000000	98.540749
3690.000000	98.559023
3689.000000	98.567203
3688.000000	98.559842
3687.000000	98.543657
3686.000000	98.527992
3685.000000	98.516699
3684.000000	98.509779
3683.000000	98.505663
3682.000000	98.502399
3681.000000	98.498663
3680.000000	98.495142
3679.000000	98.492739
3678.000000	98.489926
3677.000000	98.484402
3676.000000	98.477633
3675.000000	98.472635
3674.000000	98.468334
3673.000000	98.462933
3672.000000	98.457451
3671.000000	98.455478
3670.000000	98.458556
3669.000000	98.460259
3668.000000	98.453287
3667.000000	98.439450
3666.000000	98.425698
3665.000000	98.417453
3664.000000	98.415766
3663.000000	98.417326
3662.000000	98.417430
3661.000000	98.413546
3660.000000	98.406367
3659.000000	98.397741
3658.000000	98.389250
3657.000000	98.383028
3656.000000	98.381623
3655.000000	98.384887
3654.000000	98.388745
3653.000000	98.387792
3652.000000	98.378549
3651.000000	98.361634
3650.000000	98.342120
3649.000000	98.325800
3648.000000	98.313970
3647.000000	98.304308
3646.000000	98.295060
3645.000000	98.286092
3644.000000	98.278483
3643.000000	98.274020
3642.000000	98.273493
3641.000000	98.275016
3640.000000	98.275426
3639.000000	98.273681
3638.000000	98.271228
3637.000000	98.268608
3636.000000	98.263445
3635.000000	98.253142
3634.000000	98.238862
3633.000000	98.224906
3632.000000	98.214208
3631.000000	98.206245
3630.000000	98.199199
3629.000000	98.191869
3628.000000	98.182921
3627.000000	98.171916
3626.000000	98.160583
3625.000000	98.150695
3624.000000	98.143459
3623.000000	98.139006
3622.000000	98.135365
3621.000000	98.129248
3620.000000	98.118379
3619.000000	98.103498
3618.000000	98.087964
3617.000000	98.074524
3616.000000	98.062843
3615.000000	98.050450
3614.000000	98.035773
3613.000000	98.019853
3612.000000	98.005027
3611.000000	97.991962
3610.000000	97.978780
3609.000000	97.964460
3608.000000	97.951729
3607.000000	97.944288
3606.000000	97.942403
3605.000000	97.942861
3604.000000	97.942328
3603.000000	97.938919
3602.000000	97.932063
3601.000000	97.922024
3600.000000	97.909400
3599.000000	97.894484
3598.000000	97.877524
3597.000000	97.859658
3596.000000	97.842933
3595.000000	97.829188
3594.000000	97.818085
3593.000000	97.807424
3592.000000	97.795339
3591.000000	97.781798
3590.000000	97.767920
3589.000000	97.755447
3588.000000	97.745598
3587.000000	97.737308
3586.000000	97.728220
3585.000000	97.718038
3584.000000	97.708521
3583.000000	97.700095
3582.000000	97.690437
3581.000000	97.676580
3580.000000	97.658338
3579.000000	97.639065
3578.000000	97.622293
3577.000000	97.608802
3576.000000	97.596765
3575.000000	97.584020
3574.000000	97.569157
3573.000000	97.551843
3572.000000	97.533148
3571.000000	97.515485
3570.000000	97.501121
3569.000000	97.490777
3568.000000	97.483022
3567.000000	97.474667
3566.000000	97.462764
3565.000000	97.447144
3564.000000	97.430151
3563.000000	97.414338
3562.000000	97.400997
3561.000000	97.389836
3560.000000	97.379252
3559.000000	97.367152
3558.000000	97.352007
3557.000000	97.333705
3556.000000	97.313498
3555.000000	97.292991
3554.000000	97.273166
3553.000000	97.254497
3552.000000	97.237814
3551.000000	97.224295
3550.000000	97.214312
3549.000000	97.206863
3548.000000	97.200148
3547.000000	97.192410
3546.000000	97.182383
3545.000000	97.169553
3544.000000	97.153999
3543.000000	97.135910
3542.000000	97.115556
3541.000000	97.094129
3540.000000	97.074112
3539.000000	97.057828
3538.000000	97.045308
3537.000000	97.034180
3536.000000	97.021974
3535.000000	97.008141
3534.000000	96.993498
3533.000000	96.978815
3532.000000	96.964668
3531.000000	96.951767
3530.000000	96.940427
3529.000000	96.930080
3528.000000	96.920165
3527.000000	96.911105
3526.000000	96.903337
3525.000000	96.895626
3524.000000	96.885281
3523.000000	96.870359
3522.000000	96.851315
3521.000000	96.830474
3520.000000	96.810474
3519.000000	96.793135
3518.000000	96.778818
3517.000000	96.766257
3516.000000	96.753576
3515.000000	96.739951
3514.000000	96.725925
3513.000000	96.711961
3512.000000	96.697420
3511.000000	96.681665
3510.000000	96.665951
3509.000000	96.653261
3508.000000	96.645707
3507.000000	96.642305
3506.000000	96.639583
3505.000000	96.633860
3504.000000	96.623190
3503.000000	96.608152
3502.000000	96.591209
3501.000000	96.574964
3500.000000	96.560539
3499.000000	96.547538
3498.000000	96.535378
3497.000000	96.524179
3496.000000	96.513713
3495.000000	96.501895
3494.000000	96.485849
3493.000000	96.465284
3492.000000	96.443932
3491.000000	96.426715
3490.000000	96.415569
3489.000000	96.408326
3488.000000	96.401281
3487.000000	96.391984
3486.000000	96.379839
3485.000000	96.365194
3484.000000	96.348766
3483.000000	96.331737
3482.000000	96.315799
3481.000000	96.302645
3480.000000	96.293212
3479.000000	96.287192
3478.000000	96.283265
3477.000000	96.279719
3476.000000	96.274786
3475.000000	96.266828
3474.000000	96.255176
3473.000000	96.241053
3472.000000	96.226769
3471.000000	96.213423
3470.000000	96.200083
3469.000000	96.185932
3468.000000	96.172378
3467.000000	96.161803
3466.000000	96.154630
3465.000000	96.149115
3464.000000	96.143761
3463.000000	96.138270
3462.000000	96.131742
3461.000000	96.121732
3460.000000	96.106430
3459.000000	96.087078
3458.000000	96.067194
3457.000000	96.049751
3456.000000	96.035803
3455.000000	96.025274
3454.000000	96.017875
3453.000000	96.012863
3452.000000	96.008560
3451.000000	96.002981
3450.000000	95.995467
3449.000000	95.987511
3448.000000	95.981438
3447.000000	95.977658
3446.000000	95.973477
3445.000000	95.965558
3444.000000	95.953310
3443.000000	95.939457
3442.000000	95.927727
3441.000000	95.920134
3440.000000	95.916002
3439.000000	95.912856
3438.000000	95.908153
3437.000000	95.900724
3436.000000	95.891026
3435.000000	95.880016
3434.000000	95.868040
3433.000000	95.855083
3432.000000	95.841561
3431.000000	95.828126
3430.000000	95.814969
3429.000000	95.802096
3428.000000	95.790326
3427.000000	95.781118
3426.000000	95.775128
3425.000000	95.771331
3424.000000	95.767531
3423.000000	95.761205
3422.000000	95.750128
3421.000000	95.733554
3420.000000	95.713541
3419.000000	95.694360
3418.000000	95.679551
3417.000000	95.669479
3416.000000	95.661832
3415.000000	95.654196
3414.000000	95.645946
3413.000000	95.637717
3412.000000	95.629415
3411.000000	95.619481
3410.000000	95.606767
3409.000000	95.592983
3408.000000	95.582140
3407.000000	95.576679
3406.000000	95.574553
3405.000000	95.570756
3404.000000	95.561637
3403.000000	95.547521
3402.000000	95.531761
3401.000000	95.518052
3400.000000	95.508123
3399.000000	95.500772
3398.000000	95.492882
3397.000000	95.482200
3396.000000	95.469385
3395.000000	95.456923
3394.000000	95.446172
3393.000000	95.436103
3392.000000	95.424800
3391.000000	95.411500
3390.000000	95.397212
3389.000000	95.384107
3388.000000	95.374346
3387.000000	95.368456
3386.000000	95.364342
3385.000000	95.358405
3384.000000	95.348033
3383.000000	95.332994
3382.000000	95.314998
3381.000000	95.296871
3380.000000	95.281825
3379.000000	95.271736
3378.000000	95.265257
3377.000000	95.258414
3376.000000	95.247952
3375.000000	95.233976
3374.000000	95.219106
3373.000000	95.205574
3372.000000	95.193518
3371.000000	95.181540
3370.000000	95.168183
3369.000000	95.152900
3368.000000	95.136107
3367.000000	95.118571
3366.000000	95.100939
3365.000000	95.083963
3364.000000	95.068646
3363.000000	95.055331
3362.000000	95.042630
3361.000000	95.028085
3360.000000	95.010433
3359.000000	94.990851
3358.000000	94.971608
3357.000000	94.953750
3356.000000	94.936459
3355.000000	94.918480
3354.000000	94.899750
3353.000000	94.881355
3352.000000	94.863922
3351.000000	94.846369
3350.000000	94.826802
3349.000000	94.804733
3348.000000	94.781923
3347.000000	94.760663
3346.000000	94.741556
3345.000000	94.723347
3344.000000	94.704444
3343.000000	94.684128
3342.000000	94.662755
3341.000000	94.641649
3340.000000	94.622634
3339.000000	94.606815
3338.000000	94.593524
3337.000000	94.580711
3336.000000	94.566342
3335.000000	94.549299
3334.000000	94.529557
3333.000000	94.508276
3332.000000	94.487574
3331.000000	94.469387
3330.000000	94.454347
3329.000000	94.441972
3328.000000	94.431497
3327.000000	94.421850
3326.000000	94.411147
3325.000000	94.397246
3324.000000	94.379249
3323.000000	94.358231
3322.000000	94.336598
3321.000000	94.316865
3320.000000	94.300378
3319.000000	94.286381
3318.000000	94.272593
3317.000000	94.257433
3316.000000	94.241620
3315.000000	94.227108
3314.000000	94.214768
3313.000000	94.203632
3312.000000	94.191782
3311.000000	94.177382
3310.000000	94.159777
3309.000000	94.140863
3308.000000	94.124756
3307.000000	94.114291
3306.000000	94.107801
3305.000000	94.100626
3304.000000	94.089792
3303.000000	94.076260
3302.000000	94.062790
3301.000000	94.051073
3300.000000	94.041245
3299.000000	94.032646
3298.000000	94.024135
3297.000000	94.014510
3296.000000	94.003412
3295.000000	93.991595
3294.000000	93.980223
3293.000000	93.970417
3292.000000	93.963106
3291.000000	93.958157
3290.000000	93.953572
3289.000000	93.946782
3288.000000	93.937330
3287.000000	93.927641
3286.000000	93.921017
3285.000000	93.919520
3284.000000	93.923168
3283.000000	93.929570
3282.000000	93.934361
3281.000000	93.934135
3280.000000	93.930376
3279.000000	93.929105
3278.000000	93.935379
3277.000000	93.948470
3276.000000	93.963225
3275.000000	93.975624
3274.000000	93.985675
3273.000000	93.995445
3272.000000	94.005678
3271.000000	94.014760
3270.000000	94.020560
3269.000000	94.022955
3268.000000	94.024577
3267.000000	94.028948
3266.000000	94.037833
3265.000000	94.050654
3264.000000	94.066126
3263.000000	94.083348
3262.000000	94.101103
3261.000000	94.117362
3260.000000	94.130695
3259.000000	94.141967
3258.000000	94.154059
3257.000000	94.170071
3256.000000	94.191671
3255.000000	94.218127
3254.000000	94.246109
3253.000000	94.271134
3252.000000	94.290362
3251.000000	94.304311
3250.000000	94.315791
3249.000000	94.327518
3248.000000	94.340818
3247.000000	94.355503
3246.000000	94.369981
3245.000000	94.381828
3244.000000	94.389427
3243.000000	94.393483
3242.000000	94.396718
3241.000000	94.402218
3240.000000	94.412227
3239.000000	94.427792
3238.000000	94.448404
3237.000000	94.471632
3236.000000	94.493815
3235.000000	94.512019
3234.000000	94.525631
3233.000000	94.536029
3232.000000	94.544622
3231.000000	94.551347
3230.000000	94.555300
3229.000000	94.556756
3228.000000	94.558125
3227.000000	94.562509
3226.000000	94.571454
3225.000000	94.584399
3224.000000	94.599762
3223.000000	94.615865
3222.000000	94.631177
3221.000000	94.644797
3220.000000	94.657169
3219.000000	94.669440
3218.000000	94.681380
3217.000000	94.690575
3216.000000	94.694584
3215.000000	94.694037
3214.000000	94.693015
3213.000000	94.695872
3212.000000	94.703807
3211.000000	94.714537
3210.000000	94.725136
3209.000000	94.734695
3208.000000	94.744208
3207.000000	94.754598
3206.000000	94.765704
3205.000000	94.777052
3204.000000	94.788489
3203.000000	94.799659
3202.000000	94.809856
3201.000000	94.819111
3200.000000	94.828721
3199.000000	94.839890
3198.000000	94.852430
3197.000000	94.865526
3196.000000	94.878884
3195.000000	94.892023
3194.000000	94.903418
3193.000000	94.912177
3192.000000	94.920346
3191.000000	94.931705
3190.000000	94.947844
3189.000000	94.966654
3188.000000	94.984839
3187.000000	95.000673
3186.000000	95.014303
3185.000000	95.027095
3184.000000	95.041244
3183.000000	95.058369
3182.000000	95.077376
3181.000000	95.094765
3180.000000	95.108079
3179.000000	95.118391
3178.000000	95.128948
3177.000000	95.142088
3176.000000	95.158150
3175.000000	95.176142
3174.000000	95.194428
3173.000000	95.211444
3172.000000	95.226808
3171.000000	95.241327
3170.000000	95.255397
3169.000000	95.268325
3168.000000	95.279926
3167.000000	95.291642
3166.000000	95.304810
3165.000000	95.318612
3164.000000	95.331276
3163.000000	95.342935
3162.000000	95.355910
3161.000000	95.372181
3160.000000	95.391667
3159.000000	95.412867
3158.000000	95.433949
3157.000000	95.452988
3156.000000	95.468506
3155.000000	95.480760
3154.000000	95.492056
3153.000000	95.504988
3152.000000	95.520086
3151.000000	95.535282
3150.000000	95.547795
3149.000000	95.556823
3148.000000	95.564428
3147.000000	95.573643
3146.000000	95.585507
