PE UV       SUBTECH     SPECTRUM    ASCII       PEDS        4.00        
   -1
Empty Chamber.Sample.asc
18/03/09
08:59:51.00
18/03/09
08:59:51.00
Administrator

200.000000
1
Lambda 750
750N8071901
PerkinElmer UV WinLab 6.0.4.0738 / 1.61.00 Lambda 900

0
0
3350/servo 860.8/2
0
0
UV/VIS
1
1
1
CommonBeamDepol,150mm sphere / downward view
0
0
0
0
Program
Program
3350/servo 860.8/2
3350/0.2 860.8/0.2
3350/0.2 860.8/0.2
0
1
 
 
 
0
 
860.8
319.2
860.8
Front
100
on
 
 
0
0
0
 
0
 
 
 
0
 
 
0
0
0
0
0
 
 
 
 
0
0


0
0
#HDR
-1
-1
#GR
nm
%T
1.0
0.0
2350.000000
-1.000000
2151
8
100.791471
98.992728
#DATA
2350.000000	99.912752
2349.000000	100.075051
2348.000000	100.069119
2347.000000	99.775988
2346.000000	99.735938
2345.000000	100.791471
2344.000000	99.975182
2343.000000	100.235252
2342.000000	100.115113
2341.000000	100.350490
2340.000000	100.380708
2339.000000	100.139134
2338.000000	100.151153
2337.000000	100.013763
2336.000000	99.501613
2335.000000	100.219603
2334.000000	100.165074
2333.000000	100.397456
2332.000000	100.174035
2331.000000	100.091631
2330.000000	100.472888
2329.000000	100.229806
2328.000000	100.261464
2327.000000	99.920536
2326.000000	100.486177
2325.000000	99.950575
2324.000000	100.363625
2323.000000	99.884717
2322.000000	99.830959
2321.000000	100.107359
2320.000000	100.264732
2319.000000	99.840995
2318.000000	100.121716
2317.000000	100.258830
2316.000000	99.892823
2315.000000	99.865841
2314.000000	100.151777
2313.000000	99.913964
2312.000000	99.935718
2311.000000	100.065891
2310.000000	100.081501
2309.000000	100.178808
2308.000000	100.080839
2307.000000	99.973598
2306.000000	100.109665
2305.000000	100.093592
2304.000000	99.898824
2303.000000	99.807997
2302.000000	100.156953
2301.000000	99.779140
2300.000000	99.917216
2299.000000	100.307237
2298.000000	100.274199
2297.000000	100.294085
2296.000000	100.221001
2295.000000	100.070875
2294.000000	99.960335
2293.000000	99.875504
2292.000000	99.839917
2291.000000	99.846832
2290.000000	99.992318
2289.000000	100.131080
2288.000000	100.129930
2287.000000	100.135413
2286.000000	100.071338
2285.000000	99.991499
2284.000000	100.086508
2283.000000	100.152342
2282.000000	100.042791
2281.000000	100.154460
2280.000000	100.069156
2279.000000	99.973774
2278.000000	100.148370
2277.000000	99.983498
2276.000000	99.908619
2275.000000	100.017492
2274.000000	100.105973
2273.000000	100.168883
2272.000000	100.241997
2271.000000	99.825098
2270.000000	99.812383
2269.000000	99.872227
2268.000000	99.916482
2267.000000	100.093404
2266.000000	100.173305
2265.000000	100.024203
2264.000000	99.998582
2263.000000	99.929838
2262.000000	100.010928
2261.000000	100.119418
2260.000000	100.005764
2259.000000	100.037144
2258.000000	100.226700
2257.000000	100.270647
2256.000000	100.002936
2255.000000	100.043564
2254.000000	100.168580
2253.000000	100.093818
2252.000000	99.987555
2251.000000	100.067862
2250.000000	100.072927
2249.000000	100.066125
2248.000000	99.942921
2247.000000	99.836817
2246.000000	99.947937
2245.000000	100.036004
2244.000000	100.050766
2243.000000	100.175397
2242.000000	100.189526
2241.000000	100.078187
2240.000000	100.005062
2239.000000	100.002834
2238.000000	99.997672
2237.000000	100.117195
2236.000000	100.135323
2235.000000	99.996661
2234.000000	99.956286
2233.000000	99.872922
2232.000000	99.839308
2231.000000	99.954484
2230.000000	99.976533
2229.000000	99.866219
2228.000000	99.980072
2227.000000	99.968211
2226.000000	100.042842
2225.000000	100.147074
2224.000000	99.994940
2223.000000	100.021064
2222.000000	100.108600
2221.000000	100.058244
2220.000000	100.123555
2219.000000	100.080093
2218.000000	100.055562
2217.000000	100.000810
2216.000000	99.975831
2215.000000	100.012535
2214.000000	100.036818
2213.000000	100.017395
2212.000000	99.873121
2211.000000	100.000506
2210.000000	100.189160
2209.000000	100.064319
2208.000000	100.106041
2207.000000	100.211551
2206.000000	100.171923
2205.000000	100.074592
2204.000000	100.039792
2203.000000	100.073793
2202.000000	100.053526
2201.000000	99.962905
2200.000000	100.042761
2199.000000	100.046299
2198.000000	100.111985
2197.000000	100.117090
2196.000000	100.103783
2195.000000	100.090034
2194.000000	100.071000
2193.000000	100.018412
2192.000000	100.030554
2191.000000	99.931244
2190.000000	100.020312
2189.000000	99.955721
2188.000000	100.079652
2187.000000	99.975370
2186.000000	100.077438
2185.000000	100.117476
2184.000000	100.243357
2183.000000	100.179247
2182.000000	99.934084
2181.000000	99.908662
2180.000000	100.028572
2179.000000	99.949627
2178.000000	99.835910
2177.000000	100.032914
2176.000000	100.047002
2175.000000	100.120982
2174.000000	100.003840
2173.000000	100.046142
2172.000000	99.976815
2171.000000	99.769087
2170.000000	99.973436
2169.000000	100.003828
2168.000000	100.236431
2167.000000	100.083131
2166.000000	99.855963
2165.000000	99.855511
2164.000000	99.868299
2163.000000	99.964839
2162.000000	100.137834
2161.000000	100.038597
2160.000000	99.970078
2159.000000	100.067074
2158.000000	100.136658
2157.000000	99.934859
2156.000000	99.921945
2155.000000	99.953103
2154.000000	99.984598
2153.000000	100.192215
2152.000000	99.978854
2151.000000	100.060425
2150.000000	100.212276
2149.000000	99.824839
2148.000000	100.036441
2147.000000	99.925451
2146.000000	100.109852
2145.000000	99.959902
2144.000000	100.071157
2143.000000	99.869584
2142.000000	99.780470
2141.000000	100.115493
2140.000000	99.899323
2139.000000	99.882559
2138.000000	99.977885
2137.000000	100.110729
2136.000000	100.059924
2135.000000	100.126578
2134.000000	99.895974
2133.000000	100.005036
2132.000000	100.147169
2131.000000	99.892138
2130.000000	99.971445
2129.000000	100.088336
2128.000000	100.032914
2127.000000	100.004831
2126.000000	99.909623
2125.000000	100.014813
2124.000000	100.018238
2123.000000	99.959712
2122.000000	99.896307
2121.000000	100.005749
2120.000000	99.971367
2119.000000	99.950953
2118.000000	99.934134
2117.000000	99.993047
2116.000000	99.915107
2115.000000	100.071491
2114.000000	100.199831
2113.000000	100.195510
2112.000000	100.153143
2111.000000	100.083934
2110.000000	99.982243
2109.000000	100.075939
2108.000000	100.187349
2107.000000	99.912323
2106.000000	99.931025
2105.000000	100.016845
2104.000000	99.851242
2103.000000	99.842539
2102.000000	99.920323
2101.000000	100.121233
2100.000000	100.167643
2099.000000	100.022597
2098.000000	99.920749
2097.000000	100.151733
2096.000000	100.002321
2095.000000	99.995858
2094.000000	100.064131
2093.000000	100.164019
2092.000000	99.968889
2091.000000	100.070048
2090.000000	99.972643
2089.000000	99.897204
2088.000000	99.989702
2087.000000	100.064032
2086.000000	99.958401
2085.000000	100.018789
2084.000000	99.921558
2083.000000	100.016662
2082.000000	100.014748
2081.000000	99.922496
2080.000000	99.945467
2079.000000	99.998080
2078.000000	99.979900
2077.000000	100.032859
2076.000000	100.019911
2075.000000	100.018088
2074.000000	100.039110
2073.000000	100.007881
2072.000000	100.038582
2071.000000	100.026269
2070.000000	100.030325
2069.000000	99.954696
2068.000000	99.988270
2067.000000	100.015776
2066.000000	99.975842
2065.000000	100.023350
2064.000000	100.103679
2063.000000	100.063007
2062.000000	99.989484
2061.000000	100.013146
2060.000000	100.046224
2059.000000	99.988268
2058.000000	99.947633
2057.000000	99.915282
2056.000000	99.885484
2055.000000	100.026800
2054.000000	100.018616
2053.000000	100.055949
2052.000000	100.053322
2051.000000	100.010111
2050.000000	100.089116
2049.000000	100.064450
2048.000000	100.035517
2047.000000	100.009007
2046.000000	100.031168
2045.000000	100.065782
2044.000000	99.958929
2043.000000	100.056882
2042.000000	100.060232
2041.000000	99.995952
2040.000000	100.011740
2039.000000	99.978138
2038.000000	99.986638
2037.000000	99.947969
2036.000000	99.987344
2035.000000	100.036355
2034.000000	100.008909
2033.000000	99.936038
2032.000000	99.914363
2031.000000	100.051356
2030.000000	100.022582
2029.000000	99.957377
2028.000000	100.033631
2027.000000	100.026944
2026.000000	100.058047
2025.000000	100.034448
2024.000000	100.002533
2023.000000	100.074483
2022.000000	99.994529
2021.000000	99.956251
2020.000000	100.039307
2019.000000	100.063549
2018.000000	100.011756
2017.000000	99.989262
2016.000000	100.000405
2015.000000	100.017733
2014.000000	99.994122
2013.000000	99.969308
2012.000000	99.982573
2011.000000	99.966666
2010.000000	99.945290
2009.000000	99.990777
2008.000000	100.010442
2007.000000	100.029509
2006.000000	100.018146
2005.000000	100.026460
2004.000000	100.019571
2003.000000	99.980432
2002.000000	99.990672
2001.000000	100.014196
2000.000000	99.989352
1999.000000	99.978807
1998.000000	99.993510
1997.000000	99.999189
1996.000000	100.025762
1995.000000	100.008521
1994.000000	100.009536
1993.000000	99.990972
1992.000000	99.986815
1991.000000	99.998174
1990.000000	100.013090
1989.000000	100.016133
1988.000000	100.026084
1987.000000	100.003856
1986.000000	100.030752
1985.000000	100.003146
1984.000000	100.011772
1983.000000	100.045581
1982.000000	100.037246
1981.000000	100.017760
1980.000000	100.028018
1979.000000	99.990766
1978.000000	100.038565
1977.000000	100.011465
1976.000000	100.071559
1975.000000	100.041924
1974.000000	100.032584
1973.000000	99.996449
1972.000000	100.054403
1971.000000	100.001015
1970.000000	100.026590
1969.000000	100.030341
1968.000000	100.040393
1967.000000	100.023947
1966.000000	99.994724
1965.000000	100.032988
1964.000000	100.008626
1963.000000	100.015628
1962.000000	99.976053
1961.000000	100.047906
1960.000000	100.045868
1959.000000	100.048189
1958.000000	99.955368
1957.000000	100.040572
1956.000000	99.981641
1955.000000	99.952449
1954.000000	99.979319
1953.000000	99.987225
1952.000000	100.050806
1951.000000	100.083860
1950.000000	99.978408
1949.000000	100.057816
1948.000000	100.068961
1947.000000	100.022614
1946.000000	99.974867
1945.000000	100.046029
1944.000000	100.120774
1943.000000	99.969914
1942.000000	99.995947
1941.000000	100.057866
1940.000000	99.952714
1939.000000	100.032931
1938.000000	100.036983
1937.000000	99.966389
1936.000000	100.018037
1935.000000	99.967480
1934.000000	99.971331
1933.000000	100.006282
1932.000000	99.966892
1931.000000	99.962945
1930.000000	99.945628
1929.000000	100.041432
1928.000000	100.002329
1927.000000	100.059649
1926.000000	99.902255
1925.000000	99.819444
1924.000000	100.089495
1923.000000	100.022573
1922.000000	100.023485
1921.000000	100.042644
1920.000000	99.982895
1919.000000	100.073131
1918.000000	100.061506
1917.000000	99.970845
1916.000000	100.020968
1915.000000	99.964168
1914.000000	99.999190
1913.000000	99.965160
1912.000000	100.032915
1911.000000	100.045180
1910.000000	99.995342
1909.000000	100.058954
1908.000000	100.034850
1907.000000	100.095574
1906.000000	100.002634
1905.000000	99.934457
1904.000000	99.965362
1903.000000	99.971145
1902.000000	99.994124
1901.000000	99.932449
1900.000000	100.032224
1899.000000	100.068197
1898.000000	100.001824
1897.000000	99.996658
1896.000000	100.000203
1895.000000	100.065283
1894.000000	99.974668
1893.000000	99.997366
1892.000000	100.102402
1891.000000	100.048658
1890.000000	100.009020
1889.000000	100.066781
1888.000000	100.067487
1887.000000	100.034962
1886.000000	100.042849
1885.000000	99.994532
1884.000000	99.953434
1883.000000	99.994838
1882.000000	100.006779
1881.000000	99.935150
1880.000000	99.969454
1879.000000	99.969557
1878.000000	99.934571
1877.000000	99.962384
1876.000000	100.020835
1875.000000	99.975232
1874.000000	100.009405
1873.000000	100.003640
1872.000000	100.005560
1871.000000	99.954610
1870.000000	99.992315
1869.000000	99.971998
1868.000000	99.983209
1867.000000	99.996460
1866.000000	99.985639
1865.000000	100.012847
1864.000000	99.978052
1863.000000	100.030755
1862.000000	99.991401
1861.000000	100.002935
1860.000000	99.986545
1859.000000	99.989879
1858.000000	99.978040
1857.000000	100.000911
1856.000000	99.982393
1855.000000	99.973902
1854.000000	99.959733
1853.000000	99.950326
1852.000000	100.014167
1851.000000	100.031772
1850.000000	100.033293
1849.000000	100.035007
1848.000000	100.042385
1847.000000	100.041893
1846.000000	100.036026
1845.000000	100.055455
1844.000000	100.020133
1843.000000	99.987762
1842.000000	100.018209
1841.000000	99.986444
1840.000000	99.988464
1839.000000	100.017204
1838.000000	100.009411
1837.000000	99.986945
1836.000000	100.022270
1835.000000	100.018122
1834.000000	99.956678
1833.000000	99.964467
1832.000000	100.001721
1831.000000	100.039506
1830.000000	100.027859
1829.000000	100.002938
1828.000000	99.981966
1827.000000	100.006181
1826.000000	99.986626
1825.000000	99.980037
1824.000000	100.003447
1823.000000	100.032745
1822.000000	100.013884
1821.000000	100.017840
1820.000000	99.994831
1819.000000	100.012367
1818.000000	100.022304
1817.000000	100.012471
1816.000000	100.007099
1815.000000	100.033677
1814.000000	100.016736
1813.000000	99.987627
1812.000000	100.005681
1811.000000	99.964604
1810.000000	99.974847
1809.000000	100.009333
1808.000000	100.009738
1807.000000	100.014912
1806.000000	100.020799
1805.000000	100.024966
1804.000000	100.008422
1803.000000	100.002943
1802.000000	100.008627
1801.000000	100.013296
1800.000000	100.004262
1799.000000	99.995230
1798.000000	99.990459
1797.000000	100.006497
1796.000000	100.025683
1795.000000	100.014822
1794.000000	100.015127
1793.000000	100.020100
1792.000000	99.997767
1791.000000	100.011473
1790.000000	100.009443
1789.000000	99.996446
1788.000000	100.024675
1787.000000	100.011170
1786.000000	99.997259
1785.000000	100.022442
1784.000000	100.020209
1783.000000	100.006600
1782.000000	100.026807
1781.000000	100.002538
1780.000000	100.000305
1779.000000	99.997868
1778.000000	99.983655
1777.000000	100.001015
1776.000000	100.019395
1775.000000	100.013709
1774.000000	99.988933
1773.000000	100.008224
1772.000000	100.022946
1771.000000	100.028535
1770.000000	100.021121
1769.000000	100.021322
1768.000000	99.985688
1767.000000	100.014111
1766.000000	100.026298
1765.000000	100.005178
1764.000000	100.010964
1763.000000	100.013403
1762.000000	99.983351
1761.000000	100.024372
1760.000000	100.002335
1759.000000	99.986092
1758.000000	99.996751
1757.000000	100.027724
1756.000000	100.021222
1755.000000	99.973607
1754.000000	99.985180
1753.000000	99.977063
1752.000000	99.971278
1751.000000	99.988228
1750.000000	100.005075
1749.000000	100.013907
1748.000000	100.038893
1747.000000	100.042345
1746.000000	100.015130
1745.000000	100.011675
1744.000000	100.021014
1743.000000	100.017159
1742.000000	99.994316
1741.000000	100.010760
1740.000000	100.009441
1739.000000	99.995838
1738.000000	99.993403
1737.000000	99.951093
1736.000000	99.973411
1735.000000	99.982037
1734.000000	100.007308
1733.000000	100.005887
1732.000000	100.017663
1731.000000	99.988225
1730.000000	99.986602
1729.000000	100.009439
1728.000000	100.054825
1727.000000	100.008021
1726.000000	100.023853
1725.000000	100.042542
1724.000000	100.024671
1723.000000	100.020301
1722.000000	99.994214
1721.000000	99.990561
1720.000000	99.986905
1719.000000	100.008831
1718.000000	100.034212
1717.000000	100.010151
1716.000000	100.004973
1715.000000	99.960830
1714.000000	100.004668
1713.000000	99.975544
1712.000000	100.006293
1711.000000	99.991373
1710.000000	99.980919
1709.000000	100.010859
1708.000000	100.045273
1707.000000	100.016038
1706.000000	100.038476
1705.000000	100.035723
1704.000000	100.022026
1703.000000	100.004162
1702.000000	100.008322
1701.000000	99.987721
1700.000000	100.044260
1699.000000	100.033902
1698.000000	99.969457
1697.000000	100.038671
1696.000000	99.969863
1695.000000	100.029337
1694.000000	100.004263
1693.000000	100.002132
1692.000000	100.021717
1691.000000	100.038867
1690.000000	100.019589
1689.000000	100.006901
1688.000000	99.989750
1687.000000	99.996347
1686.000000	100.013700
1685.000000	100.012483
1684.000000	99.964384
1683.000000	99.994114
1682.000000	99.983867
1681.000000	99.996956
1680.000000	99.992084
1679.000000	100.002841
1678.000000	100.026696
1677.000000	100.021617
1676.000000	100.020803
1675.000000	99.997869
1674.000000	100.002131
1673.000000	99.999899
1672.000000	100.009233
1671.000000	99.957694
1670.000000	99.982853
1669.000000	100.003753
1668.000000	100.014809
1667.000000	99.977989
1666.000000	99.983671
1665.000000	100.000203
1664.000000	99.998884
1663.000000	100.002941
1662.000000	99.996247
1661.000000	99.990973
1660.000000	100.005174
1659.000000	100.026073
1658.000000	100.018157
1657.000000	99.983980
1656.000000	99.972521
1655.000000	99.957916
1654.000000	99.975257
1653.000000	100.006288
1652.000000	100.007303
1651.000000	99.993002
1650.000000	100.022725
1649.000000	99.995232
1648.000000	100.004565
1647.000000	100.010550
1646.000000	100.016535
1645.000000	99.998884
1644.000000	100.009333
1643.000000	100.032969
1642.000000	100.032462
1641.000000	100.016533
1640.000000	100.008926
1639.000000	100.007403
1638.000000	100.002029
1637.000000	100.021402
1636.000000	100.003753
1635.000000	100.016432
1634.000000	100.001014
1633.000000	99.977990
1632.000000	100.007912
1631.000000	100.006695
1630.000000	99.986103
1629.000000	100.006796
1628.000000	100.018159
1627.000000	99.985393
1626.000000	99.992596
1625.000000	100.007607
1624.000000	99.992292
1623.000000	99.992292
1622.000000	99.998377
1621.000000	100.006086
1620.000000	100.013388
1619.000000	100.012171
1618.000000	100.003448
1617.000000	100.006086
1616.000000	100.006999
1615.000000	100.003956
1614.000000	100.005376
1613.000000	100.001420
1612.000000	100.004158
1611.000000	100.001217
1610.000000	99.996552
1609.000000	100.002941
1608.000000	99.997769
1607.000000	100.009128
1606.000000	100.021706
1605.000000	100.000710
1604.000000	100.007403
1603.000000	100.012677
1602.000000	99.994219
1601.000000	100.003246
1600.000000	100.008215
1599.000000	100.014607
1598.000000	100.023938
1597.000000	100.005679
1596.000000	99.988845
1595.000000	99.996147
1594.000000	100.005273
1593.000000	100.008316
1592.000000	100.004969
1591.000000	100.010040
1590.000000	100.009229
1589.000000	100.006492
1588.000000	100.018258
1587.000000	100.012780
1586.000000	100.020183
1585.000000	100.015314
1584.000000	100.008722
1583.000000	99.996451
1582.000000	99.993104
1581.000000	100.000203
1580.000000	99.999594
1579.000000	99.991787
1578.000000	99.992497
1577.000000	99.998276
1576.000000	99.988136
1575.000000	99.993409
1574.000000	100.001521
1573.000000	100.011256
1572.000000	100.003752
1571.000000	99.989556
1570.000000	99.991179
1569.000000	99.987225
1568.000000	100.004766
1567.000000	100.012980
1566.000000	99.984285
1565.000000	99.984793
1564.000000	99.992701
1563.000000	100.005272
1562.000000	99.994221
1561.000000	100.000000
1560.000000	100.007199
1559.000000	100.006286
1558.000000	100.012168
1557.000000	100.001318
1556.000000	99.985300
1555.000000	100.000507
1554.000000	100.016119
1553.000000	100.003447
1552.000000	100.011658
1551.000000	100.009733
1550.000000	100.000811
1549.000000	100.011253
1548.000000	100.004461
1547.000000	100.016121
1546.000000	100.001419
1545.000000	100.007806
1544.000000	100.012064
1543.000000	99.999493
1542.000000	100.007198
1541.000000	99.997567
1540.000000	100.019263
1539.000000	99.999392
1538.000000	99.998682
1537.000000	100.002737
1536.000000	100.003447
1535.000000	100.004866
1534.000000	100.009731
1533.000000	100.000405
1532.000000	100.000507
1531.000000	100.015005
1530.000000	100.027988
1529.000000	100.006794
1528.000000	99.991585
1527.000000	99.996249
1526.000000	99.997871
1525.000000	99.975468
1524.000000	99.991078
1523.000000	100.022617
1522.000000	100.003042
1521.000000	100.002839
1520.000000	100.007097
1519.000000	100.009734
1518.000000	99.993207
1517.000000	99.993511
1516.000000	100.004462
1515.000000	99.991079
1514.000000	99.995031
1513.000000	100.013588
1512.000000	100.023525
1511.000000	100.017948
1510.000000	99.995944
1509.000000	100.000000
1508.000000	100.013385
1507.000000	99.980734
1506.000000	99.978707
1505.000000	99.982358
1504.000000	100.005171
1503.000000	100.008721
1502.000000	99.997972
1501.000000	100.002332
1500.000000	100.037624
1499.000000	100.062676
1498.000000	100.025047
1497.000000	99.996350
1496.000000	100.017136
1495.000000	100.025853
1494.000000	100.014906
