PE UV       SUBTECH     SPECTRUM    ASCII       PEDS        4.00        
   -1
Empty Chamber.Sample2.asc
18/03/09
14:03:53.00
18/03/09
14:03:53.00
Administrator

200.000000
1
Lambda 750
750N8071901
PerkinElmer UV WinLab 6.0.4.0738 / 1.61.00 Lambda 900

0
0
3350/servo 860.8/2
0
0
UV/VIS
1
1
1
CommonBeamDepol,150mm sphere / downward view
0
0
0
0
Program
Program
3350/servo 860.8/2
3350/0.2 860.8/0.2
3350/0.2 860.8/0.2
0
1
 
 
 
0
 
860.8
319.2
860.8
Front
100
on
 
 
0
0
0
 
0
 
 
 
0
 
 
0
0
0
0
0
 
 
 
 
0
0


0
0
#HDR
-1
-1
#GR
nm
%T
1.0
0.0
2350.000000
-1.000000
2151
8
100.454974
99.384071
#DATA
2350.000000	100.360642
2349.000000	99.988735
2348.000000	99.756951
2347.000000	99.897209
2346.000000	99.384071
2345.000000	100.140614
2344.000000	99.993753
2343.000000	100.009980
2342.000000	100.048776
2341.000000	100.048068
2340.000000	100.126622
2339.000000	99.902816
2338.000000	100.339057
2337.000000	100.307143
2336.000000	99.982571
2335.000000	100.098468
2334.000000	100.086879
2333.000000	100.075355
2332.000000	100.051912
2331.000000	100.071489
2330.000000	99.916266
2329.000000	99.894977
2328.000000	100.133936
2327.000000	99.972789
2326.000000	100.233014
2325.000000	100.048464
2324.000000	99.903896
2323.000000	100.042535
2322.000000	99.574131
2321.000000	99.890199
2320.000000	99.786599
2319.000000	100.156762
2318.000000	100.177284
2317.000000	100.345921
2316.000000	100.014319
2315.000000	99.854954
2314.000000	100.036495
2313.000000	100.091731
2312.000000	99.991210
2311.000000	99.790463
2310.000000	100.187986
2309.000000	100.123669
2308.000000	99.928110
2307.000000	99.836196
2306.000000	99.849639
2305.000000	100.145859
2304.000000	100.053835
2303.000000	100.032662
2302.000000	100.118386
2301.000000	100.151409
2300.000000	100.118683
2299.000000	99.950200
2298.000000	99.858578
2297.000000	100.042825
2296.000000	100.017475
2295.000000	99.926272
2294.000000	99.938065
2293.000000	99.880373
2292.000000	99.742567
2291.000000	99.894950
2290.000000	100.074570
2289.000000	100.096282
2288.000000	100.280076
2287.000000	99.918841
2286.000000	99.766782
2285.000000	100.219500
2284.000000	100.198077
2283.000000	99.850321
2282.000000	99.947366
2281.000000	100.243028
2280.000000	100.126261
2279.000000	100.063074
2278.000000	100.016953
2277.000000	99.890543
2276.000000	99.991827
2275.000000	100.064112
2274.000000	99.963584
2273.000000	100.061711
2272.000000	100.222528
2271.000000	100.141752
2270.000000	100.091270
2269.000000	100.093197
2268.000000	100.049868
2267.000000	99.999899
2266.000000	100.018174
2265.000000	99.996467
2264.000000	99.924395
2263.000000	99.921368
2262.000000	99.907483
2261.000000	99.925589
2260.000000	100.052032
2259.000000	100.026627
2258.000000	99.969148
2257.000000	99.888985
2256.000000	99.826441
2255.000000	99.998788
2254.000000	100.125274
2253.000000	100.003939
2252.000000	100.057905
2251.000000	100.221616
2250.000000	100.065713
2249.000000	100.044161
2248.000000	100.020494
2247.000000	99.787122
2246.000000	99.806443
2245.000000	99.805323
2244.000000	99.868068
2243.000000	100.023008
2242.000000	99.974960
2241.000000	100.012931
2240.000000	100.144389
2239.000000	100.157686
2238.000000	100.042209
2237.000000	100.035265
2236.000000	100.008492
2235.000000	99.999899
2234.000000	100.014642
2233.000000	99.886457
2232.000000	99.917341
2231.000000	100.001010
2230.000000	99.981942
2229.000000	99.936984
2228.000000	100.120233
2227.000000	99.993539
2226.000000	99.982328
2225.000000	100.082751
2224.000000	100.068364
2223.000000	99.982737
2222.000000	100.030200
2221.000000	100.024937
2220.000000	100.172468
2219.000000	100.211067
2218.000000	99.992327
2217.000000	99.979014
2216.000000	100.041173
2215.000000	100.150623
2214.000000	100.047119
2213.000000	100.122804
2212.000000	100.066333
2211.000000	99.866061
2210.000000	99.896660
2209.000000	99.997275
2208.000000	99.924779
2207.000000	99.982541
2206.000000	99.910432
2205.000000	99.986282
2204.000000	100.011203
2203.000000	99.936341
2202.000000	99.950207
2201.000000	99.927209
2200.000000	100.018872
2199.000000	100.151911
2198.000000	100.206009
2197.000000	99.947878
2196.000000	99.958437
2195.000000	100.051284
2194.000000	99.997379
2193.000000	100.183241
2192.000000	100.097520
2191.000000	100.036118
2190.000000	99.945774
2189.000000	100.044662
2188.000000	100.052933
2187.000000	99.991636
2186.000000	100.000504
2185.000000	99.981468
2184.000000	100.126228
2183.000000	100.311393
2182.000000	100.225232
2181.000000	99.993351
2180.000000	100.154709
2179.000000	100.070683
2178.000000	99.931165
2177.000000	99.877431
2176.000000	100.195238
2175.000000	100.015703
2174.000000	100.129939
2173.000000	99.938540
2172.000000	99.871857
2171.000000	99.936293
2170.000000	99.907517
2169.000000	99.989242
2168.000000	100.213326
2167.000000	100.043205
2166.000000	100.126516
2165.000000	99.990251
2164.000000	99.863801
2163.000000	100.042533
2162.000000	99.982821
2161.000000	100.033680
2160.000000	99.857981
2159.000000	100.184859
2158.000000	99.966179
2157.000000	99.963293
2156.000000	99.917830
2155.000000	99.971575
2154.000000	99.724276
2153.000000	100.187539
2152.000000	99.805692
2151.000000	100.146140
2150.000000	99.968340
2149.000000	99.921541
2148.000000	100.000502
2147.000000	99.835020
2146.000000	99.939909
2145.000000	99.788694
2144.000000	99.867229
2143.000000	100.014559
2142.000000	100.107744
2141.000000	99.793878
2140.000000	100.060224
2139.000000	100.085817
2138.000000	100.056107
2137.000000	99.858905
2136.000000	99.893718
2135.000000	99.893613
2134.000000	100.160144
2133.000000	100.029914
2132.000000	99.968687
2131.000000	99.992176
2130.000000	100.011648
2129.000000	99.920520
2128.000000	100.017086
2127.000000	100.049298
2126.000000	100.013356
2125.000000	100.065850
2124.000000	100.085719
2123.000000	100.042284
2122.000000	99.973956
2121.000000	99.890142
2120.000000	99.771284
2119.000000	99.836700
2118.000000	99.877545
2117.000000	99.785260
2116.000000	100.051176
2115.000000	100.122045
2114.000000	99.928327
2113.000000	100.026469
2112.000000	100.176245
2111.000000	99.890414
2110.000000	99.959448
2109.000000	100.000805
2108.000000	100.098948
2107.000000	100.144324
2106.000000	100.167687
2105.000000	99.972130
2104.000000	99.950412
2103.000000	100.073947
2102.000000	100.082003
2101.000000	100.153869
2100.000000	100.136132
2099.000000	99.934032
2098.000000	100.064022
2097.000000	99.999496
2096.000000	99.979354
2095.000000	100.045298
2094.000000	99.842326
2093.000000	99.995268
2092.000000	100.030924
2091.000000	100.034653
2090.000000	99.899139
2089.000000	99.984096
2088.000000	99.990945
2087.000000	99.938822
2086.000000	99.949459
2085.000000	100.023074
2084.000000	100.065213
2083.000000	100.097138
2082.000000	100.124404
2081.000000	100.010276
2080.000000	100.043766
2079.000000	100.048706
2078.000000	99.957496
2077.000000	100.030925
2076.000000	100.075087
2075.000000	100.039483
2074.000000	99.980263
2073.000000	100.052884
2072.000000	100.010875
2071.000000	99.960540
2070.000000	100.075776
2069.000000	99.946683
2068.000000	100.082560
2067.000000	99.996473
2066.000000	99.989923
2065.000000	100.005139
2064.000000	100.034080
2063.000000	99.972289
2062.000000	99.957180
2061.000000	100.050516
2060.000000	99.990324
2059.000000	99.966651
2058.000000	100.018348
2057.000000	100.011690
2056.000000	100.028724
2055.000000	100.033373
2054.000000	99.979028
2053.000000	100.102628
2052.000000	100.035609
2051.000000	99.958668
2050.000000	100.042959
2049.000000	100.107356
2048.000000	100.066290
2047.000000	99.998991
2046.000000	100.021089
2045.000000	100.006759
2044.000000	99.930534
2043.000000	99.962398
2042.000000	99.959784
2041.000000	100.002118
2040.000000	100.023301
2039.000000	99.955620
2038.000000	99.977196
2037.000000	99.966196
2036.000000	99.983149
2035.000000	99.993643
2034.000000	100.025834
2033.000000	100.051180
2032.000000	100.039683
2031.000000	100.036546
2030.000000	100.018471
2029.000000	99.995155
2028.000000	99.925445
2027.000000	99.942802
2026.000000	100.048048
2025.000000	100.014236
2024.000000	99.940542
2023.000000	99.995456
2022.000000	100.040498
2021.000000	100.009997
2020.000000	99.990608
2019.000000	100.029495
2018.000000	100.022221
2017.000000	100.027879
2016.000000	100.026977
2015.000000	99.985051
2014.000000	99.956075
2013.000000	99.928636
2012.000000	99.921661
2011.000000	99.978486
2010.000000	100.032133
2009.000000	99.995151
2008.000000	99.974442
2007.000000	99.931323
2006.000000	99.949892
2005.000000	100.006065
2004.000000	100.001820
2003.000000	100.016071
2002.000000	100.007480
2001.000000	100.013952
2000.000000	99.996967
1999.000000	99.978365
1998.000000	99.972602
1997.000000	99.970989
1996.000000	100.022447
1995.000000	99.992418
1994.000000	99.958239
1993.000000	99.984020
1992.000000	99.991808
1991.000000	99.998786
1990.000000	100.010217
1989.000000	100.021247
1988.000000	100.033693
1987.000000	100.012446
1986.000000	99.994335
1985.000000	99.982906
1984.000000	100.022967
1983.000000	100.006272
1982.000000	99.976435
1981.000000	100.034615
1980.000000	99.936168
1979.000000	99.957408
1978.000000	100.024892
1977.000000	99.963181
1976.000000	99.974006
1975.000000	100.047766
1974.000000	100.007084
1973.000000	100.009817
1972.000000	100.035117
1971.000000	99.987455
1970.000000	99.944671
1969.000000	99.961665
1968.000000	99.972086
1967.000000	100.010824
1966.000000	100.012546
1965.000000	99.964289
1964.000000	99.984622
1963.000000	100.030457
1962.000000	99.950128
1961.000000	100.011434
1960.000000	99.968040
1959.000000	100.038045
1958.000000	100.019525
1957.000000	100.004956
1956.000000	99.963602
1955.000000	99.852106
1954.000000	99.966734
1953.000000	99.954629
1952.000000	100.037712
1951.000000	99.984535
1950.000000	99.941690
1949.000000	99.896625
1948.000000	99.984640
1947.000000	100.059946
1946.000000	100.017889
1945.000000	100.046688
1944.000000	100.098483
1943.000000	99.947681
1942.000000	99.971306
1941.000000	99.983439
1940.000000	99.941575
1939.000000	99.882608
1938.000000	99.954880
1937.000000	99.899950
1936.000000	99.971544
1935.000000	99.941476
1934.000000	99.904508
1933.000000	99.975882
1932.000000	99.987289
1931.000000	99.997479
1930.000000	100.119106
1929.000000	100.037625
1928.000000	99.982142
1927.000000	100.009683
1926.000000	100.009180
1925.000000	99.926516
1924.000000	99.863136
1923.000000	99.968948
1922.000000	99.916860
1921.000000	100.000101
1920.000000	99.923074
1919.000000	100.107283
1918.000000	99.980533
1917.000000	100.004641
1916.000000	100.013010
1915.000000	100.040229
1914.000000	100.042477
1913.000000	100.135921
1912.000000	99.994151
1911.000000	99.995158
1910.000000	99.914860
1909.000000	99.980826
1908.000000	100.022296
1907.000000	99.984153
1906.000000	99.956192
1905.000000	99.936937
1904.000000	100.051525
1903.000000	99.948935
1902.000000	99.920873
1901.000000	99.951162
1900.000000	99.940660
1899.000000	99.889181
1898.000000	99.994142
1897.000000	99.957879
1896.000000	100.053957
1895.000000	100.025660
1894.000000	100.009800
1893.000000	100.019897
1892.000000	100.051331
1891.000000	100.069441
1890.000000	99.965762
1889.000000	99.965864
1888.000000	100.032722
1887.000000	99.961840
1886.000000	100.033515
1885.000000	100.026847
1884.000000	100.015844
1883.000000	100.021496
1882.000000	99.946451
1881.000000	100.046508
1880.000000	99.975904
1879.000000	99.863035
1878.000000	99.967348
1877.000000	99.998286
1876.000000	100.003830
1875.000000	99.993955
1874.000000	99.961211
1873.000000	99.966752
1872.000000	99.936541
1871.000000	99.996877
1870.000000	99.995063
1869.000000	99.993752
1868.000000	100.001310
1867.000000	99.981153
1866.000000	99.973998
1865.000000	99.949712
1864.000000	99.966740
1863.000000	99.958073
1862.000000	99.999395
1861.000000	100.021174
1860.000000	100.004538
1859.000000	99.951398
1858.000000	99.888919
1857.000000	99.940817
1856.000000	99.994959
1855.000000	99.965118
1854.000000	99.950702
1853.000000	99.923490
1852.000000	99.950303
1851.000000	99.983471
1850.000000	99.954045
1849.000000	99.967542
1848.000000	100.007764
1847.000000	100.000101
1846.000000	99.991431
1845.000000	99.966032
1844.000000	99.993347
1843.000000	99.926239
1842.000000	99.939440
1841.000000	99.975612
1840.000000	99.929467
1839.000000	99.974798
1838.000000	99.990622
1837.000000	99.983159
1836.000000	100.011700
1835.000000	99.985676
1834.000000	99.960661
1833.000000	99.968926
1832.000000	99.992632
1831.000000	99.987583
1830.000000	100.028878
1829.000000	99.992932
1828.000000	99.956489
1827.000000	99.989903
1826.000000	99.965975
1825.000000	99.943253
1824.000000	100.005051
1823.000000	100.001920
1822.000000	99.981310
1821.000000	99.992826
1820.000000	99.991715
1819.000000	99.989491
1818.000000	100.008287
1817.000000	100.015465
1816.000000	99.976857
1815.000000	99.982717
1814.000000	100.003134
1813.000000	99.998079
1812.000000	99.997270
1811.000000	99.979579
1810.000000	99.973712
1809.000000	99.991201
1808.000000	99.989483
1807.000000	99.990089
1806.000000	100.006777
1805.000000	99.993122
1804.000000	99.992414
1803.000000	99.998280
1802.000000	99.999595
1801.000000	99.986848
1800.000000	99.982599
1799.000000	99.968739
1798.000000	99.959935
1797.000000	99.959736
1796.000000	99.983106
1795.000000	99.989680
1794.000000	100.015584
1793.000000	99.989880
1792.000000	99.963065
1791.000000	99.940998
1790.000000	99.956481
1789.000000	99.983302
1788.000000	100.022475
1787.000000	99.983803
1786.000000	100.000304
1785.000000	100.040502
1784.000000	100.002733
1783.000000	99.963263
1782.000000	99.987246
1781.000000	99.993522
1780.000000	99.967213
1779.000000	99.988865
1778.000000	99.990485
1777.000000	100.005162
1776.000000	100.001316
1775.000000	99.997368
1774.000000	99.992916
1773.000000	100.001316
1772.000000	99.995343
1771.000000	100.004151
1770.000000	100.012961
1769.000000	99.996558
1768.000000	99.960529
1767.000000	99.989676
1766.000000	100.005061
1765.000000	100.014578
1764.000000	100.011237
1763.000000	99.963365
1762.000000	99.985627
1761.000000	100.014273
1760.000000	99.975814
1759.000000	100.000506
1758.000000	100.015085
1757.000000	100.012248
1756.000000	100.014273
1755.000000	100.015591
1754.000000	99.992915
1753.000000	99.991398
1752.000000	99.993320
1751.000000	100.002328
1750.000000	100.027534
1749.000000	100.005262
1748.000000	99.997066
1747.000000	100.017005
1746.000000	100.007995
1745.000000	100.012752
1744.000000	99.961758
1743.000000	100.008908
1742.000000	100.013867
1741.000000	100.014778
1740.000000	100.021461
1739.000000	100.016700
1738.000000	100.012144
1737.000000	99.973793
1736.000000	99.966818
1735.000000	100.000810
1734.000000	99.979155
1733.000000	99.977841
1732.000000	100.035623
1731.000000	100.019129
1730.000000	99.968226
1729.000000	100.037548
1728.000000	100.000202
1727.000000	100.012648
1726.000000	99.999190
1725.000000	99.990489
1724.000000	99.959835
1723.000000	99.972890
1722.000000	99.998179
1721.000000	99.981283
1720.000000	100.032181
1719.000000	100.009815
1718.000000	99.994436
1717.000000	100.056375
1716.000000	100.001619
1715.000000	99.983709
1714.000000	100.015783
1713.000000	99.964687
1712.000000	99.981787
1711.000000	99.989781
1710.000000	100.026510
1709.000000	100.027924
1708.000000	100.018214
1707.000000	100.007690
1706.000000	100.017504
1705.000000	100.001113
1704.000000	100.050701
1703.000000	100.044430
1702.000000	100.021352
1701.000000	99.997774
1700.000000	99.954978
1699.000000	100.023778
1698.000000	100.010318
1697.000000	100.003339
1696.000000	99.997673
1695.000000	100.013153
1694.000000	100.003946
1693.000000	99.999798
1692.000000	99.990289
1691.000000	99.985029
1690.000000	99.995750
1689.000000	100.024387
1688.000000	100.010725
1687.000000	100.019628
1686.000000	99.980880
1685.000000	100.007587
1684.000000	100.015376
1683.000000	99.999899
1682.000000	99.987051
1681.000000	100.001214
1680.000000	100.004250
1679.000000	100.011029
1678.000000	100.018213
1677.000000	99.992009
1676.000000	99.998483
1675.000000	100.002631
1674.000000	99.983508
1673.000000	100.006981
1672.000000	99.990694
1671.000000	99.981896
1670.000000	99.959954
1669.000000	99.992214
1668.000000	100.000404
1667.000000	100.014867
1666.000000	99.997775
1665.000000	100.006169
1664.000000	100.021544
1663.000000	99.953795
1662.000000	99.962090
1661.000000	100.000202
1660.000000	99.998382
1659.000000	99.988775
1658.000000	99.987159
1657.000000	100.016078
1656.000000	99.975129
1655.000000	99.982308
1654.000000	100.004449
1653.000000	99.983218
1652.000000	99.982306
1651.000000	100.019315
1650.000000	100.022956
1649.000000	100.006371
1648.000000	99.997371
1647.000000	100.040254
1646.000000	100.015070
1645.000000	100.003640
1644.000000	99.992114
1643.000000	99.996158
1642.000000	99.987365
1641.000000	99.993833
1640.000000	99.981802
1639.000000	99.969166
1638.000000	99.992519
1637.000000	99.993429
1636.000000	99.992418
1635.000000	100.006067
1634.000000	99.982409
1633.000000	99.981500
1632.000000	99.985038
1631.000000	99.988676
1630.000000	99.986450
1629.000000	100.011327
1628.000000	100.009101
1627.000000	99.998989
1626.000000	99.989384
1625.000000	99.982306
1624.000000	99.993226
1623.000000	100.000101
1622.000000	99.995956
1621.000000	99.986959
1620.000000	99.991205
1619.000000	99.997371
1618.000000	100.015470
1617.000000	100.013245
1616.000000	100.010212
1615.000000	100.012435
1614.000000	100.000910
1613.000000	100.000303
1612.000000	99.983725
1611.000000	99.977660
1610.000000	100.015065
1609.000000	100.033666
1608.000000	100.010312
1607.000000	100.002629
1606.000000	99.985949
1605.000000	99.989588
1604.000000	100.000101
1603.000000	100.011121
1602.000000	100.022446
1601.000000	100.012941
1600.000000	99.991306
1599.000000	99.983522
1598.000000	100.004246
1597.000000	100.016681
1596.000000	100.017085
1595.000000	100.000202
1594.000000	99.992015
1593.000000	99.994441
1592.000000	99.992217
1591.000000	99.998989
1590.000000	100.001921
1589.000000	99.991813
1588.000000	99.978271
1587.000000	99.987466
1586.000000	99.996563
1585.000000	99.999899
1584.000000	100.007177
1583.000000	100.011726
1582.000000	100.018194
1581.000000	100.002021
1580.000000	99.979181
1579.000000	99.980900
1578.000000	100.006065
1577.000000	100.002830
1576.000000	100.000910
1575.000000	100.001617
1574.000000	100.005054
1573.000000	100.004649
1572.000000	99.996159
1571.000000	99.990904
1570.000000	99.994744
1569.000000	99.981708
1568.000000	99.984739
1567.000000	99.994947
1566.000000	99.995857
1565.000000	99.983025
1564.000000	99.998181
1563.000000	99.986964
1562.000000	99.982923
1561.000000	100.001718
1560.000000	100.001920
1559.000000	99.998484
1558.000000	99.990905
1557.000000	100.001920
1556.000000	100.004851
1555.000000	99.995048
1554.000000	100.008287
1553.000000	100.010104
1552.000000	99.999596
1551.000000	99.988482
1550.000000	100.000404
1549.000000	99.999293
1548.000000	99.999293
1547.000000	99.975955
1546.000000	99.984238
1545.000000	99.988482
1544.000000	99.993433
1543.000000	99.994342
1542.000000	99.996868
1541.000000	99.985755
1540.000000	99.998889
1539.000000	100.012529
1538.000000	99.997980
1537.000000	99.981616
1536.000000	99.982726
1535.000000	99.992222
1534.000000	99.992929
1533.000000	99.996969
1532.000000	99.992525
1531.000000	100.010810
1530.000000	100.013133
1529.000000	99.995352
1528.000000	99.994038
1527.000000	100.014855
1526.000000	100.016471
1525.000000	100.014146
1524.000000	99.998485
1523.000000	100.001415
1522.000000	99.987570
1521.000000	99.977772
1520.000000	99.984845
1519.000000	99.984441
1518.000000	100.002930
1517.000000	99.996160
1516.000000	99.987572
1515.000000	99.989897
1514.000000	100.016269
1513.000000	99.969584
1512.000000	100.005559
1511.000000	100.006974
1510.000000	100.002729
1509.000000	100.009196
1508.000000	99.988986
1507.000000	99.994946
1506.000000	99.992320
1505.000000	99.995655
1504.000000	100.008794
1503.000000	99.989995
1502.000000	99.993330
1501.000000	100.008692
1500.000000	99.998787
1499.000000	99.997878
1498.000000	100.022335
1497.000000	99.986257
1496.000000	99.995351
1495.000000	99.991815
1494.000000	99.991814
1493.000000	99.994038
1492.000000	99.978379
1491.000000	99.999394
1490.000000	100.005860
1489.000000	100.005961
1488.000000	100.002425
