PE UV       SUBTECH     SPECTRUM    ASCII       PEDS        4.00        
   -1
RTgAgneauUK 32.Sample.asc
18/03/09
16:17:00.00
18/03/09
16:17:00.00
Administrator

200.000000
1
Lambda 750
750N8071901
PerkinElmer UV WinLab 6.0.4.0738 / 1.61.00 Lambda 900

0
0
3350/servo 860.8/2
0
0
UV/VIS
1
1
1
CommonBeamDepol,150mm sphere / downward view
0
0
0
0
Program
Program
3350/servo 860.8/2
3350/0.2 860.8/0.2
3350/0.2 860.8/0.2
0
1
 
 
 
0
 
860.8
319.2
860.8
Front
100
on
 
 
0
0
0
 
0
 
 
 
0
 
 
0
0
0
0
0
 
 
 
 
0
0


0
0
#HDR
-1
-1
#GR
nm
%R
1.0
0.0
2350.000000
-1.000000
2151
8
73.424984
15.116068
#DATA
2350.000000	26.383467
2349.000000	26.641831
2348.000000	26.799967
2347.000000	27.176577
2346.000000	26.944119
2345.000000	26.441188
2344.000000	26.752601
2343.000000	26.297040
2342.000000	26.402571
2341.000000	26.765799
2340.000000	26.578438
2339.000000	26.986582
2338.000000	26.877009
2337.000000	27.339280
2336.000000	27.173291
2335.000000	27.482710
2334.000000	27.231150
2333.000000	27.193847
2332.000000	27.192664
2331.000000	27.200516
2330.000000	27.104672
2329.000000	27.132143
2328.000000	27.095203
2327.000000	27.119843
2326.000000	27.362292
2325.000000	27.060819
2324.000000	27.199940
2323.000000	27.084801
2322.000000	26.997616
2321.000000	27.034415
2320.000000	27.003109
2319.000000	27.227939
2318.000000	26.774025
2317.000000	26.860171
2316.000000	26.912652
2315.000000	26.732359
2314.000000	26.772749
2313.000000	26.465115
2312.000000	26.474255
2311.000000	26.328715
2310.000000	26.295948
2309.000000	26.441724
2308.000000	26.245518
2307.000000	26.117473
2306.000000	25.917360
2305.000000	25.962632
2304.000000	25.931900
2303.000000	25.887205
2302.000000	25.870589
2301.000000	25.682400
2300.000000	25.505765
2299.000000	25.463275
2298.000000	25.219951
2297.000000	25.191069
2296.000000	25.085104
2295.000000	25.009569
2294.000000	24.892269
2293.000000	24.747720
2292.000000	24.644682
2291.000000	24.512405
2290.000000	24.411988
2289.000000	24.634911
2288.000000	24.661368
2287.000000	24.458429
2286.000000	24.289416
2285.000000	24.444864
2284.000000	24.353750
2283.000000	24.388484
2282.000000	24.387167
2281.000000	24.435713
2280.000000	24.403188
2279.000000	24.391238
2278.000000	24.350103
2277.000000	24.265123
2276.000000	24.355830
2275.000000	24.308503
2274.000000	24.310420
2273.000000	24.496332
2272.000000	24.547292
2271.000000	24.658839
2270.000000	24.700340
2269.000000	24.629738
2268.000000	24.675127
2267.000000	24.660536
2266.000000	24.783173
2265.000000	24.936257
2264.000000	25.151108
2263.000000	25.415746
2262.000000	25.483672
2261.000000	25.616437
2260.000000	25.756104
2259.000000	25.894801
2258.000000	26.090836
2257.000000	26.342234
2256.000000	26.375568
2255.000000	26.495547
2254.000000	26.850551
2253.000000	27.020929
2252.000000	27.361841
2251.000000	27.701540
2250.000000	27.776447
2249.000000	28.013703
2248.000000	28.283455
2247.000000	28.405161
2246.000000	28.756475
2245.000000	29.034241
2244.000000	29.173508
2243.000000	29.401418
2242.000000	29.652939
2241.000000	29.802684
2240.000000	30.006386
2239.000000	30.247661
2238.000000	30.329208
2237.000000	30.489118
2236.000000	30.587902
2235.000000	30.690723
2234.000000	30.922659
2233.000000	30.919596
2232.000000	30.883224
2231.000000	31.092624
2230.000000	31.217894
2229.000000	31.176359
2228.000000	31.187309
2227.000000	31.241672
2226.000000	31.148726
2225.000000	31.108792
2224.000000	31.238551
2223.000000	31.177794
2222.000000	31.187050
2221.000000	31.091125
2220.000000	31.095596
2219.000000	31.226202
2218.000000	31.115004
2217.000000	30.950466
2216.000000	31.024398
2215.000000	30.976845
2214.000000	30.966461
2213.000000	30.799014
2212.000000	30.745232
2211.000000	30.581938
2210.000000	30.316210
2209.000000	30.309891
2208.000000	30.454761
2207.000000	30.387741
2206.000000	30.180770
2205.000000	30.054208
2204.000000	29.993621
2203.000000	29.956024
2202.000000	29.928990
2201.000000	29.877072
2200.000000	29.746314
2199.000000	29.709542
2198.000000	29.577570
2197.000000	29.511436
2196.000000	29.409035
2195.000000	29.249136
2194.000000	29.109113
2193.000000	29.037317
2192.000000	28.979421
2191.000000	28.879486
2190.000000	28.744590
2189.000000	28.631300
2188.000000	28.489992
2187.000000	28.366594
2186.000000	28.417847
2185.000000	28.492206
2184.000000	28.394528
2183.000000	28.289496
2182.000000	28.242165
2181.000000	28.178146
2180.000000	28.120669
2179.000000	28.152934
2178.000000	28.124921
2177.000000	28.037652
2176.000000	28.040878
2175.000000	28.076717
2174.000000	28.077013
2173.000000	28.155994
2172.000000	28.243871
2171.000000	28.236083
2170.000000	28.341111
2169.000000	28.443660
2168.000000	28.325414
2167.000000	28.398165
2166.000000	28.711733
2165.000000	28.731642
2164.000000	28.728606
2163.000000	28.851908
2162.000000	29.084580
2161.000000	29.269681
2160.000000	29.526175
2159.000000	29.476483
2158.000000	29.475310
2157.000000	29.913318
2156.000000	29.962316
2155.000000	30.014654
2154.000000	30.229085
2153.000000	30.678826
2152.000000	30.582933
2151.000000	30.780805
2150.000000	30.912579
2149.000000	31.119766
2148.000000	31.220557
2147.000000	31.425455
2146.000000	31.528641
2145.000000	31.709068
2144.000000	31.969893
2143.000000	32.134405
2142.000000	32.338681
2141.000000	32.510617
2140.000000	32.595257
2139.000000	32.808917
2138.000000	32.824753
2137.000000	33.163759
2136.000000	33.208317
2135.000000	33.242269
2134.000000	33.432963
2133.000000	33.488326
2132.000000	33.748963
2131.000000	33.867758
2130.000000	33.933483
2129.000000	33.836608
2128.000000	34.015287
2127.000000	34.005461
2126.000000	34.170474
2125.000000	34.393206
2124.000000	34.435177
2123.000000	34.311546
2122.000000	34.486396
2121.000000	34.437335
2120.000000	34.560550
2119.000000	34.627904
2118.000000	34.796327
2117.000000	34.868134
2116.000000	34.883015
2115.000000	34.959930
2114.000000	34.908630
2113.000000	34.984179
2112.000000	34.974197
2111.000000	34.946992
2110.000000	34.977465
2109.000000	35.019923
2108.000000	34.972797
2107.000000	35.083523
2106.000000	35.111288
2105.000000	35.071683
2104.000000	35.140882
2103.000000	35.065079
2102.000000	35.130550
2101.000000	35.175364
2100.000000	35.223788
2099.000000	35.185666
2098.000000	35.149998
2097.000000	35.176775
2096.000000	35.186093
2095.000000	35.223713
2094.000000	35.126169
2093.000000	35.155016
2092.000000	35.211797
2091.000000	35.170599
2090.000000	35.114435
2089.000000	35.067658
2088.000000	35.051837
2087.000000	35.017704
2086.000000	34.937242
2085.000000	34.925377
2084.000000	34.898784
2083.000000	34.831852
2082.000000	34.753255
2081.000000	34.618934
2080.000000	34.553537
2079.000000	34.463157
2078.000000	34.297769
2077.000000	34.199828
2076.000000	34.156201
2075.000000	34.000175
2074.000000	33.874536
2073.000000	33.749994
2072.000000	33.553180
2071.000000	33.377323
2070.000000	33.284059
2069.000000	33.124230
2068.000000	32.964316
2067.000000	32.792624
2066.000000	32.592421
2065.000000	32.407487
2064.000000	32.197704
2063.000000	31.978904
2062.000000	31.772463
2061.000000	31.684305
2060.000000	31.515599
2059.000000	31.277889
2058.000000	31.099684
2057.000000	30.899516
2056.000000	30.749709
2055.000000	30.605932
2054.000000	30.404495
2053.000000	30.250626
2052.000000	30.085551
2051.000000	29.878394
2050.000000	29.765267
2049.000000	29.683218
2048.000000	29.568115
2047.000000	29.440807
2046.000000	29.325632
2045.000000	29.281115
2044.000000	29.247034
2043.000000	29.214333
2042.000000	29.171202
2041.000000	29.181472
2040.000000	29.227180
2039.000000	29.184473
2038.000000	29.277367
2037.000000	29.366583
2036.000000	29.476080
2035.000000	29.626371
2034.000000	29.717718
2033.000000	29.827198
2032.000000	29.937204
2031.000000	30.067893
2030.000000	30.205113
2029.000000	30.334407
2028.000000	30.458965
2027.000000	30.605793
2026.000000	30.771801
2025.000000	30.873346
2024.000000	30.984305
2023.000000	31.105636
2022.000000	31.229839
2021.000000	31.290034
2020.000000	31.363670
2019.000000	31.446098
2018.000000	31.464443
2017.000000	31.521052
2016.000000	31.572306
2015.000000	31.584423
2014.000000	31.549898
2013.000000	31.491540
2012.000000	31.495428
2011.000000	31.486739
2010.000000	31.423057
2009.000000	31.333279
2008.000000	31.257033
2007.000000	31.188588
2006.000000	31.101431
2005.000000	31.039575
2004.000000	30.946903
2003.000000	30.822849
2002.000000	30.732054
2001.000000	30.629466
2000.000000	30.523161
1999.000000	30.415389
1998.000000	30.321722
1997.000000	30.178514
1996.000000	30.052013
1995.000000	29.898458
1994.000000	29.745168
1993.000000	29.637833
1992.000000	29.519165
1991.000000	29.406327
1990.000000	29.308609
1989.000000	29.182602
1988.000000	29.039550
1987.000000	28.890479
1986.000000	28.751625
1985.000000	28.643533
1984.000000	28.522460
1983.000000	28.383244
1982.000000	28.268725
1981.000000	28.165925
1980.000000	27.979525
1979.000000	27.856498
1978.000000	27.759907
1977.000000	27.599635
1976.000000	27.448132
1975.000000	27.371212
1974.000000	27.228998
1973.000000	27.143920
1972.000000	27.000542
1971.000000	26.887450
1970.000000	26.737728
1969.000000	26.629964
1968.000000	26.518366
1967.000000	26.398069
1966.000000	26.303456
1965.000000	26.153224
1964.000000	26.011841
1963.000000	25.930164
1962.000000	25.796440
1961.000000	25.644186
1960.000000	25.542466
1959.000000	25.486865
1958.000000	25.372947
1957.000000	25.263970
1956.000000	25.118343
1955.000000	25.010430
1954.000000	24.993049
1953.000000	24.885941
1952.000000	24.848746
1951.000000	24.782409
1950.000000	24.709285
1949.000000	24.624496
1948.000000	24.602375
1947.000000	24.574540
1946.000000	24.594516
1945.000000	24.607547
1944.000000	24.559937
1943.000000	24.503068
1942.000000	24.542216
1941.000000	24.627707
1940.000000	24.639841
1939.000000	24.647093
1938.000000	24.722769
1937.000000	24.764550
1936.000000	24.929769
1935.000000	25.021492
1934.000000	25.048628
1933.000000	25.230914
1932.000000	25.458968
1931.000000	25.584761
1930.000000	25.764901
1929.000000	25.914643
1928.000000	26.117448
1927.000000	26.402695
1926.000000	26.665369
1925.000000	26.896264
1924.000000	27.183378
1923.000000	27.388428
1922.000000	27.733627
1921.000000	28.038329
1920.000000	28.426017
1919.000000	28.794372
1918.000000	29.117794
1917.000000	29.565868
1916.000000	29.870252
1915.000000	30.405219
1914.000000	30.844266
1913.000000	31.255941
1912.000000	31.745737
1911.000000	32.159409
1910.000000	32.692701
1909.000000	33.170524
1908.000000	33.721206
1907.000000	34.332628
1906.000000	34.959867
1905.000000	35.493177
1904.000000	36.166758
1903.000000	36.775472
1902.000000	37.432631
1901.000000	38.010839
1900.000000	38.716631
1899.000000	39.383978
1898.000000	40.126400
1897.000000	40.769330
1896.000000	41.479340
1895.000000	42.183595
1894.000000	42.831408
1893.000000	43.452177
1892.000000	44.214497
1891.000000	44.781968
1890.000000	45.415588
1889.000000	45.966857
1888.000000	46.597352
1887.000000	47.221631
1886.000000	47.747350
1885.000000	48.302462
1884.000000	48.862988
1883.000000	49.392974
1882.000000	49.836024
1881.000000	50.386545
1880.000000	50.834531
1879.000000	51.243518
1878.000000	51.699673
1877.000000	52.199604
1876.000000	52.580028
1875.000000	52.936981
1874.000000	53.269853
1873.000000	53.587858
1872.000000	53.953671
1871.000000	54.229289
1870.000000	54.465588
1869.000000	54.769240
1868.000000	54.971191
1867.000000	55.174207
1866.000000	55.309587
1865.000000	55.489412
1864.000000	55.625445
1863.000000	55.753408
1862.000000	55.892946
1861.000000	56.001984
1860.000000	56.108397
1859.000000	56.181338
1858.000000	56.281538
1857.000000	56.342770
1856.000000	56.372997
1855.000000	56.408943
1854.000000	56.460545
1853.000000	56.494110
1852.000000	56.532731
1851.000000	56.580244
1850.000000	56.557756
1849.000000	56.590415
1848.000000	56.636438
1847.000000	56.657326
1846.000000	56.612413
1845.000000	56.593356
1844.000000	56.594581
1843.000000	56.529266
1842.000000	56.504289
1841.000000	56.455142
1840.000000	56.422095
1839.000000	56.462188
1838.000000	56.400793
1837.000000	56.297781
1836.000000	56.248027
1835.000000	56.209878
1834.000000	56.135407
1833.000000	56.072450
1832.000000	56.037065
1831.000000	56.012675
1830.000000	55.974728
1829.000000	55.908159
1828.000000	55.839154
1827.000000	55.778780
1826.000000	55.721678
1825.000000	55.654308
1824.000000	55.627574
1823.000000	55.583598
1822.000000	55.520724
1821.000000	55.483066
1820.000000	55.432748
1819.000000	55.369452
1818.000000	55.332523
1817.000000	55.292478
1816.000000	55.201708
1815.000000	55.156302
1814.000000	55.134233
1813.000000	55.080426
1812.000000	55.032273
1811.000000	54.977123
1810.000000	54.929912
1809.000000	54.896172
1808.000000	54.844976
1807.000000	54.780590
1806.000000	54.728215
1805.000000	54.675007
1804.000000	54.642685
1803.000000	54.596869
1802.000000	54.562129
1801.000000	54.509963
1800.000000	54.427242
1799.000000	54.388947
1798.000000	54.373540
1797.000000	54.322469
1796.000000	54.278280
1795.000000	54.262664
1794.000000	54.242513
1793.000000	54.197911
1792.000000	54.138957
1791.000000	54.105413
1790.000000	54.062487
1789.000000	54.027178
1788.000000	54.024921
1787.000000	53.979715
1786.000000	53.938400
1785.000000	53.893720
1784.000000	53.861838
1783.000000	53.789884
1782.000000	53.747604
1781.000000	53.691937
1780.000000	53.651870
1779.000000	53.616113
1778.000000	53.533888
1777.000000	53.458041
1776.000000	53.404543
1775.000000	53.323050
1774.000000	53.258016
1773.000000	53.201000
1772.000000	53.141396
1771.000000	53.063997
1770.000000	53.003640
1769.000000	52.901668
1768.000000	52.826400
1767.000000	52.775616
1766.000000	52.687394
1765.000000	52.612515
1764.000000	52.546705
1763.000000	52.461162
1762.000000	52.375265
1761.000000	52.301108
1760.000000	52.228532
1759.000000	52.165574
1758.000000	52.085246
1757.000000	51.999745
1756.000000	51.962214
1755.000000	51.872277
1754.000000	51.802140
1753.000000	51.709381
1752.000000	51.627494
1751.000000	51.576150
1750.000000	51.493863
1749.000000	51.409164
1748.000000	51.324981
1747.000000	51.245230
1746.000000	51.173003
1745.000000	51.061696
1744.000000	50.961866
1743.000000	50.940703
1742.000000	50.856842
1741.000000	50.795073
1740.000000	50.708155
1739.000000	50.624316
1738.000000	50.575808
1737.000000	50.522215
1736.000000	50.471678
1735.000000	50.438590
1734.000000	50.413757
1733.000000	50.405180
1732.000000	50.393272
1731.000000	50.418052
1730.000000	50.419288
1729.000000	50.512256
1728.000000	50.515060
1727.000000	50.596401
1726.000000	50.703896
1725.000000	50.763059
1724.000000	50.851107
1723.000000	50.985182
1722.000000	51.110781
1721.000000	51.239986
1720.000000	51.392011
1719.000000	51.516356
1718.000000	51.650929
1717.000000	51.778893
1716.000000	51.907196
1715.000000	52.042291
1714.000000	52.157915
1713.000000	52.297340
1712.000000	52.414189
1711.000000	52.536338
1710.000000	52.601363
1709.000000	52.676772
1708.000000	52.781941
1707.000000	52.834520
1706.000000	52.897996
1705.000000	52.941593
1704.000000	52.984746
1703.000000	53.012552
1702.000000	53.014466
1701.000000	53.064720
1700.000000	53.081176
1699.000000	53.085614
1698.000000	53.126647
1697.000000	53.167634
1696.000000	53.213605
1695.000000	53.228434
1694.000000	53.261463
1693.000000	53.321145
1692.000000	53.377006
1691.000000	53.452340
1690.000000	53.563453
1689.000000	53.686211
1688.000000	53.809090
1687.000000	53.959673
1686.000000	54.118053
1685.000000	54.277619
1684.000000	54.458771
1683.000000	54.685255
1682.000000	54.877100
1681.000000	55.103110
1680.000000	55.324643
1679.000000	55.557444
1678.000000	55.799849
1677.000000	56.026526
1676.000000	56.293466
1675.000000	56.538350
1674.000000	56.779071
1673.000000	57.027233
1672.000000	57.217697
1671.000000	57.429866
1670.000000	57.683144
1669.000000	57.933785
1668.000000	58.108335
1667.000000	58.310915
1666.000000	58.452249
1665.000000	58.608544
1664.000000	58.756179
1663.000000	58.857923
1662.000000	58.986420
1661.000000	59.108524
1660.000000	59.207230
1659.000000	59.295180
1658.000000	59.350687
1657.000000	59.426237
1656.000000	59.457350
1655.000000	59.512294
1654.000000	59.558326
1653.000000	59.577766
1652.000000	59.611076
1651.000000	59.604378
1650.000000	59.632141
1649.000000	59.642015
1648.000000	59.622281
1647.000000	59.610831
1646.000000	59.601429
1645.000000	59.582202
1644.000000	59.553687
1643.000000	59.511166
1642.000000	59.463836
1641.000000	59.430741
1640.000000	59.408957
1639.000000	59.384440
1638.000000	59.354070
1637.000000	59.306453
1636.000000	59.249173
1635.000000	59.206757
1634.000000	59.145851
1633.000000	59.082187
1632.000000	59.034818
1631.000000	58.984151
1630.000000	58.932150
1629.000000	58.868815
1628.000000	58.799761
1627.000000	58.744372
1626.000000	58.682706
1625.000000	58.617754
1624.000000	58.555031
1623.000000	58.488578
1622.000000	58.410897
1621.000000	58.324412
1620.000000	58.267698
1619.000000	58.210150
1618.000000	58.143212
1617.000000	58.056976
1616.000000	57.984670
1615.000000	57.899930
1614.000000	57.798932
1613.000000	57.720559
1612.000000	57.640562
1611.000000	57.563052
1610.000000	57.487739
1609.000000	57.394912
1608.000000	57.309908
1607.000000	57.236129
1606.000000	57.137399
1605.000000	57.047333
1604.000000	56.951962
1603.000000	56.860691
1602.000000	56.780351
1601.000000	56.685846
1600.000000	56.594689
1599.000000	56.507973
1598.000000	56.412198
1597.000000	56.329691
1596.000000	56.244926
1595.000000	56.160848
1594.000000	56.084674
1593.000000	56.010876
1592.000000	55.932375
1591.000000	55.840896
1590.000000	55.761360
1589.000000	55.687424
1588.000000	55.607941
1587.000000	55.539046
1586.000000	55.473284
1585.000000	55.387057
1584.000000	55.316676
1583.000000	55.260248
1582.000000	55.198094
1581.000000	55.136321
1580.000000	55.056963
1579.000000	54.986706
1578.000000	54.929073
1577.000000	54.849880
1576.000000	54.781473
1575.000000	54.723719
1574.000000	54.653122
1573.000000	54.591829
1572.000000	54.529991
1571.000000	54.458396
1570.000000	54.388431
1569.000000	54.323092
1568.000000	54.270705
1567.000000	54.216697
1566.000000	54.160334
1565.000000	54.099248
1564.000000	54.047674
1563.000000	54.023515
1562.000000	53.996928
1561.000000	53.964917
1560.000000	53.921336
1559.000000	53.873454
1558.000000	53.829527
1557.000000	53.814443
1556.000000	53.780408
1555.000000	53.741571
1554.000000	53.711875
1553.000000	53.674605
1552.000000	53.632784
1551.000000	53.584267
1550.000000	53.533047
1549.000000	53.476403
1548.000000	53.426813
1547.000000	53.347282
1546.000000	53.274919
1545.000000	53.185846
1544.000000	53.091879
1543.000000	52.999143
1542.000000	52.892978
1541.000000	52.774121
1540.000000	52.675880
1539.000000	52.555975
1538.000000	52.428210
1537.000000	52.309469
1536.000000	52.185267
1535.000000	52.067962
1534.000000	51.930733
1533.000000	51.820101
1532.000000	51.701433
1531.000000	51.576988
1530.000000	51.460692
1529.000000	51.337685
1528.000000	51.241459
1527.000000	51.143012
1526.000000	51.042901
1525.000000	50.944174
1524.000000	50.851062
1523.000000	50.776827
1522.000000	50.689312
1521.000000	50.607188
1520.000000	50.543755
1519.000000	50.459995
1518.000000	50.405946
1517.000000	50.340842
1516.000000	50.266140
1515.000000	50.209128
1514.000000	50.161170
1513.000000	50.132225
1512.000000	50.112891
1511.000000	50.106729
1510.000000	50.093634
1509.000000	50.068316
1508.000000	50.010105
1507.000000	49.986052
1506.000000	49.919511
1505.000000	49.895006
1504.000000	49.869409
1503.000000	49.829456
1502.000000	49.798694
1501.000000	49.793464
1500.000000	49.777312
1499.000000	49.765994
1498.000000	49.767096
1497.000000	49.770153
1496.000000	49.769328
1495.000000	49.779458
1494.000000	49.815471
1493.000000	49.833722
1492.000000	49.871385
1491.000000	49.899320
1490.000000	49.953069
1489.000000	49.990048
1488.000000	50.062547
1487.000000	50.097041
1486.000000	50.151998
1485.000000	50.234349
1484.000000	50.296914
1483.000000	50.358503
1482.000000	50.414064
1481.000000	50.514301
1480.000000	50.556017
1479.000000	50.646460
1478.000000	50.725270
1477.000000	50.772663
1476.000000	50.846597
1475.000000	50.927831
1474.000000	51.004652
1473.000000	51.075811
1472.000000	51.145268
1471.000000	51.219227
1470.000000	51.281862
