PE UV       SUBTECH     SPECTRUM    ASCII       PEDS        4.00        
   -1
RTgAgneauUK 12.Sample.asc
18/03/09
15:54:38.00
18/03/09
15:54:38.00
Administrator

200.000000
1
Lambda 750
750N8071901
PerkinElmer UV WinLab 6.0.4.0738 / 1.61.00 Lambda 900

0
0
3350/servo 860.8/2
0
0
UV/VIS
1
1
1
CommonBeamDepol,150mm sphere / downward view
0
0
0
0
Program
Program
3350/servo 860.8/2
3350/0.2 860.8/0.2
3350/0.2 860.8/0.2
0
1
 
 
 
0
 
860.8
319.2
860.8
Front
100
on
 
 
0
0
0
 
0
 
 
 
0
 
 
0
0
0
0
0
 
 
 
 
0
0


0
0
#HDR
-1
-1
#GR
nm
%R
1.0
0.0
2350.000000
-1.000000
2151
8
72.581779
16.377952
#DATA
2350.000000	31.015782
2349.000000	30.542478
2348.000000	30.607128
2347.000000	31.290035
2346.000000	30.774031
2345.000000	30.753370
2344.000000	31.035053
2343.000000	31.106875
2342.000000	30.723448
2341.000000	30.938861
2340.000000	30.852545
2339.000000	31.167320
2338.000000	31.137593
2337.000000	31.328306
2336.000000	31.528840
2335.000000	31.244694
2334.000000	31.166084
2333.000000	31.270528
2332.000000	31.296851
2331.000000	31.263083
2330.000000	31.289783
2329.000000	31.343766
2328.000000	31.282028
2327.000000	31.151770
2326.000000	31.150131
2325.000000	31.137720
2324.000000	31.096784
2323.000000	31.322994
2322.000000	31.013308
2321.000000	31.112352
2320.000000	31.092004
2319.000000	31.195990
2318.000000	31.181924
2317.000000	31.188376
2316.000000	30.992566
2315.000000	30.635591
2314.000000	30.529535
2313.000000	30.539958
2312.000000	30.608676
2311.000000	30.485833
2310.000000	30.267570
2309.000000	30.390660
2308.000000	30.119702
2307.000000	30.050593
2306.000000	29.924961
2305.000000	30.047681
2304.000000	29.977266
2303.000000	29.643989
2302.000000	29.716579
2301.000000	29.835651
2300.000000	29.522492
2299.000000	29.233012
2298.000000	29.244935
2297.000000	29.151739
2296.000000	29.077480
2295.000000	29.042091
2294.000000	28.914118
2293.000000	28.808092
2292.000000	28.621749
2291.000000	28.679618
2290.000000	28.644644
2289.000000	28.526608
2288.000000	28.440228
2287.000000	28.459808
2286.000000	28.377831
2285.000000	28.214225
2284.000000	28.252258
2283.000000	28.217138
2282.000000	28.225243
2281.000000	28.277593
2280.000000	28.208200
2279.000000	28.286566
2278.000000	28.212803
2277.000000	28.107226
2276.000000	28.329067
2275.000000	28.576621
2274.000000	28.414309
2273.000000	28.517713
2272.000000	28.624315
2271.000000	28.467043
2270.000000	28.575630
2269.000000	28.687272
2268.000000	28.759551
2267.000000	28.722393
2266.000000	28.867695
2265.000000	29.092148
2264.000000	29.334598
2263.000000	29.374506
2262.000000	29.392999
2261.000000	29.378426
2260.000000	29.575726
2259.000000	29.911738
2258.000000	30.116421
2257.000000	30.387765
2256.000000	30.576553
2255.000000	30.726008
2254.000000	30.989454
2253.000000	31.208169
2252.000000	31.417842
2251.000000	31.713277
2250.000000	31.929099
2249.000000	32.159910
2248.000000	32.336987
2247.000000	32.465057
2246.000000	32.824103
2245.000000	33.084982
2244.000000	33.323053
2243.000000	33.605355
2242.000000	33.811557
2241.000000	34.076922
2240.000000	34.189127
2239.000000	34.326187
2238.000000	34.591181
2237.000000	34.777368
2236.000000	34.768979
2235.000000	34.704239
2234.000000	34.877359
2233.000000	35.067798
2232.000000	35.157593
2231.000000	35.236860
2230.000000	35.285074
2229.000000	35.296419
2228.000000	35.363667
2227.000000	35.377515
2226.000000	35.425978
2225.000000	35.453973
2224.000000	35.353221
2223.000000	35.401852
2222.000000	35.422819
2221.000000	35.324418
2220.000000	35.310144
2219.000000	35.279965
2218.000000	35.155107
2217.000000	35.136534
2216.000000	35.154042
2215.000000	35.188824
2214.000000	35.052482
2213.000000	34.974455
2212.000000	34.881408
2211.000000	34.775799
2210.000000	34.815581
2209.000000	34.795445
2208.000000	34.584465
2207.000000	34.396348
2206.000000	34.357078
2205.000000	34.313860
2204.000000	34.172307
2203.000000	34.039969
2202.000000	33.889116
2201.000000	33.926650
2200.000000	33.909528
2199.000000	33.788326
2198.000000	33.750064
2197.000000	33.577341
2196.000000	33.463975
2195.000000	33.390203
2194.000000	33.219636
2193.000000	33.097955
2192.000000	33.149263
2191.000000	33.068701
2190.000000	32.955093
2189.000000	32.851223
2188.000000	32.641514
2187.000000	32.618228
2186.000000	32.599017
2185.000000	32.418610
2184.000000	32.661797
2183.000000	32.636100
2182.000000	32.586292
2181.000000	32.357480
2180.000000	32.352603
2179.000000	32.188422
2178.000000	32.141905
2177.000000	32.121063
2176.000000	32.225440
2175.000000	32.263864
2174.000000	32.315847
2173.000000	32.284789
2172.000000	32.311575
2171.000000	32.405391
2170.000000	32.432492
2169.000000	32.692273
2168.000000	32.788468
2167.000000	32.785841
2166.000000	32.930838
2165.000000	32.975917
2164.000000	32.957714
2163.000000	33.070325
2162.000000	33.308352
2161.000000	33.420802
2160.000000	33.574618
2159.000000	33.827163
2158.000000	33.872967
2157.000000	33.998702
2156.000000	34.322553
2155.000000	34.489266
2154.000000	34.475582
2153.000000	34.888858
2152.000000	34.836114
2151.000000	35.041787
2150.000000	35.285616
2149.000000	35.437031
2148.000000	35.601401
2147.000000	35.777867
2146.000000	35.864806
2145.000000	36.221217
2144.000000	36.239350
2143.000000	36.447917
2142.000000	36.685716
2141.000000	36.581345
2140.000000	36.999929
2139.000000	37.132438
2138.000000	37.150847
2137.000000	37.367116
2136.000000	37.342572
2135.000000	37.720753
2134.000000	37.880316
2133.000000	37.749931
2132.000000	37.971660
2131.000000	38.154891
2130.000000	38.196781
2129.000000	38.139781
2128.000000	38.337563
2127.000000	38.569940
2126.000000	38.525422
2125.000000	38.690271
2124.000000	38.665010
2123.000000	38.519212
2122.000000	38.780089
2121.000000	38.911282
2120.000000	38.743205
2119.000000	38.918558
2118.000000	39.070791
2117.000000	38.970374
2116.000000	39.111795
2115.000000	39.058754
2114.000000	39.050681
2113.000000	39.219449
2112.000000	39.207107
2111.000000	39.093153
2110.000000	39.193216
2109.000000	39.235776
2108.000000	39.265090
2107.000000	39.350208
2106.000000	39.323813
2105.000000	39.349306
2104.000000	39.414364
2103.000000	39.412988
2102.000000	39.393381
2101.000000	39.461147
2100.000000	39.457162
2099.000000	39.331592
2098.000000	39.395559
2097.000000	39.396357
2096.000000	39.384539
2095.000000	39.477017
2094.000000	39.373307
2093.000000	39.379755
2092.000000	39.373192
2091.000000	39.364485
2090.000000	39.338003
2089.000000	39.351211
2088.000000	39.283098
2087.000000	39.296434
2086.000000	39.285948
2085.000000	39.228540
2084.000000	39.152351
2083.000000	39.067132
2082.000000	39.012917
2081.000000	38.866020
2080.000000	38.852384
2079.000000	38.749409
2078.000000	38.553729
2077.000000	38.513260
2076.000000	38.415912
2075.000000	38.246685
2074.000000	38.086170
2073.000000	38.052854
2072.000000	37.846737
2071.000000	37.724869
2070.000000	37.592389
2069.000000	37.375916
2068.000000	37.188194
2067.000000	36.988859
2066.000000	36.805817
2065.000000	36.581254
2064.000000	36.464355
2063.000000	36.223068
2062.000000	36.079265
2061.000000	35.897741
2060.000000	35.669633
2059.000000	35.495675
2058.000000	35.302924
2057.000000	35.128179
2056.000000	34.958492
2055.000000	34.821957
2054.000000	34.648479
2053.000000	34.536479
2052.000000	34.347389
2051.000000	34.138700
2050.000000	34.010058
2049.000000	33.907548
2048.000000	33.772947
2047.000000	33.661166
2046.000000	33.592764
2045.000000	33.542003
2044.000000	33.475189
2043.000000	33.421004
2042.000000	33.365587
2041.000000	33.385733
2040.000000	33.394494
2039.000000	33.416680
2038.000000	33.536419
2037.000000	33.606251
2036.000000	33.668023
2035.000000	33.824187
2034.000000	33.964404
2033.000000	34.060120
2032.000000	34.187953
2031.000000	34.297324
2030.000000	34.396496
2029.000000	34.606292
2028.000000	34.759571
2027.000000	34.874750
2026.000000	35.017256
2025.000000	35.122155
2024.000000	35.203532
2023.000000	35.329369
2022.000000	35.442213
2021.000000	35.498015
2020.000000	35.589354
2019.000000	35.621544
2018.000000	35.638538
2017.000000	35.719798
2016.000000	35.772988
2015.000000	35.767222
2014.000000	35.767436
2013.000000	35.711986
2012.000000	35.665064
2011.000000	35.674554
2010.000000	35.641502
2009.000000	35.560196
2008.000000	35.472332
2007.000000	35.352743
2006.000000	35.279000
2005.000000	35.245085
2004.000000	35.110932
2003.000000	34.991423
2002.000000	34.911757
2001.000000	34.797796
2000.000000	34.718150
1999.000000	34.610128
1998.000000	34.469365
1997.000000	34.330928
1996.000000	34.235464
1995.000000	34.095707
1994.000000	33.975352
1993.000000	33.857332
1992.000000	33.718303
1991.000000	33.578160
1990.000000	33.443195
1989.000000	33.298022
1988.000000	33.162675
1987.000000	33.017300
1986.000000	32.860777
1985.000000	32.757531
1984.000000	32.649086
1983.000000	32.477055
1982.000000	32.352540
1981.000000	32.257470
1980.000000	32.140552
1979.000000	31.991465
1978.000000	31.849214
1977.000000	31.709772
1976.000000	31.554550
1975.000000	31.394973
1974.000000	31.285162
1973.000000	31.163513
1972.000000	31.064574
1971.000000	30.936517
1970.000000	30.802128
1969.000000	30.664123
1968.000000	30.545633
1967.000000	30.446961
1966.000000	30.349457
1965.000000	30.196360
1964.000000	30.069928
1963.000000	29.969452
1962.000000	29.816373
1961.000000	29.704078
1960.000000	29.582614
1959.000000	29.485801
1958.000000	29.346025
1957.000000	29.254147
1956.000000	29.146151
1955.000000	29.055692
1954.000000	29.027127
1953.000000	28.938309
1952.000000	28.828771
1951.000000	28.785320
1950.000000	28.699915
1949.000000	28.631655
1948.000000	28.547450
1947.000000	28.535426
1946.000000	28.522613
1945.000000	28.518230
1944.000000	28.502181
1943.000000	28.487308
1942.000000	28.459194
1941.000000	28.501752
1940.000000	28.532897
1939.000000	28.637298
1938.000000	28.744310
1937.000000	28.838857
1936.000000	28.893362
1935.000000	28.956519
1934.000000	29.101354
1933.000000	29.216463
1932.000000	29.373318
1931.000000	29.570303
1930.000000	29.874858
1929.000000	29.962779
1928.000000	30.209299
1927.000000	30.426218
1926.000000	30.736276
1925.000000	30.955511
1924.000000	31.230750
1923.000000	31.498835
1922.000000	31.829634
1921.000000	32.235276
1920.000000	32.507718
1919.000000	32.864571
1918.000000	33.257147
1917.000000	33.686837
1916.000000	33.952911
1915.000000	34.455390
1914.000000	34.986546
1913.000000	35.429528
1912.000000	35.831600
1911.000000	36.382914
1910.000000	36.901665
1909.000000	37.317924
1908.000000	37.875485
1907.000000	38.531178
1906.000000	39.093829
1905.000000	39.597810
1904.000000	40.277931
1903.000000	40.911164
1902.000000	41.443079
1901.000000	42.025204
1900.000000	42.665195
1899.000000	43.308145
1898.000000	44.003863
1897.000000	44.598204
1896.000000	45.253827
1895.000000	45.854843
1894.000000	46.433259
1893.000000	47.095344
1892.000000	47.721711
1891.000000	48.295461
1890.000000	48.871811
1889.000000	49.370800
1888.000000	49.957886
1887.000000	50.504511
1886.000000	51.010258
1885.000000	51.517681
1884.000000	51.949415
1883.000000	52.446271
1882.000000	52.885723
1881.000000	53.312443
1880.000000	53.745986
1879.000000	54.128650
1878.000000	54.521964
1877.000000	54.877112
1876.000000	55.243803
1875.000000	55.580249
1874.000000	55.881040
1873.000000	56.177169
1872.000000	56.414988
1871.000000	56.692824
1870.000000	56.940385
1869.000000	57.170513
1868.000000	57.372748
1867.000000	57.520553
1866.000000	57.648475
1865.000000	57.742277
1864.000000	57.892132
1863.000000	58.005245
1862.000000	58.107010
1861.000000	58.200574
1860.000000	58.300124
1859.000000	58.377625
1858.000000	58.410025
1857.000000	58.450372
1856.000000	58.500841
1855.000000	58.562480
1854.000000	58.613740
1853.000000	58.650211
1852.000000	58.697607
1851.000000	58.706770
1850.000000	58.689406
1849.000000	58.705403
1848.000000	58.738311
1847.000000	58.712327
1846.000000	58.708082
1845.000000	58.718804
1844.000000	58.689108
1843.000000	58.639300
1842.000000	58.636294
1841.000000	58.594880
1840.000000	58.547863
1839.000000	58.560000
1838.000000	58.521467
1837.000000	58.462067
1836.000000	58.420420
1835.000000	58.330711
1834.000000	58.254765
1833.000000	58.230243
1832.000000	58.208451
1831.000000	58.174196
1830.000000	58.156858
1829.000000	58.097455
1828.000000	58.018117
1827.000000	57.986701
1826.000000	57.950093
1825.000000	57.910558
1824.000000	57.891414
1823.000000	57.854924
1822.000000	57.782275
1821.000000	57.722689
1820.000000	57.671179
1819.000000	57.646107
1818.000000	57.603078
1817.000000	57.551218
1816.000000	57.501248
1815.000000	57.487813
1814.000000	57.466777
1813.000000	57.410298
1812.000000	57.372133
1811.000000	57.314600
1810.000000	57.270253
1809.000000	57.230813
1808.000000	57.173239
1807.000000	57.126691
1806.000000	57.099276
1805.000000	57.066751
1804.000000	57.030178
1803.000000	56.970690
1802.000000	56.931030
1801.000000	56.907263
1800.000000	56.870494
1799.000000	56.825896
1798.000000	56.784134
1797.000000	56.750627
1796.000000	56.721899
1795.000000	56.692055
1794.000000	56.672921
1793.000000	56.628637
1792.000000	56.598834
1791.000000	56.572851
1790.000000	56.530513
1789.000000	56.495563
1788.000000	56.497521
1787.000000	56.453074
1786.000000	56.416572
1785.000000	56.394186
1784.000000	56.367049
1783.000000	56.310166
1782.000000	56.276608
1781.000000	56.211830
1780.000000	56.156409
1779.000000	56.154670
1778.000000	56.098339
1777.000000	56.025510
1776.000000	55.967161
1775.000000	55.910315
1774.000000	55.842609
1773.000000	55.765281
1772.000000	55.702900
1771.000000	55.653487
1770.000000	55.606150
1769.000000	55.527898
1768.000000	55.450838
1767.000000	55.380023
1766.000000	55.312796
1765.000000	55.265524
1764.000000	55.224048
1763.000000	55.129836
1762.000000	55.068466
1761.000000	55.007329
1760.000000	54.920035
1759.000000	54.845938
1758.000000	54.826192
1757.000000	54.745598
1756.000000	54.688330
1755.000000	54.642877
1754.000000	54.547203
1753.000000	54.482723
1752.000000	54.432505
1751.000000	54.353590
1750.000000	54.309098
1749.000000	54.227593
1748.000000	54.136329
1747.000000	54.107983
1746.000000	54.011972
1745.000000	53.938562
1744.000000	53.871493
1743.000000	53.828509
1742.000000	53.726813
1741.000000	53.675655
1740.000000	53.608497
1739.000000	53.544134
1738.000000	53.467297
1737.000000	53.436238
1736.000000	53.392285
1735.000000	53.374939
1734.000000	53.372081
1733.000000	53.341556
1732.000000	53.332692
1731.000000	53.356612
1730.000000	53.345753
1729.000000	53.380037
1728.000000	53.457770
1727.000000	53.495429
1726.000000	53.570489
1725.000000	53.650267
1724.000000	53.761107
1723.000000	53.852721
1722.000000	53.954181
1721.000000	54.072347
1720.000000	54.219546
1719.000000	54.357128
1718.000000	54.453430
1717.000000	54.578302
1716.000000	54.694636
1715.000000	54.801670
1714.000000	54.886444
1713.000000	55.014242
1712.000000	55.124390
1711.000000	55.200262
1710.000000	55.283924
1709.000000	55.346563
1708.000000	55.444427
1707.000000	55.506090
1706.000000	55.562818
1705.000000	55.594116
1704.000000	55.640845
1703.000000	55.685754
1702.000000	55.678643
1701.000000	55.704980
1700.000000	55.730394
1699.000000	55.728547
1698.000000	55.766354
1697.000000	55.802954
1696.000000	55.813749
1695.000000	55.845459
1694.000000	55.894368
1693.000000	55.932733
1692.000000	55.969544
1691.000000	56.083397
1690.000000	56.172790
1689.000000	56.263022
1688.000000	56.356443
1687.000000	56.476425
1686.000000	56.607914
1685.000000	56.753331
1684.000000	56.909845
1683.000000	57.093084
1682.000000	57.261755
1681.000000	57.464416
1680.000000	57.649036
1679.000000	57.860824
1678.000000	58.059098
1677.000000	58.245779
1676.000000	58.465723
1675.000000	58.684681
1674.000000	58.881797
1673.000000	59.087175
1672.000000	59.276501
1671.000000	59.474128
1670.000000	59.644077
1669.000000	59.846662
1668.000000	60.009040
1667.000000	60.193913
1666.000000	60.309910
1665.000000	60.414179
1664.000000	60.552110
1663.000000	60.640295
1662.000000	60.729973
1661.000000	60.856344
1660.000000	60.924500
1659.000000	60.987456
1658.000000	61.047071
1657.000000	61.105055
1656.000000	61.143514
1655.000000	61.175489
1654.000000	61.223602
1653.000000	61.241692
1652.000000	61.260662
1651.000000	61.278103
1650.000000	61.268880
1649.000000	61.279736
1648.000000	61.254224
1647.000000	61.253860
1646.000000	61.252937
1645.000000	61.207185
1644.000000	61.213079
1643.000000	61.189548
1642.000000	61.133018
1641.000000	61.122243
1640.000000	61.100844
1639.000000	61.070584
1638.000000	61.041429
1637.000000	61.008222
1636.000000	60.954082
1635.000000	60.925210
1634.000000	60.861266
1633.000000	60.829901
1632.000000	60.781487
1631.000000	60.744471
1630.000000	60.700035
1629.000000	60.652176
1628.000000	60.591181
1627.000000	60.538834
1626.000000	60.497160
1625.000000	60.431704
1624.000000	60.369053
1623.000000	60.332611
1622.000000	60.274863
1621.000000	60.207384
1620.000000	60.149659
1619.000000	60.091233
1618.000000	60.026086
1617.000000	59.962875
1616.000000	59.913815
1615.000000	59.834599
1614.000000	59.760644
1613.000000	59.699148
1612.000000	59.626961
1611.000000	59.560282
1610.000000	59.504973
1609.000000	59.426504
1608.000000	59.348166
1607.000000	59.274911
1606.000000	59.184670
1605.000000	59.107528
1604.000000	59.034204
1603.000000	58.956260
1602.000000	58.894550
1601.000000	58.821698
1600.000000	58.743100
1599.000000	58.666784
1598.000000	58.585184
1597.000000	58.520400
1596.000000	58.450832
1595.000000	58.370491
1594.000000	58.306151
1593.000000	58.243532
1592.000000	58.174522
1591.000000	58.096104
1590.000000	58.029757
1589.000000	57.962515
1588.000000	57.900115
1587.000000	57.857279
1586.000000	57.790854
1585.000000	57.724307
1584.000000	57.679687
1583.000000	57.623351
1582.000000	57.562265
1581.000000	57.513127
1580.000000	57.442620
1579.000000	57.376299
1578.000000	57.332509
1577.000000	57.267694
1576.000000	57.206472
1575.000000	57.156228
1574.000000	57.095686
1573.000000	57.029727
1572.000000	56.978807
1571.000000	56.933120
1570.000000	56.877539
1569.000000	56.824558
1568.000000	56.769436
1567.000000	56.723966
1566.000000	56.681151
1565.000000	56.630879
1564.000000	56.607318
1563.000000	56.579207
1562.000000	56.524489
1561.000000	56.499756
1560.000000	56.465700
1559.000000	56.445044
1558.000000	56.418250
1557.000000	56.399246
1556.000000	56.370481
1555.000000	56.334513
1554.000000	56.301162
1553.000000	56.268194
1552.000000	56.236139
1551.000000	56.193358
1550.000000	56.157663
1549.000000	56.110151
1548.000000	56.057700
1547.000000	55.986393
1546.000000	55.928237
1545.000000	55.846553
1544.000000	55.766888
1543.000000	55.683885
1542.000000	55.594902
1541.000000	55.502930
1540.000000	55.412534
1539.000000	55.305036
1538.000000	55.190897
1537.000000	55.086629
1536.000000	54.983256
1535.000000	54.876898
1534.000000	54.768218
1533.000000	54.668499
1532.000000	54.546584
1531.000000	54.454141
1530.000000	54.337220
1529.000000	54.245431
1528.000000	54.147459
1527.000000	54.067997
1526.000000	53.959751
1525.000000	53.877136
1524.000000	53.795127
1523.000000	53.753974
1522.000000	53.687478
1521.000000	53.596901
1520.000000	53.542086
1519.000000	53.461831
1518.000000	53.398783
1517.000000	53.356481
1516.000000	53.317349
1515.000000	53.268460
1514.000000	53.237655
1513.000000	53.237820
1512.000000	53.219156
1511.000000	53.206222
1510.000000	53.170658
1509.000000	53.109671
1508.000000	53.055923
1507.000000	53.028818
1506.000000	52.995270
1505.000000	52.962885
1504.000000	52.946076
1503.000000	52.921689
1502.000000	52.888930
1501.000000	52.896307
1500.000000	52.884642
1499.000000	52.875630
1498.000000	52.908491
1497.000000	52.901605
1496.000000	52.913236
1495.000000	52.893724
1494.000000	52.917505
1493.000000	52.952126
1492.000000	52.960670
1491.000000	52.984579
1490.000000	53.017446
1489.000000	53.063587
1488.000000	53.125309
1487.000000	53.160326
1486.000000	53.187414
1485.000000	53.261431
1484.000000	53.320016
1483.000000	53.358958
1482.000000	53.460227
1481.000000	53.512326
1480.000000	53.553013
1479.000000	53.646474
1478.000000	53.705112
1477.000000	53.769799
1476.000000	53.841089
1475.000000	53.899032
1474.000000	53.982652
1473.000000	54.047093
1472.000000	54.097889
1471.000000	54.149328
1470.000000	54.214243
