PE UV       SUBTECH     SPECTRUM    ASCII       PEDS        4.00        
   -1
RTgAgneauUK 42.Sample.asc
18/03/09
16:30:51.00
18/03/09
16:30:51.00
Administrator

200.000000
1
Lambda 750
750N8071901
PerkinElmer UV WinLab 6.0.4.0738 / 1.61.00 Lambda 900

0
0
3350/servo 860.8/2
0
0
UV/VIS
1
1
1
CommonBeamDepol,150mm sphere / downward view
0
0
0
0
Program
Program
3350/servo 860.8/2
3350/0.2 860.8/0.2
3350/0.2 860.8/0.2
0
1
 
 
 
0
 
860.8
319.2
860.8
Front
100
on
 
 
0
0
0
 
0
 
 
 
0
 
 
0
0
0
0
0
 
 
 
 
0
0


0
0
#HDR
-1
-1
#GR
nm
%R
1.0
0.0
2350.000000
-1.000000
2151
8
70.040726
13.854846
#DATA
2350.000000	25.021917
2349.000000	25.199568
2348.000000	25.240807
2347.000000	25.840190
2346.000000	25.201835
2345.000000	25.440374
2344.000000	25.132816
2343.000000	25.087575
2342.000000	25.441526
2341.000000	25.465641
2340.000000	25.427965
2339.000000	25.959896
2338.000000	25.667736
2337.000000	25.715953
2336.000000	25.484084
2335.000000	26.033055
2334.000000	26.115109
2333.000000	26.144610
2332.000000	26.178564
2331.000000	26.189807
2330.000000	26.213721
2329.000000	26.101058
2328.000000	25.985487
2327.000000	25.804859
2326.000000	25.846794
2325.000000	25.718644
2324.000000	25.806432
2323.000000	25.766212
2322.000000	25.519744
2321.000000	25.659536
2320.000000	25.750748
2319.000000	25.783710
2318.000000	25.661714
2317.000000	25.486195
2316.000000	25.461122
2315.000000	25.474826
2314.000000	25.505120
2313.000000	25.317269
2312.000000	25.313603
2311.000000	25.167952
2310.000000	24.842916
2309.000000	24.960722
2308.000000	24.930933
2307.000000	24.696055
2306.000000	24.933475
2305.000000	24.819165
2304.000000	24.632608
2303.000000	24.546166
2302.000000	24.481038
2301.000000	24.157914
2300.000000	24.086320
2299.000000	24.042212
2298.000000	24.018972
2297.000000	23.831287
2296.000000	23.821722
2295.000000	23.537634
2294.000000	23.423479
2293.000000	23.396244
2292.000000	23.460690
2291.000000	23.368552
2290.000000	23.294642
2289.000000	23.257629
2288.000000	23.187154
2287.000000	23.211004
2286.000000	23.261948
2285.000000	23.189353
2284.000000	23.109331
2283.000000	22.968701
2282.000000	23.107002
2281.000000	23.107847
2280.000000	22.984414
2279.000000	22.825599
2278.000000	22.768413
2277.000000	22.944977
2276.000000	23.015778
2275.000000	23.032833
2274.000000	23.231362
2273.000000	23.326551
2272.000000	23.266265
2271.000000	23.381754
2270.000000	23.350492
2269.000000	23.420909
2268.000000	23.431558
2267.000000	23.462773
2266.000000	23.537845
2265.000000	23.739414
2264.000000	24.023802
2263.000000	24.095756
2262.000000	24.175115
2261.000000	24.361835
2260.000000	24.420815
2259.000000	24.635367
2258.000000	24.911099
2257.000000	25.047365
2256.000000	25.200368
2255.000000	25.533541
2254.000000	25.727430
2253.000000	25.860197
2252.000000	26.079839
2251.000000	26.405833
2250.000000	26.679445
2249.000000	26.823774
2248.000000	27.040572
2247.000000	27.281405
2246.000000	27.655920
2245.000000	27.905676
2244.000000	28.040549
2243.000000	28.324803
2242.000000	28.479474
2241.000000	28.616484
2240.000000	28.756393
2239.000000	28.866367
2238.000000	28.985899
2237.000000	29.127840
2236.000000	29.396226
2235.000000	29.566575
2234.000000	29.655152
2233.000000	29.643273
2232.000000	29.686530
2231.000000	29.834622
2230.000000	29.966043
2229.000000	30.039544
2228.000000	30.007390
2227.000000	29.951120
2226.000000	29.934199
2225.000000	30.022926
2224.000000	30.008099
2223.000000	29.971814
2222.000000	29.966528
2221.000000	29.927349
2220.000000	29.922288
2219.000000	29.874846
2218.000000	29.769851
2217.000000	29.844775
2216.000000	29.866096
2215.000000	29.757721
2214.000000	29.659443
2213.000000	29.660780
2212.000000	29.444619
2211.000000	29.224798
2210.000000	29.140252
2209.000000	29.163874
2208.000000	29.189830
2207.000000	29.048041
2206.000000	28.970190
2205.000000	28.947660
2204.000000	28.896544
2203.000000	28.780507
2202.000000	28.587714
2201.000000	28.578832
2200.000000	28.576330
2199.000000	28.517369
2198.000000	28.444317
2197.000000	28.179960
2196.000000	28.038355
2195.000000	27.984102
2194.000000	27.782549
2193.000000	27.655096
2192.000000	27.726096
2191.000000	27.485704
2190.000000	27.232300
2189.000000	27.306959
2188.000000	27.435274
2187.000000	27.378991
2186.000000	27.270318
2185.000000	27.149128
2184.000000	27.201156
2183.000000	27.173781
2182.000000	27.159965
2181.000000	27.055315
2180.000000	26.918653
2179.000000	26.832542
2178.000000	26.839298
2177.000000	27.020774
2176.000000	26.853626
2175.000000	26.774348
2174.000000	26.935362
2173.000000	26.959382
2172.000000	26.949177
2171.000000	27.016099
2170.000000	26.996886
2169.000000	27.197397
2168.000000	27.305653
2167.000000	27.336539
2166.000000	27.493176
2165.000000	27.497284
2164.000000	27.499498
2163.000000	27.727949
2162.000000	27.930660
2161.000000	28.024616
2160.000000	28.088610
2159.000000	28.219258
2158.000000	28.451140
2157.000000	28.551657
2156.000000	28.684414
2155.000000	28.879278
2154.000000	29.018365
2153.000000	29.283385
2152.000000	29.510676
2151.000000	29.575801
2150.000000	29.734114
2149.000000	29.845432
2148.000000	29.985930
2147.000000	30.183686
2146.000000	30.342807
2145.000000	30.497272
2144.000000	30.686136
2143.000000	30.980393
2142.000000	31.122444
2141.000000	31.130994
2140.000000	31.356753
2139.000000	31.588182
2138.000000	31.573828
2137.000000	31.663964
2136.000000	31.997868
2135.000000	32.008684
2134.000000	32.320295
2133.000000	32.090880
2132.000000	32.423593
2131.000000	32.565800
2130.000000	32.580059
2129.000000	32.656045
2128.000000	32.873058
2127.000000	32.923222
2126.000000	32.752734
2125.000000	32.931127
2124.000000	33.084794
2123.000000	33.038219
2122.000000	33.165206
2121.000000	33.061099
2120.000000	33.028412
2119.000000	33.249907
2118.000000	33.347364
2117.000000	33.373089
2116.000000	33.478448
2115.000000	33.626792
2114.000000	33.620126
2113.000000	33.581648
2112.000000	33.698305
2111.000000	33.595769
2110.000000	33.656270
2109.000000	33.643390
2108.000000	33.624673
2107.000000	33.899619
2106.000000	33.771905
2105.000000	33.728882
2104.000000	33.776671
2103.000000	33.871758
2102.000000	33.878274
2101.000000	33.863102
2100.000000	33.900802
2099.000000	33.848507
2098.000000	33.848426
2097.000000	33.957986
2096.000000	33.940972
2095.000000	33.762996
2094.000000	33.870913
2093.000000	33.866179
2092.000000	33.934327
2091.000000	33.873036
2090.000000	33.716275
2089.000000	33.754961
2088.000000	33.689913
2087.000000	33.635869
2086.000000	33.638590
2085.000000	33.596855
2084.000000	33.481331
2083.000000	33.351102
2082.000000	33.353160
2081.000000	33.229768
2080.000000	33.251549
2079.000000	33.135685
2078.000000	33.007333
2077.000000	32.861607
2076.000000	32.773892
2075.000000	32.672367
2074.000000	32.570755
2073.000000	32.480471
2072.000000	32.320293
2071.000000	32.155372
2070.000000	31.992245
2069.000000	31.827679
2068.000000	31.651013
2067.000000	31.421990
2066.000000	31.270992
2065.000000	31.097018
2064.000000	30.884415
2063.000000	30.695648
2062.000000	30.554959
2061.000000	30.361097
2060.000000	30.123799
2059.000000	29.943428
2058.000000	29.824416
2057.000000	29.630775
2056.000000	29.426100
2055.000000	29.279772
2054.000000	29.129848
2053.000000	28.940581
2052.000000	28.768739
2051.000000	28.585412
2050.000000	28.442205
2049.000000	28.391411
2048.000000	28.287112
2047.000000	28.167010
2046.000000	28.094574
2045.000000	28.025266
2044.000000	27.984445
2043.000000	27.984862
2042.000000	27.962598
2041.000000	27.918430
2040.000000	27.984773
2039.000000	28.038671
2038.000000	28.094672
2037.000000	28.161563
2036.000000	28.177481
2035.000000	28.272774
2034.000000	28.389311
2033.000000	28.509433
2032.000000	28.685011
2031.000000	28.845220
2030.000000	28.976111
2029.000000	29.115584
2028.000000	29.246405
2027.000000	29.341892
2026.000000	29.504090
2025.000000	29.670579
2024.000000	29.758391
2023.000000	29.880046
2022.000000	29.977741
2021.000000	30.032991
2020.000000	30.132067
2019.000000	30.218929
2018.000000	30.244789
2017.000000	30.259216
2016.000000	30.306726
2015.000000	30.324634
2014.000000	30.296562
2013.000000	30.257262
2012.000000	30.255228
2011.000000	30.241031
2010.000000	30.167436
2009.000000	30.125689
2008.000000	30.098049
2007.000000	29.956643
2006.000000	29.855191
2005.000000	29.807026
2004.000000	29.719702
2003.000000	29.601822
2002.000000	29.519326
2001.000000	29.420055
2000.000000	29.297196
1999.000000	29.193222
1998.000000	29.065853
1997.000000	28.942059
1996.000000	28.847251
1995.000000	28.694796
1994.000000	28.587289
1993.000000	28.473526
1992.000000	28.335838
1991.000000	28.203162
1990.000000	28.123701
1989.000000	27.991533
1988.000000	27.823455
1987.000000	27.686177
1986.000000	27.544473
1985.000000	27.428744
1984.000000	27.350145
1983.000000	27.201704
1982.000000	27.070453
1981.000000	26.983653
1980.000000	26.873539
1979.000000	26.731502
1978.000000	26.590305
1977.000000	26.403231
1976.000000	26.240047
1975.000000	26.192956
1974.000000	26.037116
1973.000000	25.966896
1972.000000	25.839362
1971.000000	25.727452
1970.000000	25.617191
1969.000000	25.472940
1968.000000	25.332538
1967.000000	25.225332
1966.000000	25.153339
1965.000000	24.993677
1964.000000	24.843947
1963.000000	24.776458
1962.000000	24.640575
1961.000000	24.548063
1960.000000	24.466030
1959.000000	24.365864
1958.000000	24.247479
1957.000000	24.178554
1956.000000	24.055329
1955.000000	23.902540
1954.000000	23.824695
1953.000000	23.779556
1952.000000	23.719800
1951.000000	23.686139
1950.000000	23.601198
1949.000000	23.587415
1948.000000	23.507144
1947.000000	23.447494
1946.000000	23.476910
1945.000000	23.475614
1944.000000	23.439214
1943.000000	23.408405
1942.000000	23.418518
1941.000000	23.490053
1940.000000	23.535324
1939.000000	23.531923
1938.000000	23.631913
1937.000000	23.713220
1936.000000	23.843212
1935.000000	23.894100
1934.000000	23.999625
1933.000000	24.135808
1932.000000	24.290705
1931.000000	24.478523
1930.000000	24.707383
1929.000000	24.826856
1928.000000	24.993619
1927.000000	25.324618
1926.000000	25.486646
1925.000000	25.778887
1924.000000	26.078486
1923.000000	26.325616
1922.000000	26.636992
1921.000000	26.995395
1920.000000	27.327280
1919.000000	27.643021
1918.000000	28.036735
1917.000000	28.358554
1916.000000	28.687338
1915.000000	29.160021
1914.000000	29.703033
1913.000000	30.140522
1912.000000	30.545383
1911.000000	31.037506
1910.000000	31.466046
1909.000000	31.995875
1908.000000	32.636178
1907.000000	33.181319
1906.000000	33.688942
1905.000000	34.250586
1904.000000	34.952087
1903.000000	35.562012
1902.000000	36.197180
1901.000000	36.869211
1900.000000	37.482188
1899.000000	38.056073
1898.000000	38.830782
1897.000000	39.361558
1896.000000	40.034213
1895.000000	40.676706
1894.000000	41.304284
1893.000000	41.966266
1892.000000	42.625646
1891.000000	43.198471
1890.000000	43.811046
1889.000000	44.370022
1888.000000	44.887141
1887.000000	45.495239
1886.000000	46.051793
1885.000000	46.579389
1884.000000	47.083371
1883.000000	47.585014
1882.000000	48.057999
1881.000000	48.525701
1880.000000	48.962016
1879.000000	49.340523
1878.000000	49.742865
1877.000000	50.173682
1876.000000	50.538761
1875.000000	50.861092
1874.000000	51.158294
1873.000000	51.466437
1872.000000	51.812168
1871.000000	52.042268
1870.000000	52.330658
1869.000000	52.576471
1868.000000	52.719574
1867.000000	52.891156
1866.000000	53.070274
1865.000000	53.196035
1864.000000	53.327716
1863.000000	53.444728
1862.000000	53.569081
1861.000000	53.640857
1860.000000	53.723464
1859.000000	53.764625
1858.000000	53.877968
1857.000000	53.956896
1856.000000	53.974674
1855.000000	54.044700
1854.000000	54.094530
1853.000000	54.152126
1852.000000	54.173605
1851.000000	54.187841
1850.000000	54.211047
1849.000000	54.237134
1848.000000	54.258799
1847.000000	54.265135
1846.000000	54.229746
1845.000000	54.206548
1844.000000	54.175748
1843.000000	54.095169
1842.000000	54.090542
1841.000000	54.090264
1840.000000	54.027494
1839.000000	54.008323
1838.000000	53.980033
1837.000000	53.922026
1836.000000	53.874411
1835.000000	53.795710
1834.000000	53.711020
1833.000000	53.689374
1832.000000	53.661803
1831.000000	53.620385
1830.000000	53.581667
1829.000000	53.527428
1828.000000	53.450613
1827.000000	53.392856
1826.000000	53.359988
1825.000000	53.325760
1824.000000	53.298777
1823.000000	53.233465
1822.000000	53.169161
1821.000000	53.133614
1820.000000	53.082567
1819.000000	53.024693
1818.000000	52.998805
1817.000000	52.958538
1816.000000	52.882460
1815.000000	52.850361
1814.000000	52.813923
1813.000000	52.765921
1812.000000	52.731944
1811.000000	52.668558
1810.000000	52.619398
1809.000000	52.575184
1808.000000	52.525310
1807.000000	52.481311
1806.000000	52.437163
1805.000000	52.398571
1804.000000	52.355227
1803.000000	52.305086
1802.000000	52.262424
1801.000000	52.231637
1800.000000	52.197156
1799.000000	52.154841
1798.000000	52.117946
1797.000000	52.084804
1796.000000	52.053884
1795.000000	52.021255
1794.000000	52.005894
1793.000000	51.955004
1792.000000	51.902916
1791.000000	51.877119
1790.000000	51.836547
1789.000000	51.797425
1788.000000	51.804310
1787.000000	51.764089
1786.000000	51.726672
1785.000000	51.702990
1784.000000	51.644848
1783.000000	51.596593
1782.000000	51.561333
1781.000000	51.512725
1780.000000	51.463156
1779.000000	51.438630
1778.000000	51.370089
1777.000000	51.285910
1776.000000	51.229385
1775.000000	51.154816
1774.000000	51.085837
1773.000000	51.024387
1772.000000	50.958793
1771.000000	50.893738
1770.000000	50.836029
1769.000000	50.738045
1768.000000	50.649809
1767.000000	50.585792
1766.000000	50.504484
1765.000000	50.466987
1764.000000	50.402340
1763.000000	50.303654
1762.000000	50.230380
1761.000000	50.176136
1760.000000	50.097957
1759.000000	50.021102
1758.000000	49.980106
1757.000000	49.888251
1756.000000	49.830193
1755.000000	49.787087
1754.000000	49.701415
1753.000000	49.615055
1752.000000	49.563738
1751.000000	49.489527
1750.000000	49.416981
1749.000000	49.338099
1748.000000	49.232331
1747.000000	49.191036
1746.000000	49.105308
1745.000000	49.014512
1744.000000	48.938786
1743.000000	48.887312
1742.000000	48.791029
1741.000000	48.721102
1740.000000	48.660878
1739.000000	48.616505
1738.000000	48.532954
1737.000000	48.488602
1736.000000	48.420879
1735.000000	48.418788
1734.000000	48.420864
1733.000000	48.376094
1732.000000	48.376412
1731.000000	48.385330
1730.000000	48.428948
1729.000000	48.444915
1728.000000	48.524951
1727.000000	48.567586
1726.000000	48.667000
1725.000000	48.731642
1724.000000	48.808754
1723.000000	48.942287
1722.000000	49.072554
1721.000000	49.203863
1720.000000	49.320212
1719.000000	49.465509
1718.000000	49.567313
1717.000000	49.722478
1716.000000	49.836092
1715.000000	49.952646
1714.000000	50.081748
1713.000000	50.197461
1712.000000	50.281442
1711.000000	50.389638
1710.000000	50.480062
1709.000000	50.572748
1708.000000	50.653327
1707.000000	50.688381
1706.000000	50.755777
1705.000000	50.775035
1704.000000	50.831207
1703.000000	50.854498
1702.000000	50.884804
1701.000000	50.894960
1700.000000	50.925177
1699.000000	50.945769
1698.000000	50.991938
1697.000000	51.019760
1696.000000	51.051541
1695.000000	51.101203
1694.000000	51.139863
1693.000000	51.189036
1692.000000	51.257678
1691.000000	51.338592
1690.000000	51.452246
1689.000000	51.564351
1688.000000	51.696616
1687.000000	51.807762
1686.000000	51.948277
1685.000000	52.127935
1684.000000	52.306721
1683.000000	52.504846
1682.000000	52.703576
1681.000000	52.912804
1680.000000	53.122075
1679.000000	53.336936
1678.000000	53.563063
1677.000000	53.761452
1676.000000	54.018635
1675.000000	54.245309
1674.000000	54.475806
1673.000000	54.686441
1672.000000	54.885371
1671.000000	55.108681
1670.000000	55.302134
1669.000000	55.553331
1668.000000	55.712026
1667.000000	55.901318
1666.000000	56.021648
1665.000000	56.170962
1664.000000	56.292184
1663.000000	56.399060
1662.000000	56.497002
1661.000000	56.605268
1660.000000	56.688210
1659.000000	56.765210
1658.000000	56.829265
1657.000000	56.904268
1656.000000	56.932856
1655.000000	56.980447
1654.000000	57.024162
1653.000000	57.027435
1652.000000	57.069207
1651.000000	57.070177
1650.000000	57.080707
1649.000000	57.065492
1648.000000	57.060600
1647.000000	57.072507
1646.000000	57.038452
1645.000000	57.027285
1644.000000	56.990487
1643.000000	56.972159
1642.000000	56.941211
1641.000000	56.917851
1640.000000	56.878455
1639.000000	56.831921
1638.000000	56.809637
1637.000000	56.766689
1636.000000	56.696003
1635.000000	56.668814
1634.000000	56.621052
1633.000000	56.560801
1632.000000	56.512324
1631.000000	56.467531
1630.000000	56.421336
1629.000000	56.368691
1628.000000	56.310621
1627.000000	56.248667
1626.000000	56.191245
1625.000000	56.134176
1624.000000	56.067348
1623.000000	56.014163
1622.000000	55.948089
1621.000000	55.860859
1620.000000	55.796462
1619.000000	55.730449
1618.000000	55.672585
1617.000000	55.597637
1616.000000	55.535929
1615.000000	55.455713
1614.000000	55.379898
1613.000000	55.312326
1612.000000	55.230801
1611.000000	55.138435
1610.000000	55.064469
1609.000000	54.991376
1608.000000	54.917720
1607.000000	54.830860
1606.000000	54.729254
1605.000000	54.664072
1604.000000	54.600202
1603.000000	54.505603
1602.000000	54.416310
1601.000000	54.338887
1600.000000	54.248855
1599.000000	54.165681
1598.000000	54.081602
1597.000000	54.014126
1596.000000	53.950663
1595.000000	53.867911
1594.000000	53.782029
1593.000000	53.708879
1592.000000	53.645144
1591.000000	53.572346
1590.000000	53.497714
1589.000000	53.419409
1588.000000	53.339519
1587.000000	53.279135
1586.000000	53.215253
1585.000000	53.149370
1584.000000	53.099633
1583.000000	53.037250
1582.000000	52.966130
1581.000000	52.899196
1580.000000	52.827143
1579.000000	52.767293
1578.000000	52.728603
1577.000000	52.654522
1576.000000	52.590647
1575.000000	52.537220
1574.000000	52.473846
1573.000000	52.411871
1572.000000	52.349616
1571.000000	52.284054
1570.000000	52.230727
1569.000000	52.165437
1568.000000	52.116706
1567.000000	52.066786
1566.000000	52.006750
1565.000000	51.970056
1564.000000	51.934056
1563.000000	51.889611
1562.000000	51.848910
1561.000000	51.816237
1560.000000	51.779054
1559.000000	51.743463
1558.000000	51.716956
1557.000000	51.702922
1556.000000	51.671097
1555.000000	51.636214
1554.000000	51.601011
1553.000000	51.553597
1552.000000	51.507038
1551.000000	51.461855
1550.000000	51.428545
1549.000000	51.373607
1548.000000	51.303672
1547.000000	51.219788
1546.000000	51.158932
1545.000000	51.089532
1544.000000	50.989741
1543.000000	50.888448
1542.000000	50.806849
1541.000000	50.692911
1540.000000	50.582825
1539.000000	50.475084
1538.000000	50.345285
1537.000000	50.253645
1536.000000	50.134404
1535.000000	50.013941
1534.000000	49.894794
1533.000000	49.795937
1532.000000	49.682402
1531.000000	49.560213
1530.000000	49.456528
1529.000000	49.348131
1528.000000	49.263269
1527.000000	49.164391
1526.000000	49.072904
1525.000000	48.978526
1524.000000	48.893740
1523.000000	48.827635
1522.000000	48.754469
1521.000000	48.671098
1520.000000	48.613637
1519.000000	48.547880
1518.000000	48.494285
1517.000000	48.438574
1516.000000	48.369011
1515.000000	48.303537
1514.000000	48.278357
1513.000000	48.238128
1512.000000	48.200115
1511.000000	48.198136
1510.000000	48.185489
1509.000000	48.169932
1508.000000	48.133283
1507.000000	48.095707
1506.000000	48.051339
1505.000000	48.027337
1504.000000	48.002729
1503.000000	47.952609
1502.000000	47.933981
1501.000000	47.949142
1500.000000	47.906264
1499.000000	47.902335
1498.000000	47.912155
1497.000000	47.911170
1496.000000	47.912332
1495.000000	47.929734
1494.000000	47.956736
1493.000000	47.977029
1492.000000	47.996617
1491.000000	48.036061
1490.000000	48.093024
1489.000000	48.143763
1488.000000	48.194636
1487.000000	48.238358
1486.000000	48.296904
1485.000000	48.356529
1484.000000	48.429036
1483.000000	48.482651
1482.000000	48.541863
1481.000000	48.614373
1480.000000	48.682465
1479.000000	48.757880
1478.000000	48.813466
1477.000000	48.867414
1476.000000	48.948822
1475.000000	49.015927
1474.000000	49.084531
1473.000000	49.150442
1472.000000	49.194864
1471.000000	49.261315
1470.000000	49.330915
