PE UV       SUBTECH     SPECTRUM    ASCII       PEDS        4.00        
   -1
RTgAgneauUK 52.Sample.asc
18/03/09
16:43:42.00
18/03/09
16:43:42.00
Administrator

200.000000
1
Lambda 750
750N8071901
PerkinElmer UV WinLab 6.0.4.0738 / 1.61.00 Lambda 900

0
0
3350/servo 860.8/2
0
0
UV/VIS
1
1
1
CommonBeamDepol,150mm sphere / downward view
0
0
0
0
Program
Program
3350/servo 860.8/2
3350/0.2 860.8/0.2
3350/0.2 860.8/0.2
0
1
 
 
 
0
 
860.8
319.2
860.8
Front
100
on
 
 
0
0
0
 
0
 
 
 
0
 
 
0
0
0
0
0
 
 
 
 
0
0


0
0
#HDR
-1
-1
#GR
nm
%R
1.0
0.0
2350.000000
-1.000000
2151
8
73.328143
15.581587
#DATA
2350.000000	26.873593
2349.000000	26.775799
2348.000000	26.880278
2347.000000	27.252640
2346.000000	26.927038
2345.000000	26.652310
2344.000000	27.012843
2343.000000	26.896127
2342.000000	26.957313
2341.000000	27.081920
2340.000000	27.320237
2339.000000	27.452945
2338.000000	27.359284
2337.000000	27.340895
2336.000000	27.260537
2335.000000	27.440366
2334.000000	27.407627
2333.000000	27.504509
2332.000000	27.770037
2331.000000	27.470461
2330.000000	27.394065
2329.000000	27.540142
2328.000000	27.558030
2327.000000	27.464210
2326.000000	27.438652
2325.000000	27.519864
2324.000000	27.524719
2323.000000	27.413491
2322.000000	27.160484
2321.000000	27.359390
2320.000000	27.315018
2319.000000	27.346494
2318.000000	27.390687
2317.000000	27.361609
2316.000000	26.935945
2315.000000	26.848073
2314.000000	26.967154
2313.000000	26.994890
2312.000000	26.857468
2311.000000	26.606621
2310.000000	26.490796
2309.000000	26.881943
2308.000000	26.515533
2307.000000	26.217268
2306.000000	26.353748
2305.000000	26.346040
2304.000000	26.316103
2303.000000	26.155654
2302.000000	26.006334
2301.000000	26.027613
2300.000000	25.771816
2299.000000	25.557824
2298.000000	25.458008
2297.000000	25.540837
2296.000000	25.308345
2295.000000	25.211261
2294.000000	25.060725
2293.000000	25.072235
2292.000000	25.002267
2291.000000	24.995715
2290.000000	24.958300
2289.000000	24.944323
2288.000000	24.971543
2287.000000	24.772478
2286.000000	24.633551
2285.000000	24.737665
2284.000000	24.678289
2283.000000	24.515282
2282.000000	24.417719
2281.000000	24.455713
2280.000000	24.428844
2279.000000	24.534844
2278.000000	24.542744
2277.000000	24.533167
2276.000000	24.531900
2275.000000	24.681057
2274.000000	24.777773
2273.000000	24.845118
2272.000000	24.863458
2271.000000	24.804433
2270.000000	24.858824
2269.000000	24.866819
2268.000000	24.865311
2267.000000	25.119211
2266.000000	25.257012
2265.000000	25.219594
2264.000000	25.358945
2263.000000	25.498416
2262.000000	25.614729
2261.000000	25.873951
2260.000000	26.027559
2259.000000	26.222696
2258.000000	26.447147
2257.000000	26.640592
2256.000000	26.815512
2255.000000	26.990688
2254.000000	27.236585
2253.000000	27.383197
2252.000000	27.607307
2251.000000	27.943891
2250.000000	28.232393
2249.000000	28.400139
2248.000000	28.595716
2247.000000	28.884841
2246.000000	29.216173
2245.000000	29.383592
2244.000000	29.615363
2243.000000	29.891239
2242.000000	30.016428
2241.000000	30.143431
2240.000000	30.282332
2239.000000	30.558993
2238.000000	30.722113
2237.000000	30.831459
2236.000000	31.026137
2235.000000	31.083993
2234.000000	31.176120
2233.000000	31.240544
2232.000000	31.272097
2231.000000	31.337358
2230.000000	31.451538
2229.000000	31.630883
2228.000000	31.797762
2227.000000	31.743295
2226.000000	31.634456
2225.000000	31.593678
2224.000000	31.560176
2223.000000	31.573225
2222.000000	31.528844
2221.000000	31.464378
2220.000000	31.463279
2219.000000	31.453653
2218.000000	31.442937
2217.000000	31.448476
2216.000000	31.468626
2215.000000	31.375980
2214.000000	31.244634
2213.000000	31.267930
2212.000000	31.248940
2211.000000	31.095404
2210.000000	30.974763
2209.000000	30.853628
2208.000000	30.762916
2207.000000	30.729453
2206.000000	30.536218
2205.000000	30.493901
2204.000000	30.459097
2203.000000	30.359061
2202.000000	30.274313
2201.000000	30.144644
2200.000000	30.049785
2199.000000	30.037589
2198.000000	29.964039
2197.000000	29.856731
2196.000000	29.764542
2195.000000	29.633563
2194.000000	29.605629
2193.000000	29.483871
2192.000000	29.463690
2191.000000	29.248942
2190.000000	29.200676
2189.000000	28.961276
2188.000000	28.860116
2187.000000	28.782698
2186.000000	28.811375
2185.000000	28.722751
2184.000000	28.687179
2183.000000	28.680071
2182.000000	28.577895
2181.000000	28.509474
2180.000000	28.516808
2179.000000	28.462890
2178.000000	28.205732
2177.000000	28.395798
2176.000000	28.477618
2175.000000	28.473930
2174.000000	28.554262
2173.000000	28.644054
2172.000000	28.386085
2171.000000	28.455441
2170.000000	28.658871
2169.000000	28.906032
2168.000000	28.940852
2167.000000	28.771935
2166.000000	28.979560
2165.000000	29.095960
2164.000000	29.213540
2163.000000	29.260648
2162.000000	29.463025
2161.000000	29.559432
2160.000000	29.759693
2159.000000	30.016988
2158.000000	30.083590
2157.000000	30.215798
2156.000000	30.291398
2155.000000	30.510427
2154.000000	30.766091
2153.000000	30.935474
2152.000000	30.885993
2151.000000	31.130777
2150.000000	31.322253
2149.000000	31.477805
2148.000000	31.792578
2147.000000	31.744076
2146.000000	31.829697
2145.000000	32.248883
2144.000000	32.330875
2143.000000	32.664067
2142.000000	32.756489
2141.000000	32.897609
2140.000000	33.006987
2139.000000	33.237601
2138.000000	33.359530
2137.000000	33.489269
2136.000000	33.516926
2135.000000	33.810334
2134.000000	33.861955
2133.000000	33.821100
2132.000000	34.127525
2131.000000	34.175794
2130.000000	34.381812
2129.000000	34.397486
2128.000000	34.399011
2127.000000	34.646836
2126.000000	34.477059
2125.000000	34.858683
2124.000000	34.890235
2123.000000	34.780281
2122.000000	34.866493
2121.000000	34.789503
2120.000000	34.964970
2119.000000	35.194326
2118.000000	35.209599
2117.000000	35.136986
2116.000000	35.278847
2115.000000	35.261169
2114.000000	35.380585
2113.000000	35.432031
2112.000000	35.460156
2111.000000	35.309831
2110.000000	35.398175
2109.000000	35.446561
2108.000000	35.470756
2107.000000	35.560811
2106.000000	35.632176
2105.000000	35.551815
2104.000000	35.608393
2103.000000	35.606455
2102.000000	35.680522
2101.000000	35.574276
2100.000000	35.508327
2099.000000	35.639899
2098.000000	35.717636
2097.000000	35.623258
2096.000000	35.626111
2095.000000	35.559121
2094.000000	35.591247
2093.000000	35.582917
2092.000000	35.673547
2091.000000	35.612220
2090.000000	35.508013
2089.000000	35.559177
2088.000000	35.490417
2087.000000	35.377628
2086.000000	35.466408
2085.000000	35.478953
2084.000000	35.423815
2083.000000	35.201461
2082.000000	35.143402
2081.000000	35.063519
2080.000000	35.005415
2079.000000	34.933581
2078.000000	34.827964
2077.000000	34.700766
2076.000000	34.544841
2075.000000	34.378283
2074.000000	34.234745
2073.000000	34.187472
2072.000000	34.030566
2071.000000	33.707297
2070.000000	33.615376
2069.000000	33.512167
2068.000000	33.370766
2067.000000	33.184579
2066.000000	32.993193
2065.000000	32.843335
2064.000000	32.661111
2063.000000	32.398191
2062.000000	32.234618
2061.000000	32.059700
2060.000000	31.816679
2059.000000	31.644929
2058.000000	31.481760
2057.000000	31.329617
2056.000000	31.171092
2055.000000	31.003185
2054.000000	30.747809
2053.000000	30.617140
2052.000000	30.478558
2051.000000	30.286067
2050.000000	30.130521
2049.000000	30.007507
2048.000000	29.899263
2047.000000	29.855215
2046.000000	29.762053
2045.000000	29.678209
2044.000000	29.597389
2043.000000	29.594485
2042.000000	29.567116
2041.000000	29.562422
2040.000000	29.594647
2039.000000	29.615359
2038.000000	29.702172
2037.000000	29.783526
2036.000000	29.801790
2035.000000	29.913537
2034.000000	30.071617
2033.000000	30.193435
2032.000000	30.329391
2031.000000	30.443851
2030.000000	30.555362
2029.000000	30.693947
2028.000000	30.803695
2027.000000	30.927291
2026.000000	31.111869
2025.000000	31.300115
2024.000000	31.470168
2023.000000	31.546982
2022.000000	31.602197
2021.000000	31.697805
2020.000000	31.730344
2019.000000	31.759330
2018.000000	31.816956
2017.000000	31.856107
2016.000000	31.891378
2015.000000	31.926340
2014.000000	31.920789
2013.000000	31.866729
2012.000000	31.845228
2011.000000	31.840766
2010.000000	31.821691
2009.000000	31.757597
2008.000000	31.664340
2007.000000	31.538740
2006.000000	31.486637
2005.000000	31.400051
2004.000000	31.294166
2003.000000	31.208261
2002.000000	31.111127
2001.000000	31.003653
2000.000000	30.890940
1999.000000	30.768927
1998.000000	30.661621
1997.000000	30.545447
1996.000000	30.433613
1995.000000	30.302442
1994.000000	30.144373
1993.000000	30.042185
1992.000000	29.885864
1991.000000	29.741910
1990.000000	29.650233
1989.000000	29.521751
1988.000000	29.387713
1987.000000	29.235923
1986.000000	29.058446
1985.000000	28.951225
1984.000000	28.876977
1983.000000	28.735986
1982.000000	28.593780
1981.000000	28.478876
1980.000000	28.326606
1979.000000	28.181756
1978.000000	28.077427
1977.000000	27.919068
1976.000000	27.797490
1975.000000	27.674302
1974.000000	27.548297
1973.000000	27.444299
1972.000000	27.318213
1971.000000	27.172948
1970.000000	27.061508
1969.000000	26.925112
1968.000000	26.840689
1967.000000	26.734726
1966.000000	26.599308
1965.000000	26.468148
1964.000000	26.375745
1963.000000	26.234123
1962.000000	26.069372
1961.000000	25.969289
1960.000000	25.883106
1959.000000	25.793448
1958.000000	25.692732
1957.000000	25.547487
1956.000000	25.448652
1955.000000	25.360668
1954.000000	25.345223
1953.000000	25.247898
1952.000000	25.132448
1951.000000	25.073406
1950.000000	25.005381
1949.000000	24.899354
1948.000000	24.929388
1947.000000	24.847582
1946.000000	24.844255
1945.000000	24.883330
1944.000000	24.854374
1943.000000	24.830720
1942.000000	24.883104
1941.000000	24.873799
1940.000000	24.886859
1939.000000	24.972519
1938.000000	25.076967
1937.000000	25.161219
1936.000000	25.229259
1935.000000	25.311186
1934.000000	25.355172
1933.000000	25.580677
1932.000000	25.664556
1931.000000	25.895282
1930.000000	26.134230
1929.000000	26.162785
1928.000000	26.448371
1927.000000	26.683209
1926.000000	26.973239
1925.000000	27.203505
1924.000000	27.400768
1923.000000	27.768206
1922.000000	28.110325
1921.000000	28.522135
1920.000000	28.858636
1919.000000	29.194640
1918.000000	29.571278
1917.000000	29.941299
1916.000000	30.241797
1915.000000	30.757907
1914.000000	31.205473
1913.000000	31.776819
1912.000000	32.115868
1911.000000	32.536807
1910.000000	33.147553
1909.000000	33.689731
1908.000000	34.237641
1907.000000	34.819052
1906.000000	35.384921
1905.000000	35.958328
1904.000000	36.660184
1903.000000	37.249088
1902.000000	37.911430
1901.000000	38.562481
1900.000000	39.260384
1899.000000	39.869440
1898.000000	40.573559
1897.000000	41.261954
1896.000000	41.940908
1895.000000	42.650330
1894.000000	43.278684
1893.000000	43.917988
1892.000000	44.634546
1891.000000	45.231162
1890.000000	45.873509
1889.000000	46.401339
1888.000000	47.053536
1887.000000	47.640685
1886.000000	48.235040
1885.000000	48.759270
1884.000000	49.276456
1883.000000	49.818649
1882.000000	50.244654
1881.000000	50.765675
1880.000000	51.215022
1879.000000	51.672453
1878.000000	52.115887
1877.000000	52.497072
1876.000000	52.831168
1875.000000	53.226312
1874.000000	53.578154
1873.000000	53.884773
1872.000000	54.171145
1871.000000	54.519301
1870.000000	54.793666
1869.000000	55.023496
1868.000000	55.229656
1867.000000	55.400174
1866.000000	55.559027
1865.000000	55.698827
1864.000000	55.825708
1863.000000	55.958807
1862.000000	56.083408
1861.000000	56.211811
1860.000000	56.308562
1859.000000	56.395410
1858.000000	56.420238
1857.000000	56.527175
1856.000000	56.577545
1855.000000	56.621565
1854.000000	56.657234
1853.000000	56.712553
1852.000000	56.715086
1851.000000	56.770532
1850.000000	56.799320
1849.000000	56.810159
1848.000000	56.818938
1847.000000	56.826022
1846.000000	56.804550
1845.000000	56.768234
1844.000000	56.770696
1843.000000	56.730495
1842.000000	56.708139
1841.000000	56.683406
1840.000000	56.619587
1839.000000	56.577613
1838.000000	56.548114
1837.000000	56.500979
1836.000000	56.462967
1835.000000	56.412530
1834.000000	56.327663
1833.000000	56.297834
1832.000000	56.254567
1831.000000	56.182068
1830.000000	56.137295
1829.000000	56.094446
1828.000000	56.031671
1827.000000	55.992121
1826.000000	55.940773
1825.000000	55.868674
1824.000000	55.836390
1823.000000	55.799203
1822.000000	55.723785
1821.000000	55.667563
1820.000000	55.614720
1819.000000	55.568310
1818.000000	55.537679
1817.000000	55.512520
1816.000000	55.445365
1815.000000	55.394830
1814.000000	55.361604
1813.000000	55.294254
1812.000000	55.250860
1811.000000	55.199123
1810.000000	55.143654
1809.000000	55.106427
1808.000000	55.061895
1807.000000	55.002872
1806.000000	54.962276
1805.000000	54.918874
1804.000000	54.874415
1803.000000	54.829527
1802.000000	54.783985
1801.000000	54.746799
1800.000000	54.693319
1799.000000	54.643689
1798.000000	54.616967
1797.000000	54.571739
1796.000000	54.543532
1795.000000	54.511856
1794.000000	54.487709
1793.000000	54.449383
1792.000000	54.404586
1791.000000	54.380788
1790.000000	54.332304
1789.000000	54.296777
1788.000000	54.282579
1787.000000	54.231880
1786.000000	54.183990
1785.000000	54.152019
1784.000000	54.110577
1783.000000	54.066070
1782.000000	54.039930
1781.000000	53.997194
1780.000000	53.918211
1779.000000	53.872823
1778.000000	53.835642
1777.000000	53.751255
1776.000000	53.666291
1775.000000	53.592890
1774.000000	53.525199
1773.000000	53.467509
1772.000000	53.393153
1771.000000	53.344530
1770.000000	53.281388
1769.000000	53.180649
1768.000000	53.079725
1767.000000	53.009629
1766.000000	52.956614
1765.000000	52.878353
1764.000000	52.817902
1763.000000	52.726207
1762.000000	52.661418
1761.000000	52.600843
1760.000000	52.488403
1759.000000	52.439238
1758.000000	52.371865
1757.000000	52.297743
1756.000000	52.256579
1755.000000	52.182483
1754.000000	52.090705
1753.000000	52.028751
1752.000000	51.961180
1751.000000	51.870451
1750.000000	51.787422
1749.000000	51.712360
1748.000000	51.608190
1747.000000	51.566609
1746.000000	51.474894
1745.000000	51.384035
1744.000000	51.307966
1743.000000	51.254305
1742.000000	51.161400
1741.000000	51.096401
1740.000000	51.022778
1739.000000	50.945558
1738.000000	50.889518
1737.000000	50.838924
1736.000000	50.775979
1735.000000	50.765661
1734.000000	50.750408
1733.000000	50.713883
1732.000000	50.712160
1731.000000	50.756299
1730.000000	50.773864
1729.000000	50.816886
1728.000000	50.853070
1727.000000	50.946611
1726.000000	51.020573
1725.000000	51.060228
1724.000000	51.182444
1723.000000	51.281273
1722.000000	51.431211
1721.000000	51.548162
1720.000000	51.721304
1719.000000	51.869379
1718.000000	51.952302
1717.000000	52.107021
1716.000000	52.239463
1715.000000	52.315891
1714.000000	52.469122
1713.000000	52.608381
1712.000000	52.709544
1711.000000	52.800009
1710.000000	52.894489
1709.000000	52.983027
1708.000000	53.077008
1707.000000	53.125009
1706.000000	53.212772
1705.000000	53.197476
1704.000000	53.282983
1703.000000	53.310710
1702.000000	53.332423
1701.000000	53.348538
1700.000000	53.359706
1699.000000	53.398779
1698.000000	53.416373
1697.000000	53.429568
1696.000000	53.504376
1695.000000	53.518203
1694.000000	53.547365
1693.000000	53.644204
1692.000000	53.668235
1691.000000	53.768957
1690.000000	53.873077
1689.000000	54.009817
1688.000000	54.111927
1687.000000	54.261481
1686.000000	54.396761
1685.000000	54.585237
1684.000000	54.752131
1683.000000	54.954961
1682.000000	55.174524
1681.000000	55.404838
1680.000000	55.615344
1679.000000	55.836210
1678.000000	56.058477
1677.000000	56.275458
1676.000000	56.531389
1675.000000	56.790288
1674.000000	57.014113
1673.000000	57.239692
1672.000000	57.467853
1671.000000	57.686360
1670.000000	57.893082
1669.000000	58.135822
1668.000000	58.316244
1667.000000	58.519755
1666.000000	58.656409
1665.000000	58.803619
1664.000000	58.940667
1663.000000	59.022925
1662.000000	59.141093
1661.000000	59.282062
1660.000000	59.373082
1659.000000	59.472447
1658.000000	59.537938
1657.000000	59.604919
1656.000000	59.628009
1655.000000	59.666673
1654.000000	59.709292
1653.000000	59.734261
1652.000000	59.773962
1651.000000	59.775785
1650.000000	59.782314
1649.000000	59.778340
1648.000000	59.765574
1647.000000	59.759103
1646.000000	59.763758
1645.000000	59.720221
1644.000000	59.694329
1643.000000	59.669703
1642.000000	59.627691
1641.000000	59.586931
1640.000000	59.570310
1639.000000	59.536181
1638.000000	59.487312
1637.000000	59.444956
1636.000000	59.385747
1635.000000	59.347198
1634.000000	59.284960
1633.000000	59.246162
1632.000000	59.196979
1631.000000	59.148151
1630.000000	59.101628
1629.000000	59.047728
1628.000000	58.984707
1627.000000	58.907551
1626.000000	58.851250
1625.000000	58.788118
1624.000000	58.732571
1623.000000	58.680473
1622.000000	58.615634
1621.000000	58.522252
1620.000000	58.456238
1619.000000	58.382022
1618.000000	58.310044
1617.000000	58.242905
1616.000000	58.177585
1615.000000	58.091517
1614.000000	58.014654
1613.000000	57.932450
1612.000000	57.840516
1611.000000	57.759560
1610.000000	57.690958
1609.000000	57.616219
1608.000000	57.530192
1607.000000	57.440250
1606.000000	57.340377
1605.000000	57.246772
1604.000000	57.168304
1603.000000	57.080075
1602.000000	57.011891
1601.000000	56.926275
1600.000000	56.818800
1599.000000	56.738967
1598.000000	56.652607
1597.000000	56.571418
1596.000000	56.494936
1595.000000	56.407195
1594.000000	56.321913
1593.000000	56.249122
1592.000000	56.184883
1591.000000	56.098057
1590.000000	56.022052
1589.000000	55.947591
1588.000000	55.869904
1587.000000	55.820347
1586.000000	55.741057
1585.000000	55.651682
1584.000000	55.595676
1583.000000	55.543189
1582.000000	55.474234
1581.000000	55.402241
1580.000000	55.333467
1579.000000	55.254911
1578.000000	55.205320
1577.000000	55.133080
1576.000000	55.057992
1575.000000	54.996412
1574.000000	54.928538
1573.000000	54.867558
1572.000000	54.805203
1571.000000	54.746145
1570.000000	54.682034
1569.000000	54.625063
1568.000000	54.570969
1567.000000	54.514832
1566.000000	54.470169
1565.000000	54.407114
1564.000000	54.363550
1563.000000	54.341220
1562.000000	54.289872
1561.000000	54.243646
1560.000000	54.216809
1559.000000	54.177825
1558.000000	54.145008
1557.000000	54.115411
1556.000000	54.085925
1555.000000	54.059082
1554.000000	54.018999
1553.000000	53.971774
1552.000000	53.930847
1551.000000	53.890803
1550.000000	53.837558
1549.000000	53.778303
1548.000000	53.722468
1547.000000	53.653909
1546.000000	53.580970
1545.000000	53.503304
1544.000000	53.407008
1543.000000	53.298189
1542.000000	53.202341
1541.000000	53.100144
1540.000000	52.990304
1539.000000	52.876268
1538.000000	52.761272
1537.000000	52.635338
1536.000000	52.504685
1535.000000	52.400718
1534.000000	52.272867
1533.000000	52.162462
1532.000000	52.030649
1531.000000	51.923120
1530.000000	51.787715
1529.000000	51.682815
1528.000000	51.589767
1527.000000	51.488614
1526.000000	51.381727
1525.000000	51.290560
1524.000000	51.195164
1523.000000	51.137399
1522.000000	51.057463
1521.000000	50.976178
1520.000000	50.909794
1519.000000	50.837346
1518.000000	50.782640
1517.000000	50.719780
1516.000000	50.650395
1515.000000	50.591317
1514.000000	50.546666
1513.000000	50.497322
1512.000000	50.506341
1511.000000	50.517475
1510.000000	50.488987
1509.000000	50.452439
1508.000000	50.407820
1507.000000	50.368912
1506.000000	50.333122
1505.000000	50.285880
1504.000000	50.274524
1503.000000	50.231485
1502.000000	50.216263
1501.000000	50.192083
1500.000000	50.178019
1499.000000	50.182667
1498.000000	50.183180
1497.000000	50.175682
1496.000000	50.201768
1495.000000	50.188004
1494.000000	50.230712
1493.000000	50.232668
1492.000000	50.260564
1491.000000	50.291330
1490.000000	50.346296
1489.000000	50.410347
1488.000000	50.455307
1487.000000	50.498744
1486.000000	50.552174
1485.000000	50.614035
1484.000000	50.703915
1483.000000	50.771352
1482.000000	50.811108
1481.000000	50.914509
1480.000000	50.955711
1479.000000	51.034275
1478.000000	51.120394
1477.000000	51.175809
1476.000000	51.254042
1475.000000	51.313039
1474.000000	51.389767
1473.000000	51.468521
1472.000000	51.523068
1471.000000	51.582031
1470.000000	51.659911
