PE UV       SUBTECH     SPECTRUM    ASCII       PEDS        4.00        
   -1
RTgAgneauUK 22.Sample.asc
18/03/09
16:04:44.00
18/03/09
16:04:44.00
Administrator

200.000000
1
Lambda 750
750N8071901
PerkinElmer UV WinLab 6.0.4.0738 / 1.61.00 Lambda 900

0
0
3350/servo 860.8/2
0
0
UV/VIS
1
1
1
CommonBeamDepol,150mm sphere / downward view
0
0
0
0
Program
Program
3350/servo 860.8/2
3350/0.2 860.8/0.2
3350/0.2 860.8/0.2
0
1
 
 
 
0
 
860.8
319.2
860.8
Front
100
on
 
 
0
0
0
 
0
 
 
 
0
 
 
0
0
0
0
0
 
 
 
 
0
0


0
0
#HDR
-1
-1
#GR
nm
%R
1.0
0.0
2350.000000
-1.000000
2151
8
70.327047
17.070150
#DATA
2350.000000	30.293491
2349.000000	30.718587
2348.000000	30.207287
2347.000000	31.015825
2346.000000	30.495707
2345.000000	30.451091
2344.000000	30.559101
2343.000000	30.190250
2342.000000	30.515772
2341.000000	30.338059
2340.000000	30.739623
2339.000000	30.921537
2338.000000	30.865297
2337.000000	31.058004
2336.000000	31.083643
2335.000000	31.021609
2334.000000	31.253165
2333.000000	31.212756
2332.000000	31.148760
2331.000000	31.177297
2330.000000	31.359813
2329.000000	31.081712
2328.000000	31.080216
2327.000000	30.926728
2326.000000	30.890890
2325.000000	31.081800
2324.000000	30.979424
2323.000000	30.853092
2322.000000	30.673699
2321.000000	30.624840
2320.000000	30.750140
2319.000000	30.831959
2318.000000	30.891795
2317.000000	30.780875
2316.000000	30.441297
2315.000000	30.361828
2314.000000	30.470597
2313.000000	30.339525
2312.000000	30.272543
2311.000000	30.259279
2310.000000	30.320444
2309.000000	30.154233
2308.000000	29.965537
2307.000000	29.904026
2306.000000	29.612867
2305.000000	29.618780
2304.000000	29.690350
2303.000000	29.720199
2302.000000	29.538344
2301.000000	29.332266
2300.000000	29.289167
2299.000000	29.196142
2298.000000	28.980449
2297.000000	28.763894
2296.000000	28.844845
2295.000000	28.735463
2294.000000	28.493887
2293.000000	28.639384
2292.000000	28.454493
2291.000000	28.476071
2290.000000	28.500145
2289.000000	28.352897
2288.000000	28.400737
2287.000000	28.435914
2286.000000	28.195891
2285.000000	28.226442
2284.000000	28.030545
2283.000000	27.805798
2282.000000	28.007748
2281.000000	28.177190
2280.000000	28.131332
2279.000000	28.052336
2278.000000	28.039335
2277.000000	28.007655
2276.000000	27.956746
2275.000000	28.111484
2274.000000	28.223555
2273.000000	28.204319
2272.000000	28.180774
2271.000000	28.349354
2270.000000	28.362262
2269.000000	28.408490
2268.000000	28.446816
2267.000000	28.516171
2266.000000	28.611844
2265.000000	28.734821
2264.000000	28.908830
2263.000000	29.144161
2262.000000	29.145816
2261.000000	29.223050
2260.000000	29.325549
2259.000000	29.558225
2258.000000	29.927881
2257.000000	30.082651
2256.000000	30.178134
2255.000000	30.421834
2254.000000	30.766407
2253.000000	30.851961
2252.000000	31.044742
2251.000000	31.382220
2250.000000	31.557467
2249.000000	31.786106
2248.000000	32.043000
2247.000000	32.326364
2246.000000	32.640122
2245.000000	32.676784
2244.000000	32.822035
2243.000000	33.130873
2242.000000	33.292273
2241.000000	33.477761
2240.000000	33.681390
2239.000000	33.933436
2238.000000	34.097904
2237.000000	34.226773
2236.000000	34.379268
2235.000000	34.503210
2234.000000	34.571792
2233.000000	34.616755
2232.000000	34.704329
2231.000000	34.825132
2230.000000	34.826865
2229.000000	34.846129
2228.000000	35.007309
2227.000000	35.013790
2226.000000	34.983570
2225.000000	34.964641
2224.000000	34.963132
2223.000000	34.881037
2222.000000	34.829426
2221.000000	34.843137
2220.000000	34.884332
2219.000000	34.813332
2218.000000	34.685318
2217.000000	34.590802
2216.000000	34.606679
2215.000000	34.612498
2214.000000	34.512986
2213.000000	34.494339
2212.000000	34.479573
2211.000000	34.387396
2210.000000	34.285170
2209.000000	34.274115
2208.000000	34.176957
2207.000000	34.032837
2206.000000	33.988417
2205.000000	33.872250
2204.000000	33.839550
2203.000000	33.747098
2202.000000	33.560323
2201.000000	33.453207
2200.000000	33.519365
2199.000000	33.436761
2198.000000	33.274224
2197.000000	33.136675
2196.000000	32.966628
2195.000000	32.850310
2194.000000	32.854859
2193.000000	32.791276
2192.000000	32.727484
2191.000000	32.691679
2190.000000	32.593853
2189.000000	32.428293
2188.000000	32.436741
2187.000000	32.362156
2186.000000	32.208815
2185.000000	32.088354
2184.000000	32.094728
2183.000000	32.034974
2182.000000	31.974113
2181.000000	32.013156
2180.000000	31.813036
2179.000000	31.936645
2178.000000	31.748318
2177.000000	31.832151
2176.000000	31.930416
2175.000000	32.007276
2174.000000	31.992510
2173.000000	31.976482
2172.000000	32.036495
2171.000000	32.043446
2170.000000	31.973192
2169.000000	32.202253
2168.000000	32.290808
2167.000000	32.336614
2166.000000	32.477716
2165.000000	32.484565
2164.000000	32.547911
2163.000000	32.581245
2162.000000	32.842203
2161.000000	33.125823
2160.000000	33.306751
2159.000000	33.252279
2158.000000	33.370266
2157.000000	33.538564
2156.000000	33.752578
2155.000000	33.868245
2154.000000	34.143589
2153.000000	34.341007
2152.000000	34.405624
2151.000000	34.533613
2150.000000	34.776137
2149.000000	35.025246
2148.000000	35.142358
2147.000000	35.378762
2146.000000	35.600127
2145.000000	35.707614
2144.000000	35.871945
2143.000000	36.022480
2142.000000	36.203181
2141.000000	36.405486
2140.000000	36.438843
2139.000000	36.600753
2138.000000	36.704095
2137.000000	36.753399
2136.000000	36.892053
2135.000000	37.005753
2134.000000	37.346236
2133.000000	37.240582
2132.000000	37.505482
2131.000000	37.657278
2130.000000	37.733290
2129.000000	37.966068
2128.000000	37.847807
2127.000000	37.873934
2126.000000	37.902913
2125.000000	37.913739
2124.000000	38.262571
2123.000000	38.262297
2122.000000	38.427141
2121.000000	38.434495
2120.000000	38.224829
2119.000000	38.431774
2118.000000	38.420545
2117.000000	38.388399
2116.000000	38.442389
2115.000000	38.597337
2114.000000	38.532887
2113.000000	38.578367
2112.000000	38.699407
2111.000000	38.511745
2110.000000	38.642600
2109.000000	38.761432
2108.000000	38.760890
2107.000000	38.719531
2106.000000	38.790134
2105.000000	38.724893
2104.000000	38.813580
2103.000000	38.730860
2102.000000	38.768752
2101.000000	38.933827
2100.000000	38.878123
2099.000000	38.799524
2098.000000	38.808593
2097.000000	38.900623
2096.000000	38.839377
2095.000000	38.872939
2094.000000	38.825571
2093.000000	38.765693
2092.000000	38.874675
2091.000000	38.752018
2090.000000	38.648889
2089.000000	38.621532
2088.000000	38.673975
2087.000000	38.562098
2086.000000	38.602442
2085.000000	38.621460
2084.000000	38.635282
2083.000000	38.442083
2082.000000	38.375576
2081.000000	38.285933
2080.000000	38.228466
2079.000000	38.183287
2078.000000	38.003390
2077.000000	37.960243
2076.000000	37.840916
2075.000000	37.642256
2074.000000	37.510058
2073.000000	37.412502
2072.000000	37.256272
2071.000000	37.135184
2070.000000	37.026490
2069.000000	36.833268
2068.000000	36.671966
2067.000000	36.506825
2066.000000	36.267087
2065.000000	36.118902
2064.000000	36.025752
2063.000000	35.788363
2062.000000	35.649048
2061.000000	35.475561
2060.000000	35.238021
2059.000000	35.032618
2058.000000	34.834855
2057.000000	34.723069
2056.000000	34.533582
2055.000000	34.301092
2054.000000	34.183266
2053.000000	34.091152
2052.000000	33.920590
2051.000000	33.715804
2050.000000	33.607190
2049.000000	33.514043
2048.000000	33.351798
2047.000000	33.245750
2046.000000	33.156646
2045.000000	33.077819
2044.000000	33.056477
2043.000000	33.045993
2042.000000	33.002129
2041.000000	33.035134
2040.000000	33.083615
2039.000000	33.032291
2038.000000	33.101624
2037.000000	33.211002
2036.000000	33.280865
2035.000000	33.384760
2034.000000	33.462467
2033.000000	33.596974
2032.000000	33.768906
2031.000000	33.913289
2030.000000	34.037970
2029.000000	34.157322
2028.000000	34.292768
2027.000000	34.447632
2026.000000	34.600372
2025.000000	34.720525
2024.000000	34.816194
2023.000000	34.934268
2022.000000	35.022188
2021.000000	35.089234
2020.000000	35.160171
2019.000000	35.190737
2018.000000	35.218351
2017.000000	35.245650
2016.000000	35.248004
2015.000000	35.280862
2014.000000	35.276381
2013.000000	35.235656
2012.000000	35.229051
2011.000000	35.201543
2010.000000	35.150511
2009.000000	35.073644
2008.000000	35.005627
2007.000000	34.904423
2006.000000	34.806002
2005.000000	34.746525
2004.000000	34.638108
2003.000000	34.560425
2002.000000	34.468293
2001.000000	34.334233
2000.000000	34.241089
1999.000000	34.127185
1998.000000	33.977006
1997.000000	33.850983
1996.000000	33.800071
1995.000000	33.657855
1994.000000	33.542374
1993.000000	33.443675
1992.000000	33.309635
1991.000000	33.142145
1990.000000	33.028432
1989.000000	32.900595
1988.000000	32.752487
1987.000000	32.634315
1986.000000	32.510457
1985.000000	32.437903
1984.000000	32.311061
1983.000000	32.137564
1982.000000	32.003010
1981.000000	31.928932
1980.000000	31.763325
1979.000000	31.600752
1978.000000	31.479988
1977.000000	31.332279
1976.000000	31.186885
1975.000000	31.077007
1974.000000	30.961713
1973.000000	30.865260
1972.000000	30.758846
1971.000000	30.593960
1970.000000	30.452251
1969.000000	30.341969
1968.000000	30.230996
1967.000000	30.116171
1966.000000	30.016169
1965.000000	29.870712
1964.000000	29.742647
1963.000000	29.655578
1962.000000	29.520477
1961.000000	29.403158
1960.000000	29.319144
1959.000000	29.200263
1958.000000	29.084309
1957.000000	29.010785
1956.000000	28.870944
1955.000000	28.734043
1954.000000	28.746237
1953.000000	28.619398
1952.000000	28.571053
1951.000000	28.507563
1950.000000	28.442928
1949.000000	28.358515
1948.000000	28.319672
1947.000000	28.278255
1946.000000	28.244980
1945.000000	28.291358
1944.000000	28.270838
1943.000000	28.172585
1942.000000	28.294610
1941.000000	28.280401
1940.000000	28.353688
1939.000000	28.432191
1938.000000	28.390112
1937.000000	28.563317
1936.000000	28.636657
1935.000000	28.740989
1934.000000	28.858338
1933.000000	29.028765
1932.000000	29.144629
1931.000000	29.284390
1930.000000	29.516834
1929.000000	29.729768
1928.000000	29.974323
1927.000000	30.193011
1926.000000	30.429717
1925.000000	30.629823
1924.000000	30.927291
1923.000000	31.206164
1922.000000	31.494153
1921.000000	31.820744
1920.000000	32.051104
1919.000000	32.480451
1918.000000	32.896357
1917.000000	33.282852
1916.000000	33.579652
1915.000000	34.066807
1914.000000	34.539980
1913.000000	35.010161
1912.000000	35.448358
1911.000000	35.898683
1910.000000	36.421494
1909.000000	36.883486
1908.000000	37.406063
1907.000000	37.986311
1906.000000	38.480725
1905.000000	39.060313
1904.000000	39.585983
1903.000000	40.170009
1902.000000	40.832267
1901.000000	41.420991
1900.000000	42.047267
1899.000000	42.613965
1898.000000	43.283985
1897.000000	43.870934
1896.000000	44.485794
1895.000000	45.118775
1894.000000	45.684599
1893.000000	46.283103
1892.000000	46.923850
1891.000000	47.432351
1890.000000	47.959908
1889.000000	48.505372
1888.000000	48.996031
1887.000000	49.549902
1886.000000	49.961891
1885.000000	50.467406
1884.000000	51.004605
1883.000000	51.426890
1882.000000	51.843071
1881.000000	52.288248
1880.000000	52.656232
1879.000000	53.029504
1878.000000	53.368458
1877.000000	53.726153
1876.000000	54.065401
1875.000000	54.368826
1874.000000	54.674838
1873.000000	54.955357
1872.000000	55.212685
1871.000000	55.489564
1870.000000	55.716740
1869.000000	55.941760
1868.000000	56.096949
1867.000000	56.248306
1866.000000	56.377189
1865.000000	56.482265
1864.000000	56.579994
1863.000000	56.689498
1862.000000	56.796559
1861.000000	56.894629
1860.000000	56.977828
1859.000000	57.054166
1858.000000	57.069893
1857.000000	57.095614
1856.000000	57.192097
1855.000000	57.237250
1854.000000	57.286215
1853.000000	57.313144
1852.000000	57.314973
1851.000000	57.288985
1850.000000	57.340094
1849.000000	57.407501
1848.000000	57.443874
1847.000000	57.417213
1846.000000	57.409188
1845.000000	57.368060
1844.000000	57.351865
1843.000000	57.321889
1842.000000	57.283613
1841.000000	57.252001
1840.000000	57.228188
1839.000000	57.202723
1838.000000	57.165732
1837.000000	57.112287
1836.000000	57.070466
1835.000000	57.024923
1834.000000	56.964247
1833.000000	56.919606
1832.000000	56.900411
1831.000000	56.872761
1830.000000	56.854709
1829.000000	56.785675
1828.000000	56.717241
1827.000000	56.661423
1826.000000	56.608864
1825.000000	56.579123
1824.000000	56.558103
1823.000000	56.515124
1822.000000	56.474099
1821.000000	56.443742
1820.000000	56.389087
1819.000000	56.348886
1818.000000	56.312216
1817.000000	56.262805
1816.000000	56.210397
1815.000000	56.189048
1814.000000	56.159473
1813.000000	56.111252
1812.000000	56.080827
1811.000000	56.046183
1810.000000	55.991139
1809.000000	55.949466
1808.000000	55.910356
1807.000000	55.864191
1806.000000	55.829335
1805.000000	55.789859
1804.000000	55.751164
1803.000000	55.718989
1802.000000	55.677078
1801.000000	55.631421
1800.000000	55.609007
1799.000000	55.575756
1798.000000	55.539986
1797.000000	55.499420
1796.000000	55.480413
1795.000000	55.469367
1794.000000	55.436516
1793.000000	55.394452
1792.000000	55.356095
1791.000000	55.328961
1790.000000	55.301965
1789.000000	55.276399
1788.000000	55.267144
1787.000000	55.220495
1786.000000	55.214638
1785.000000	55.200503
1784.000000	55.142790
1783.000000	55.101791
1782.000000	55.070662
1781.000000	55.018431
1780.000000	54.974165
1779.000000	54.939446
1778.000000	54.889603
1777.000000	54.821582
1776.000000	54.773405
1775.000000	54.733384
1774.000000	54.665687
1773.000000	54.595797
1772.000000	54.557087
1771.000000	54.500882
1770.000000	54.425594
1769.000000	54.359740
1768.000000	54.275807
1767.000000	54.221901
1766.000000	54.158186
1765.000000	54.100030
1764.000000	54.060708
1763.000000	53.981102
1762.000000	53.936708
1761.000000	53.874895
1760.000000	53.781887
1759.000000	53.742985
1758.000000	53.691969
1757.000000	53.622336
1756.000000	53.561888
1755.000000	53.529413
1754.000000	53.446081
1753.000000	53.366343
1752.000000	53.307565
1751.000000	53.260689
1750.000000	53.185778
1749.000000	53.132505
1748.000000	53.043055
1747.000000	52.973895
1746.000000	52.906523
1745.000000	52.829654
1744.000000	52.754079
1743.000000	52.721692
1742.000000	52.620626
1741.000000	52.583607
1740.000000	52.544063
1739.000000	52.476770
1738.000000	52.422848
1737.000000	52.367625
1736.000000	52.343416
1735.000000	52.338473
1734.000000	52.345431
1733.000000	52.305563
1732.000000	52.290309
1731.000000	52.328915
1730.000000	52.321085
1729.000000	52.380827
1728.000000	52.410040
1727.000000	52.467868
1726.000000	52.559834
1725.000000	52.619331
1724.000000	52.670072
1723.000000	52.778115
1722.000000	52.903753
1721.000000	53.012248
1720.000000	53.165482
1719.000000	53.259005
1718.000000	53.351327
1717.000000	53.462952
1716.000000	53.580975
1715.000000	53.663860
1714.000000	53.775566
1713.000000	53.885935
1712.000000	53.993259
1711.000000	54.092157
1710.000000	54.148045
1709.000000	54.216242
1708.000000	54.277819
1707.000000	54.335128
1706.000000	54.416025
1705.000000	54.419422
1704.000000	54.455791
1703.000000	54.465795
1702.000000	54.474618
1701.000000	54.506067
1700.000000	54.526029
1699.000000	54.542364
1698.000000	54.592375
1697.000000	54.610444
1696.000000	54.658658
1695.000000	54.659066
1694.000000	54.697547
1693.000000	54.746025
1692.000000	54.794612
1691.000000	54.865483
1690.000000	54.950283
1689.000000	55.017369
1688.000000	55.146410
1687.000000	55.256243
1686.000000	55.368547
1685.000000	55.519218
1684.000000	55.679351
1683.000000	55.848248
1682.000000	56.017429
1681.000000	56.213391
1680.000000	56.384543
1679.000000	56.568588
1678.000000	56.757561
1677.000000	56.954384
1676.000000	57.158667
1675.000000	57.354265
1674.000000	57.540148
1673.000000	57.728854
1672.000000	57.904235
1671.000000	58.062807
1670.000000	58.262191
1669.000000	58.469819
1668.000000	58.625882
1667.000000	58.779667
1666.000000	58.880388
1665.000000	59.000515
1664.000000	59.114738
1663.000000	59.188636
1662.000000	59.296169
1661.000000	59.398462
1660.000000	59.462379
1659.000000	59.536861
1658.000000	59.591222
1657.000000	59.630603
1656.000000	59.666730
1655.000000	59.716111
1654.000000	59.764400
1653.000000	59.761759
1652.000000	59.786803
1651.000000	59.800460
1650.000000	59.796978
1649.000000	59.796746
1648.000000	59.773461
1647.000000	59.777713
1646.000000	59.771344
1645.000000	59.743073
1644.000000	59.721426
1643.000000	59.703574
1642.000000	59.668933
1641.000000	59.651226
1640.000000	59.623589
1639.000000	59.585616
1638.000000	59.562021
1637.000000	59.526440
1636.000000	59.471776
1635.000000	59.437893
1634.000000	59.414769
1633.000000	59.361005
1632.000000	59.308793
1631.000000	59.272819
1630.000000	59.236927
1629.000000	59.194883
1628.000000	59.135879
1627.000000	59.084783
1626.000000	59.048003
1625.000000	58.994679
1624.000000	58.940948
1623.000000	58.899869
1622.000000	58.845546
1621.000000	58.773369
1620.000000	58.712915
1619.000000	58.655904
1618.000000	58.599826
1617.000000	58.543586
1616.000000	58.497693
1615.000000	58.424038
1614.000000	58.351276
1613.000000	58.290521
1612.000000	58.224452
1611.000000	58.153891
1610.000000	58.085164
1609.000000	58.015460
1608.000000	57.947710
1607.000000	57.876597
1606.000000	57.785251
1605.000000	57.711253
1604.000000	57.652041
1603.000000	57.590420
1602.000000	57.523708
1601.000000	57.444036
1600.000000	57.359820
1599.000000	57.299318
1598.000000	57.234928
1597.000000	57.180639
1596.000000	57.119605
1595.000000	57.036052
1594.000000	56.962975
1593.000000	56.896944
1592.000000	56.842941
1591.000000	56.786850
1590.000000	56.719725
1589.000000	56.643591
1588.000000	56.579184
1587.000000	56.532546
1586.000000	56.475539
1585.000000	56.418063
1584.000000	56.372631
1583.000000	56.327622
1582.000000	56.263639
1581.000000	56.199294
1580.000000	56.141757
1579.000000	56.091258
1578.000000	56.056296
1577.000000	55.984904
1576.000000	55.917465
1575.000000	55.879886
1574.000000	55.820483
1573.000000	55.764284
1572.000000	55.716043
1571.000000	55.659726
1570.000000	55.602462
1569.000000	55.557150
1568.000000	55.513501
1567.000000	55.470281
1566.000000	55.415437
1565.000000	55.361325
1564.000000	55.338258
1563.000000	55.313942
1562.000000	55.286022
1561.000000	55.256389
1560.000000	55.228431
1559.000000	55.188756
1558.000000	55.148343
1557.000000	55.135749
1556.000000	55.104652
1555.000000	55.085183
1554.000000	55.069429
1553.000000	55.026772
1552.000000	54.980838
1551.000000	54.943674
1550.000000	54.909409
1549.000000	54.873854
1548.000000	54.822132
1547.000000	54.750996
1546.000000	54.684128
1545.000000	54.609356
1544.000000	54.525367
1543.000000	54.443149
1542.000000	54.364220
1541.000000	54.281281
1540.000000	54.187476
1539.000000	54.087621
1538.000000	53.977044
1537.000000	53.868408
1536.000000	53.774781
1535.000000	53.669619
1534.000000	53.563120
1533.000000	53.478669
1532.000000	53.363773
1531.000000	53.260665
1530.000000	53.172991
1529.000000	53.089102
1528.000000	52.993305
1527.000000	52.917405
1526.000000	52.827773
1525.000000	52.755121
1524.000000	52.663408
1523.000000	52.604145
1522.000000	52.550988
1521.000000	52.483665
1520.000000	52.406485
1519.000000	52.358572
1518.000000	52.295781
1517.000000	52.244424
1516.000000	52.204392
1515.000000	52.138663
1514.000000	52.101985
1513.000000	52.091702
1512.000000	52.101163
1511.000000	52.106588
1510.000000	52.094351
1509.000000	52.049365
1508.000000	51.973522
1507.000000	51.948259
1506.000000	51.902378
1505.000000	51.887980
1504.000000	51.858695
1503.000000	51.832227
1502.000000	51.805088
1501.000000	51.784236
1500.000000	51.783074
1499.000000	51.796302
1498.000000	51.788088
1497.000000	51.781930
1496.000000	51.790145
1495.000000	51.806222
1494.000000	51.827003
1493.000000	51.852904
1492.000000	51.869514
1491.000000	51.895236
1490.000000	51.945571
1489.000000	51.967273
1488.000000	52.016749
1487.000000	52.068071
1486.000000	52.105393
1485.000000	52.185115
1484.000000	52.249467
1483.000000	52.286681
1482.000000	52.355653
1481.000000	52.415441
1480.000000	52.476930
1479.000000	52.533828
1478.000000	52.587999
1477.000000	52.664278
1476.000000	52.733465
1475.000000	52.790360
1474.000000	52.858213
1473.000000	52.909164
1472.000000	52.967719
1471.000000	53.017900
1470.000000	53.078883
