PE UV       SUBTECH     SPECTRUM    ASCII       PEDS        4.00        
   -1
RTgChevreUK 22.Sample.asc
18/03/09
09:23:24.00
18/03/09
09:23:24.00
Administrator

200.000000
1
Lambda 750
750N8071901
PerkinElmer UV WinLab 6.0.4.0738 / 1.61.00 Lambda 900

0
0
3350/servo 860.8/2
0
0
UV/VIS
1
1
1
CommonBeamDepol,150mm sphere / downward view
0
0
0
0
Program
Program
3350/servo 860.8/2
3350/0.2 860.8/0.2
3350/0.2 860.8/0.2
0
1
 
 
 
0
 
860.8
319.2
860.8
Front
100
on
 
 
0
0
0
 
0
 
 
 
0
 
 
0
0
0
0
0
 
 
 
 
0
0


0
0
#HDR
-1
-1
#GR
nm
%R
1.0
0.0
2350.000000
-1.000000
2151
8
63.572732
10.165739
#DATA
2350.000000	29.859919
2349.000000	29.680628
2348.000000	29.577621
2347.000000	30.339012
2346.000000	29.837739
2345.000000	29.690207
2344.000000	29.739562
2343.000000	29.614231
2342.000000	29.840296
2341.000000	29.987229
2340.000000	29.482541
2339.000000	29.970243
2338.000000	30.227579
2337.000000	30.079338
2336.000000	30.083071
2335.000000	30.421356
2334.000000	30.207939
2333.000000	30.518717
2332.000000	30.627205
2331.000000	30.588187
2330.000000	30.306085
2329.000000	30.131724
2328.000000	29.987003
2327.000000	30.215830
2326.000000	30.089412
2325.000000	30.287150
2324.000000	30.218672
2323.000000	30.138925
2322.000000	30.077955
2321.000000	29.921862
2320.000000	29.895524
2319.000000	29.897849
2318.000000	30.223476
2317.000000	30.049588
2316.000000	30.013377
2315.000000	29.911502
2314.000000	29.956515
2313.000000	29.698875
2312.000000	29.465709
2311.000000	29.474756
2310.000000	29.453364
2309.000000	29.515850
2308.000000	29.538916
2307.000000	29.443046
2306.000000	29.464617
2305.000000	29.355068
2304.000000	29.341227
2303.000000	29.328281
2302.000000	29.125617
2301.000000	28.943104
2300.000000	29.003996
2299.000000	28.976127
2298.000000	29.077687
2297.000000	29.000984
2296.000000	28.812421
2295.000000	28.637400
2294.000000	28.558202
2293.000000	28.443130
2292.000000	28.504283
2291.000000	28.412209
2290.000000	28.433685
2289.000000	28.308012
2288.000000	28.379584
2287.000000	28.351668
2286.000000	28.204879
2285.000000	28.150373
2284.000000	28.193936
2283.000000	28.292327
2282.000000	28.306590
2281.000000	28.246703
2280.000000	28.148738
2279.000000	28.254609
2278.000000	28.250162
2277.000000	28.148851
2276.000000	28.192563
2275.000000	28.143645
2274.000000	28.178521
2273.000000	28.307198
2272.000000	28.459608
2271.000000	28.448144
2270.000000	28.396490
2269.000000	28.442529
2268.000000	28.391088
2267.000000	28.507270
2266.000000	28.657719
2265.000000	28.796703
2264.000000	28.859893
2263.000000	28.945162
2262.000000	28.986041
2261.000000	29.085878
2260.000000	29.155193
2259.000000	29.346395
2258.000000	29.615440
2257.000000	29.677097
2256.000000	29.643366
2255.000000	29.859784
2254.000000	29.980032
2253.000000	30.036110
2252.000000	30.162565
2251.000000	30.355414
2250.000000	30.492124
2249.000000	30.717750
2248.000000	30.928767
2247.000000	31.084694
2246.000000	31.283399
2245.000000	31.461212
2244.000000	31.489727
2243.000000	31.682363
2242.000000	31.830701
2241.000000	31.896870
2240.000000	32.066244
2239.000000	32.091388
2238.000000	32.100880
2237.000000	32.263083
2236.000000	32.275156
2235.000000	32.256922
2234.000000	32.372640
2233.000000	32.476638
2232.000000	32.565270
2231.000000	32.591595
2230.000000	32.611556
2229.000000	32.728977
2228.000000	32.787983
2227.000000	32.710922
2226.000000	32.727201
2225.000000	32.695370
2224.000000	32.719502
2223.000000	32.676944
2222.000000	32.603020
2221.000000	32.583484
2220.000000	32.659676
2219.000000	32.659885
2218.000000	32.572435
2217.000000	32.578686
2216.000000	32.560016
2215.000000	32.497473
2214.000000	32.402867
2213.000000	32.437161
2212.000000	32.368852
2211.000000	32.321642
2210.000000	32.253999
2209.000000	32.219411
2208.000000	32.115906
2207.000000	32.099964
2206.000000	32.035584
2205.000000	32.035108
2204.000000	32.045406
2203.000000	31.930523
2202.000000	31.877378
2201.000000	31.825896
2200.000000	31.664672
2199.000000	31.702714
2198.000000	31.616095
2197.000000	31.635694
2196.000000	31.604092
2195.000000	31.480682
2194.000000	31.377588
2193.000000	31.304622
2192.000000	31.343623
2191.000000	31.245734
2190.000000	31.265847
2189.000000	31.266857
2188.000000	31.086254
2187.000000	30.993963
2186.000000	31.073778
2185.000000	31.107859
2184.000000	31.279914
2183.000000	31.134712
2182.000000	30.999094
2181.000000	30.943305
2180.000000	30.958999
2179.000000	30.876057
2178.000000	30.817587
2177.000000	30.991629
2176.000000	31.042590
2175.000000	30.981116
2174.000000	31.018121
2173.000000	31.012897
2172.000000	31.153065
2171.000000	31.114021
2170.000000	31.114997
2169.000000	31.267693
2168.000000	31.418214
2167.000000	31.493364
2166.000000	31.494779
2165.000000	31.619430
2164.000000	31.632311
2163.000000	31.609521
2162.000000	31.937349
2161.000000	31.915957
2160.000000	32.020939
2159.000000	32.034564
2158.000000	32.075360
2157.000000	32.357561
2156.000000	32.668972
2155.000000	32.541885
2154.000000	32.722067
2153.000000	32.873026
2152.000000	32.969628
2151.000000	33.003477
2150.000000	33.161241
2149.000000	33.203741
2148.000000	33.408597
2147.000000	33.487294
2146.000000	33.594222
2145.000000	33.754764
2144.000000	33.858815
2143.000000	33.887200
2142.000000	34.010811
2141.000000	34.178841
2140.000000	34.356761
2139.000000	34.564065
2138.000000	34.473032
2137.000000	34.567121
2136.000000	34.649550
2135.000000	34.771045
2134.000000	34.885104
2133.000000	34.579418
2132.000000	34.950979
2131.000000	34.928089
2130.000000	35.175449
2129.000000	35.105756
2128.000000	35.152584
2127.000000	35.129750
2126.000000	35.248517
2125.000000	35.281432
2124.000000	35.314773
2123.000000	35.417558
2122.000000	35.556654
2121.000000	35.610514
2120.000000	35.420240
2119.000000	35.452871
2118.000000	35.569850
2117.000000	35.675045
2116.000000	35.581328
2115.000000	35.685685
2114.000000	35.703907
2113.000000	35.713788
2112.000000	35.787964
2111.000000	35.677529
2110.000000	35.631015
2109.000000	35.765563
2108.000000	35.804943
2107.000000	35.829139
2106.000000	35.807634
2105.000000	35.771534
2104.000000	35.782145
2103.000000	35.794081
2102.000000	35.779677
2101.000000	35.864146
2100.000000	35.935799
2099.000000	35.796525
2098.000000	35.730713
2097.000000	35.899117
2096.000000	35.770791
2095.000000	35.822813
2094.000000	35.731130
2093.000000	35.729315
2092.000000	35.743990
2091.000000	35.749432
2090.000000	35.715403
2089.000000	35.646488
2088.000000	35.619173
2087.000000	35.620734
2086.000000	35.699934
2085.000000	35.695266
2084.000000	35.590479
2083.000000	35.534843
2082.000000	35.410943
2081.000000	35.396301
2080.000000	35.325293
2079.000000	35.254167
2078.000000	35.201982
2077.000000	35.230006
2076.000000	35.078738
2075.000000	34.949238
2074.000000	34.868035
2073.000000	34.804261
2072.000000	34.688696
2071.000000	34.705041
2070.000000	34.553929
2069.000000	34.382294
2068.000000	34.265265
2067.000000	34.211075
2066.000000	34.092297
2065.000000	33.981316
2064.000000	33.875803
2063.000000	33.744311
2062.000000	33.623744
2061.000000	33.443626
2060.000000	33.351843
2059.000000	33.291497
2058.000000	33.191767
2057.000000	33.132760
2056.000000	32.991773
2055.000000	32.856972
2054.000000	32.778118
2053.000000	32.692096
2052.000000	32.565850
2051.000000	32.389729
2050.000000	32.302249
2049.000000	32.243619
2048.000000	32.248840
2047.000000	32.216547
2046.000000	32.072562
2045.000000	32.024398
2044.000000	32.043467
2043.000000	32.064951
2042.000000	32.061366
2041.000000	32.059629
2040.000000	32.069859
2039.000000	32.082047
2038.000000	32.099364
2037.000000	32.144473
2036.000000	32.187911
2035.000000	32.287213
2034.000000	32.352891
2033.000000	32.392858
2032.000000	32.504593
2031.000000	32.579138
2030.000000	32.656023
2029.000000	32.728007
2028.000000	32.800579
2027.000000	32.892034
2026.000000	32.980629
2025.000000	33.040251
2024.000000	33.072644
2023.000000	33.139745
2022.000000	33.159625
2021.000000	33.188922
2020.000000	33.277176
2019.000000	33.303670
2018.000000	33.277122
2017.000000	33.244019
2016.000000	33.247387
2015.000000	33.304251
2014.000000	33.284552
2013.000000	33.219177
2012.000000	33.210875
2011.000000	33.163421
2010.000000	33.097404
2009.000000	33.066721
2008.000000	33.027127
2007.000000	32.973442
2006.000000	32.879958
2005.000000	32.770372
2004.000000	32.648432
2003.000000	32.584054
2002.000000	32.552247
2001.000000	32.452775
2000.000000	32.381759
1999.000000	32.347456
1998.000000	32.245857
1997.000000	32.129048
1996.000000	32.100048
1995.000000	32.039366
1994.000000	31.909668
1993.000000	31.839024
1992.000000	31.717301
1991.000000	31.628443
1990.000000	31.582873
1989.000000	31.503894
1988.000000	31.404444
1987.000000	31.315848
1986.000000	31.245991
1985.000000	31.156093
1984.000000	31.069311
1983.000000	30.990498
1982.000000	30.919605
1981.000000	30.878592
1980.000000	30.768669
1979.000000	30.670029
1978.000000	30.608653
1977.000000	30.501343
1976.000000	30.440339
1975.000000	30.345529
1974.000000	30.236486
1973.000000	30.171608
1972.000000	30.122924
1971.000000	30.033921
1970.000000	30.011052
1969.000000	29.953676
1968.000000	29.881765
1967.000000	29.807934
1966.000000	29.749085
1965.000000	29.675794
1964.000000	29.562500
1963.000000	29.505179
1962.000000	29.462238
1961.000000	29.384486
1960.000000	29.320835
1959.000000	29.249754
1958.000000	29.213272
1957.000000	29.157813
1956.000000	29.164110
1955.000000	29.051747
1954.000000	29.042085
1953.000000	28.991771
1952.000000	29.012631
1951.000000	28.995521
1950.000000	28.918771
1949.000000	28.929730
1948.000000	28.883782
1947.000000	28.840366
1946.000000	28.831927
1945.000000	28.864331
1944.000000	28.876195
1943.000000	28.899048
1942.000000	28.951531
1941.000000	28.966778
1940.000000	29.022361
1939.000000	29.046807
1938.000000	29.151671
1937.000000	29.198152
1936.000000	29.352588
1935.000000	29.369519
1934.000000	29.411854
1933.000000	29.569344
1932.000000	29.625291
1931.000000	29.777153
1930.000000	29.907912
1929.000000	30.001368
1928.000000	30.242407
1927.000000	30.395427
1926.000000	30.485670
1925.000000	30.742496
1924.000000	30.925232
1923.000000	31.159703
1922.000000	31.397894
1921.000000	31.603636
1920.000000	31.780670
1919.000000	32.020347
1918.000000	32.375245
1917.000000	32.542517
1916.000000	32.786880
1915.000000	33.017589
1914.000000	33.344603
1913.000000	33.760295
1912.000000	34.033458
1911.000000	34.395057
1910.000000	34.709087
1909.000000	35.014475
1908.000000	35.375890
1907.000000	35.836602
1906.000000	36.149000
1905.000000	36.538578
1904.000000	36.923273
1903.000000	37.391186
1902.000000	37.831899
1901.000000	38.221485
1900.000000	38.676630
1899.000000	39.132973
1898.000000	39.576157
1897.000000	39.981447
1896.000000	40.336332
1895.000000	40.887388
1894.000000	41.276190
1893.000000	41.656213
1892.000000	42.162414
1891.000000	42.587556
1890.000000	42.977154
1889.000000	43.339329
1888.000000	43.831534
1887.000000	44.191323
1886.000000	44.527970
1885.000000	44.952984
1884.000000	45.255138
1883.000000	45.587824
1882.000000	45.894979
1881.000000	46.227684
1880.000000	46.522310
1879.000000	46.843154
1878.000000	47.095289
1877.000000	47.368682
1876.000000	47.645392
1875.000000	47.862806
1874.000000	48.101240
1873.000000	48.333878
1872.000000	48.568835
1871.000000	48.735598
1870.000000	48.919055
1869.000000	49.083623
1868.000000	49.242650
1867.000000	49.348910
1866.000000	49.431418
1865.000000	49.527223
1864.000000	49.639727
1863.000000	49.744552
1862.000000	49.785429
1861.000000	49.877498
1860.000000	49.937781
1859.000000	49.987704
1858.000000	50.026109
1857.000000	50.081779
1856.000000	50.118795
1855.000000	50.130643
1854.000000	50.191068
1853.000000	50.183924
1852.000000	50.208907
1851.000000	50.237380
1850.000000	50.250049
1849.000000	50.240802
1848.000000	50.241361
1847.000000	50.237341
1846.000000	50.272014
1845.000000	50.278643
1844.000000	50.208057
1843.000000	50.147873
1842.000000	50.131157
1841.000000	50.119780
1840.000000	50.118091
1839.000000	50.094976
1838.000000	50.039668
1837.000000	49.981176
1836.000000	49.956625
1835.000000	49.901442
1834.000000	49.834557
1833.000000	49.802038
1832.000000	49.787196
1831.000000	49.752633
1830.000000	49.714976
1829.000000	49.684607
1828.000000	49.630701
1827.000000	49.594712
1826.000000	49.553228
1825.000000	49.526096
1824.000000	49.505606
1823.000000	49.465327
1822.000000	49.396283
1821.000000	49.358891
1820.000000	49.311982
1819.000000	49.291359
1818.000000	49.272773
1817.000000	49.236552
1816.000000	49.197053
1815.000000	49.177742
1814.000000	49.131185
1813.000000	49.078480
1812.000000	49.069705
1811.000000	49.031846
1810.000000	48.998281
1809.000000	48.975689
1808.000000	48.923967
1807.000000	48.874060
1806.000000	48.853365
1805.000000	48.854830
1804.000000	48.821920
1803.000000	48.788574
1802.000000	48.771066
1801.000000	48.749418
1800.000000	48.708360
1799.000000	48.674465
1798.000000	48.661208
1797.000000	48.641570
1796.000000	48.621432
1795.000000	48.603572
1794.000000	48.602074
1793.000000	48.577061
1792.000000	48.540923
1791.000000	48.536532
1790.000000	48.517776
1789.000000	48.485187
1788.000000	48.479377
1787.000000	48.458157
1786.000000	48.441344
1785.000000	48.412864
1784.000000	48.376031
1783.000000	48.376026
1782.000000	48.356923
1781.000000	48.309603
1780.000000	48.274763
1779.000000	48.249168
1778.000000	48.205180
1777.000000	48.155713
1776.000000	48.140698
1775.000000	48.110000
1774.000000	48.037760
1773.000000	47.993693
1772.000000	47.950473
1771.000000	47.892145
1770.000000	47.837751
1769.000000	47.799909
1768.000000	47.738267
1767.000000	47.693270
1766.000000	47.653792
1765.000000	47.608794
1764.000000	47.575116
1763.000000	47.529324
1762.000000	47.443218
1761.000000	47.417069
1760.000000	47.351764
1759.000000	47.294393
1758.000000	47.269606
1757.000000	47.219263
1756.000000	47.178565
1755.000000	47.121802
1754.000000	47.084249
1753.000000	47.003080
1752.000000	46.968092
1751.000000	46.951353
1750.000000	46.884265
1749.000000	46.845280
1748.000000	46.807249
1747.000000	46.743030
1746.000000	46.694673
1745.000000	46.619574
1744.000000	46.575451
1743.000000	46.535415
1742.000000	46.457631
1741.000000	46.412606
1740.000000	46.391888
1739.000000	46.320389
1738.000000	46.297860
1737.000000	46.231874
1736.000000	46.228421
1735.000000	46.220625
1734.000000	46.211527
1733.000000	46.202960
1732.000000	46.198620
1731.000000	46.223364
1730.000000	46.231562
1729.000000	46.257694
1728.000000	46.321733
1727.000000	46.375499
1726.000000	46.427991
1725.000000	46.524067
1724.000000	46.577661
1723.000000	46.640330
1722.000000	46.723500
1721.000000	46.794092
1720.000000	46.885728
1719.000000	46.978113
1718.000000	47.096905
1717.000000	47.182863
1716.000000	47.257429
1715.000000	47.348468
1714.000000	47.443037
1713.000000	47.516429
1712.000000	47.578288
1711.000000	47.648732
1710.000000	47.712063
1709.000000	47.768251
1708.000000	47.847099
1707.000000	47.901117
1706.000000	47.920495
1705.000000	47.932509
1704.000000	47.968258
1703.000000	47.980260
1702.000000	48.004482
1701.000000	48.018189
1700.000000	48.039229
1699.000000	48.032623
1698.000000	48.058996
1697.000000	48.067505
1696.000000	48.139640
1695.000000	48.161789
1694.000000	48.189349
1693.000000	48.253084
1692.000000	48.266470
1691.000000	48.341866
1690.000000	48.423861
1689.000000	48.516060
1688.000000	48.592583
1687.000000	48.698770
1686.000000	48.826139
1685.000000	48.939239
1684.000000	49.089459
1683.000000	49.245713
1682.000000	49.381974
1681.000000	49.565538
1680.000000	49.717121
1679.000000	49.863410
1678.000000	50.063440
1677.000000	50.200436
1676.000000	50.370745
1675.000000	50.552533
1674.000000	50.724102
1673.000000	50.881135
1672.000000	51.029072
1671.000000	51.176709
1670.000000	51.333453
1669.000000	51.521825
1668.000000	51.630297
1667.000000	51.765904
1666.000000	51.876554
1665.000000	51.964355
1664.000000	52.040166
1663.000000	52.145680
1662.000000	52.210942
1661.000000	52.289800
1660.000000	52.382261
1659.000000	52.423127
1658.000000	52.459871
1657.000000	52.492299
1656.000000	52.547967
1655.000000	52.565733
1654.000000	52.583155
1653.000000	52.608833
1652.000000	52.630106
1651.000000	52.608519
1650.000000	52.652462
1649.000000	52.629844
1648.000000	52.608626
1647.000000	52.616010
1646.000000	52.600489
1645.000000	52.563433
1644.000000	52.539572
1643.000000	52.547151
1642.000000	52.517413
1641.000000	52.490113
1640.000000	52.461369
1639.000000	52.423682
1638.000000	52.399566
1637.000000	52.377518
1636.000000	52.324619
1635.000000	52.280095
1634.000000	52.252575
1633.000000	52.189485
1632.000000	52.167884
1631.000000	52.123626
1630.000000	52.074707
1629.000000	52.015187
1628.000000	51.960071
1627.000000	51.916019
1626.000000	51.879952
1625.000000	51.831025
1624.000000	51.785129
1623.000000	51.736358
1622.000000	51.689856
1621.000000	51.645431
1620.000000	51.603340
1619.000000	51.537729
1618.000000	51.476302
1617.000000	51.428774
1616.000000	51.378059
1615.000000	51.322797
1614.000000	51.267639
1613.000000	51.213854
1612.000000	51.138950
1611.000000	51.079079
1610.000000	51.034245
1609.000000	50.955163
1608.000000	50.895459
1607.000000	50.846414
1606.000000	50.777422
1605.000000	50.716809
1604.000000	50.651201
1603.000000	50.572755
1602.000000	50.499475
1601.000000	50.443924
1600.000000	50.390577
1599.000000	50.338132
1598.000000	50.273665
1597.000000	50.210236
1596.000000	50.164493
1595.000000	50.113879
1594.000000	50.051162
1593.000000	49.994473
1592.000000	49.940979
1591.000000	49.889815
1590.000000	49.843200
1589.000000	49.784968
1588.000000	49.738499
1587.000000	49.690188
1586.000000	49.634517
1585.000000	49.587939
1584.000000	49.547277
1583.000000	49.499280
1582.000000	49.446848
1581.000000	49.412237
1580.000000	49.372228
1579.000000	49.315717
1578.000000	49.267603
1577.000000	49.208335
1576.000000	49.160620
1575.000000	49.119945
1574.000000	49.068812
1573.000000	49.028664
1572.000000	48.978402
1571.000000	48.920609
1570.000000	48.878114
1569.000000	48.843224
1568.000000	48.800072
1567.000000	48.779217
1566.000000	48.738133
1565.000000	48.702014
1564.000000	48.679121
1563.000000	48.652173
1562.000000	48.614771
1561.000000	48.588448
1560.000000	48.564230
1559.000000	48.529200
1558.000000	48.517784
1557.000000	48.501176
1556.000000	48.450029
1555.000000	48.418688
1554.000000	48.407739
1553.000000	48.377493
1552.000000	48.358492
1551.000000	48.331436
1550.000000	48.289548
1549.000000	48.255306
1548.000000	48.204852
1547.000000	48.152500
1546.000000	48.081185
1545.000000	48.029992
1544.000000	47.964229
1543.000000	47.891730
1542.000000	47.817509
1541.000000	47.725363
1540.000000	47.667789
1539.000000	47.580962
1538.000000	47.495626
1537.000000	47.425864
1536.000000	47.332286
1535.000000	47.240626
1534.000000	47.162511
1533.000000	47.087862
1532.000000	47.000945
1531.000000	46.935597
1530.000000	46.868377
1529.000000	46.789817
1528.000000	46.714214
1527.000000	46.654594
1526.000000	46.589066
1525.000000	46.511710
1524.000000	46.474806
1523.000000	46.438594
1522.000000	46.365494
1521.000000	46.312625
1520.000000	46.288570
1519.000000	46.238726
1518.000000	46.187639
1517.000000	46.141914
1516.000000	46.121640
1515.000000	46.090554
1514.000000	46.091991
1513.000000	46.098528
1512.000000	46.091821
1511.000000	46.075939
1510.000000	46.046625
1509.000000	46.031508
1508.000000	45.974938
1507.000000	45.945817
1506.000000	45.922608
1505.000000	45.905615
1504.000000	45.897090
1503.000000	45.877532
1502.000000	45.869893
1501.000000	45.857637
1500.000000	45.839465
1499.000000	45.847908
1498.000000	45.846782
1497.000000	45.869712
1496.000000	45.892274
1495.000000	45.892200
1494.000000	45.905850
1493.000000	45.935078
1492.000000	45.936188
1491.000000	45.944984
1490.000000	45.980915
1489.000000	46.005150
1488.000000	46.026081
1487.000000	46.076842
1486.000000	46.067449
1485.000000	46.116371
1484.000000	46.167679
1483.000000	46.217834
1482.000000	46.262142
1481.000000	46.298409
1480.000000	46.348681
1479.000000	46.400414
1478.000000	46.442769
1477.000000	46.492296
1476.000000	46.539100
1475.000000	46.602298
1474.000000	46.627118
1473.000000	46.683943
1472.000000	46.725530
1471.000000	46.746044
1470.000000	46.813453
