PE UV       SUBTECH     SPECTRUM    ASCII       PEDS        4.00        
   -1
RTgChevreUK 52.Sample.asc
18/03/09
14:24:50.00
18/03/09
14:24:50.00
Administrator

200.000000
1
Lambda 750
750N8071901
PerkinElmer UV WinLab 6.0.4.0738 / 1.61.00 Lambda 900

0
0
3350/servo 860.8/2
0
0
UV/VIS
1
1
1
CommonBeamDepol,150mm sphere / downward view
0
0
0
0
Program
Program
3350/servo 860.8/2
3350/0.2 860.8/0.2
3350/0.2 860.8/0.2
0
1
 
 
 
0
 
860.8
319.2
860.8
Front
100
on
 
 
0
0
0
 
0
 
 
 
0
 
 
0
0
0
0
0
 
 
 
 
0
0


0
0
#HDR
-1
-1
#GR
nm
%R
1.0
0.0
2350.000000
-1.000000
2151
8
57.710587
9.266614
#DATA
2350.000000	27.709548
2349.000000	27.531428
2348.000000	27.665149
2347.000000	28.291505
2346.000000	28.188536
2345.000000	28.005262
2344.000000	27.584508
2343.000000	27.598238
2342.000000	27.639578
2341.000000	27.686047
2340.000000	27.725083
2339.000000	27.575131
2338.000000	28.084363
2337.000000	28.111125
2336.000000	28.223164
2335.000000	28.606689
2334.000000	28.705379
2333.000000	28.652108
2332.000000	28.374070
2331.000000	28.510872
2330.000000	28.066661
2329.000000	28.106785
2328.000000	28.179806
2327.000000	28.253624
2326.000000	28.038436
2325.000000	28.048331
2324.000000	28.106984
2323.000000	28.261371
2322.000000	27.728007
2321.000000	28.001590
2320.000000	27.896217
2319.000000	28.008525
2318.000000	27.958339
2317.000000	28.020689
2316.000000	28.153537
2315.000000	27.753727
2314.000000	27.915828
2313.000000	27.726513
2312.000000	27.603083
2311.000000	27.645851
2310.000000	27.690254
2309.000000	27.892820
2308.000000	27.683818
2307.000000	27.486576
2306.000000	27.156979
2305.000000	27.212618
2304.000000	27.270812
2303.000000	27.495585
2302.000000	27.325337
2301.000000	27.131183
2300.000000	27.030964
2299.000000	27.144348
2298.000000	27.108471
2297.000000	26.936677
2296.000000	26.931135
2295.000000	26.931549
2294.000000	26.910709
2293.000000	26.679594
2292.000000	26.601074
2291.000000	26.592534
2290.000000	26.709546
2289.000000	26.592908
2288.000000	26.807038
2287.000000	26.648708
2286.000000	26.528207
2285.000000	26.609271
2284.000000	26.564211
2283.000000	26.441856
2282.000000	26.579057
2281.000000	26.631751
2280.000000	26.495288
2279.000000	26.470045
2278.000000	26.454617
2277.000000	26.497245
2276.000000	26.523160
2275.000000	26.533732
2274.000000	26.609054
2273.000000	26.708842
2272.000000	26.756412
2271.000000	26.757623
2270.000000	26.864644
2269.000000	26.740847
2268.000000	26.731219
2267.000000	26.760609
2266.000000	26.751627
2265.000000	26.837961
2264.000000	26.940687
2263.000000	27.024525
2262.000000	27.177633
2261.000000	27.332527
2260.000000	27.317875
2259.000000	27.383086
2258.000000	27.534025
2257.000000	27.659789
2256.000000	27.687034
2255.000000	27.840598
2254.000000	28.056075
2253.000000	28.247308
2252.000000	28.349162
2251.000000	28.407150
2250.000000	28.423567
2249.000000	28.560009
2248.000000	28.651242
2247.000000	28.717019
2246.000000	28.890755
2245.000000	29.044922
2244.000000	29.264217
2243.000000	29.509695
2242.000000	29.595083
2241.000000	29.679538
2240.000000	29.805615
2239.000000	29.879154
2238.000000	29.908938
2237.000000	29.937413
2236.000000	30.026739
2235.000000	29.991868
2234.000000	29.992124
2233.000000	30.070901
2232.000000	30.178752
2231.000000	30.277952
2230.000000	30.330733
2229.000000	30.247448
2228.000000	30.340630
2227.000000	30.405700
2226.000000	30.359137
2225.000000	30.280878
2224.000000	30.283474
2223.000000	30.261750
2222.000000	30.189341
2221.000000	30.236390
2220.000000	30.330914
2219.000000	30.327422
2218.000000	30.236106
2217.000000	30.164809
2216.000000	30.173988
2215.000000	30.175848
2214.000000	30.060710
2213.000000	30.123137
2212.000000	30.161158
2211.000000	30.023389
2210.000000	29.955982
2209.000000	29.898883
2208.000000	29.818762
2207.000000	29.770016
2206.000000	29.722945
2205.000000	29.830679
2204.000000	29.764315
2203.000000	29.645902
2202.000000	29.666319
2201.000000	29.553646
2200.000000	29.503496
2199.000000	29.582361
2198.000000	29.605543
2197.000000	29.476453
2196.000000	29.383613
2195.000000	29.338378
2194.000000	29.227345
2193.000000	29.258678
2192.000000	29.276625
2191.000000	29.193251
2190.000000	29.045355
2189.000000	29.083467
2188.000000	29.012360
2187.000000	28.975785
2186.000000	28.908724
2185.000000	28.912806
2184.000000	28.926237
2183.000000	28.977663
2182.000000	28.934596
2181.000000	28.950004
2180.000000	28.849795
2179.000000	28.895257
2178.000000	28.648933
2177.000000	28.851959
2176.000000	28.857309
2175.000000	28.926206
2174.000000	29.041483
2173.000000	29.019454
2172.000000	28.982778
2171.000000	29.029007
2170.000000	29.157376
2169.000000	29.251177
2168.000000	29.297401
2167.000000	29.403124
2166.000000	29.434292
2165.000000	29.526005
2164.000000	29.494476
2163.000000	29.525600
2162.000000	29.798270
2161.000000	29.748443
2160.000000	29.831606
2159.000000	30.020607
2158.000000	30.058500
2157.000000	29.985227
2156.000000	30.138194
2155.000000	30.344701
2154.000000	30.441721
2153.000000	30.579482
2152.000000	30.736070
2151.000000	30.815581
2150.000000	30.807749
2149.000000	31.043919
2148.000000	30.820865
2147.000000	31.032071
2146.000000	31.243864
2145.000000	31.216657
2144.000000	31.355010
2143.000000	31.551927
2142.000000	31.672922
2141.000000	31.765793
2140.000000	31.810439
2139.000000	31.914468
2138.000000	32.085119
2137.000000	32.057465
2136.000000	31.930827
2135.000000	32.188538
2134.000000	32.308340
2133.000000	32.279200
2132.000000	32.366989
2131.000000	32.546742
2130.000000	32.627553
2129.000000	32.590916
2128.000000	32.540893
2127.000000	32.713958
2126.000000	32.716080
2125.000000	32.707637
2124.000000	32.673501
2123.000000	32.659575
2122.000000	32.863038
2121.000000	32.842086
2120.000000	32.707326
2119.000000	32.764631
2118.000000	32.791043
2117.000000	32.919515
2116.000000	32.936227
2115.000000	32.990507
2114.000000	32.933252
2113.000000	33.050566
2112.000000	32.959604
2111.000000	32.928101
2110.000000	33.094183
2109.000000	32.963124
2108.000000	33.007434
2107.000000	32.998926
2106.000000	33.076985
2105.000000	32.953648
2104.000000	32.952190
2103.000000	33.058336
2102.000000	33.093664
2101.000000	33.166617
2100.000000	33.244188
2099.000000	33.084847
2098.000000	33.025909
2097.000000	33.010431
2096.000000	33.089439
2095.000000	32.973598
2094.000000	32.950210
2093.000000	33.025077
2092.000000	33.135733
2091.000000	33.104330
2090.000000	32.940996
2089.000000	33.023873
2088.000000	32.959649
2087.000000	32.909079
2086.000000	32.986899
2085.000000	32.960554
2084.000000	32.953982
2083.000000	32.847072
2082.000000	32.792235
2081.000000	32.795660
2080.000000	32.653650
2079.000000	32.647311
2078.000000	32.591759
2077.000000	32.599503
2076.000000	32.498740
2075.000000	32.390045
2074.000000	32.346493
2073.000000	32.311040
2072.000000	32.173885
2071.000000	32.099000
2070.000000	32.027513
2069.000000	31.892889
2068.000000	31.838815
2067.000000	31.726284
2066.000000	31.640122
2065.000000	31.547983
2064.000000	31.465489
2063.000000	31.283013
2062.000000	31.172678
2061.000000	31.130641
2060.000000	31.038932
2059.000000	30.904905
2058.000000	30.804406
2057.000000	30.788060
2056.000000	30.729653
2055.000000	30.626803
2054.000000	30.514497
2053.000000	30.493422
2052.000000	30.374254
2051.000000	30.211266
2050.000000	30.150791
2049.000000	30.082172
2048.000000	29.970699
2047.000000	29.985278
2046.000000	29.984450
2045.000000	29.931336
2044.000000	29.907617
2043.000000	29.909413
2042.000000	29.873223
2041.000000	29.920180
2040.000000	29.958987
2039.000000	29.929346
2038.000000	29.943736
2037.000000	29.969496
2036.000000	30.025387
2035.000000	30.054194
2034.000000	30.090892
2033.000000	30.201006
2032.000000	30.309297
2031.000000	30.347640
2030.000000	30.374080
2029.000000	30.463910
2028.000000	30.560053
2027.000000	30.608416
2026.000000	30.692159
2025.000000	30.781471
2024.000000	30.814409
2023.000000	30.838769
2022.000000	30.907271
2021.000000	30.944872
2020.000000	30.952261
2019.000000	30.948018
2018.000000	30.946179
2017.000000	30.962761
2016.000000	30.960127
2015.000000	30.944832
2014.000000	30.926764
2013.000000	30.885807
2012.000000	30.873258
2011.000000	30.887874
2010.000000	30.826976
2009.000000	30.736505
2008.000000	30.713857
2007.000000	30.670379
2006.000000	30.603480
2005.000000	30.527470
2004.000000	30.489141
2003.000000	30.441783
2002.000000	30.394427
2001.000000	30.315233
2000.000000	30.238278
1999.000000	30.209151
1998.000000	30.130339
1997.000000	30.066008
1996.000000	29.991850
1995.000000	29.892696
1994.000000	29.830307
1993.000000	29.755053
1992.000000	29.677030
1991.000000	29.593841
1990.000000	29.536527
1989.000000	29.432613
1988.000000	29.351187
1987.000000	29.327496
1986.000000	29.273008
1985.000000	29.183461
1984.000000	29.108870
1983.000000	29.021862
1982.000000	28.964346
1981.000000	28.931704
1980.000000	28.849706
1979.000000	28.772379
1978.000000	28.705586
1977.000000	28.609519
1976.000000	28.545261
1975.000000	28.482779
1974.000000	28.408027
1973.000000	28.366385
1972.000000	28.335486
1971.000000	28.247863
1970.000000	28.182855
1969.000000	28.128967
1968.000000	28.063028
1967.000000	28.024606
1966.000000	27.952393
1965.000000	27.906504
1964.000000	27.857769
1963.000000	27.771724
1962.000000	27.709798
1961.000000	27.687893
1960.000000	27.631315
1959.000000	27.590450
1958.000000	27.537285
1957.000000	27.499335
1956.000000	27.470948
1955.000000	27.451588
1954.000000	27.406297
1953.000000	27.294343
1952.000000	27.334328
1951.000000	27.316181
1950.000000	27.260564
1949.000000	27.263026
1948.000000	27.214033
1947.000000	27.273628
1946.000000	27.194887
1945.000000	27.219452
1944.000000	27.269124
1943.000000	27.295177
1942.000000	27.310036
1941.000000	27.347536
1940.000000	27.337968
1939.000000	27.425126
1938.000000	27.416144
1937.000000	27.477595
1936.000000	27.599443
1935.000000	27.645180
1934.000000	27.606249
1933.000000	27.780777
1932.000000	27.893647
1931.000000	27.971810
1930.000000	28.137226
1929.000000	28.146403
1928.000000	28.319705
1927.000000	28.427418
1926.000000	28.626780
1925.000000	28.754425
1924.000000	28.903957
1923.000000	29.092839
1922.000000	29.242937
1921.000000	29.480065
1920.000000	29.635556
1919.000000	29.890719
1918.000000	30.079531
1917.000000	30.244792
1916.000000	30.352736
1915.000000	30.707797
1914.000000	31.032134
1913.000000	31.367241
1912.000000	31.490680
1911.000000	31.818530
1910.000000	32.024900
1909.000000	32.393378
1908.000000	32.540438
1907.000000	32.874566
1906.000000	33.297702
1905.000000	33.627223
1904.000000	33.982108
1903.000000	34.275184
1902.000000	34.683371
1901.000000	34.981297
1900.000000	35.409005
1899.000000	35.748262
1898.000000	36.108336
1897.000000	36.504903
1896.000000	36.844568
1895.000000	37.223570
1894.000000	37.592206
1893.000000	37.896778
1892.000000	38.279647
1891.000000	38.647508
1890.000000	38.897333
1889.000000	39.248252
1888.000000	39.556743
1887.000000	39.848046
1886.000000	40.209108
1885.000000	40.524209
1884.000000	40.778313
1883.000000	41.073735
1882.000000	41.359169
1881.000000	41.607842
1880.000000	41.864348
1879.000000	42.090756
1878.000000	42.372458
1877.000000	42.644969
1876.000000	42.877788
1875.000000	43.087842
1874.000000	43.308914
1873.000000	43.458816
1872.000000	43.673956
1871.000000	43.841667
1870.000000	43.965258
1869.000000	44.128279
1868.000000	44.280823
1867.000000	44.366300
1866.000000	44.433313
1865.000000	44.529836
1864.000000	44.646476
1863.000000	44.691255
1862.000000	44.731780
1861.000000	44.773799
1860.000000	44.842208
1859.000000	44.860591
1858.000000	44.893082
1857.000000	44.948772
1856.000000	44.972544
1855.000000	45.013272
1854.000000	45.029292
1853.000000	45.057670
1852.000000	45.075301
1851.000000	45.088300
1850.000000	45.081292
1849.000000	45.092141
1848.000000	45.135625
1847.000000	45.155169
1846.000000	45.116926
1845.000000	45.106136
1844.000000	45.077251
1843.000000	45.042881
1842.000000	45.042468
1841.000000	45.046867
1840.000000	45.010232
1839.000000	45.039446
1838.000000	45.005561
1837.000000	44.952468
1836.000000	44.932376
1835.000000	44.911818
1834.000000	44.849680
1833.000000	44.825252
1832.000000	44.803673
1831.000000	44.762008
1830.000000	44.742382
1829.000000	44.695227
1828.000000	44.662278
1827.000000	44.613977
1826.000000	44.559613
1825.000000	44.555414
1824.000000	44.555784
1823.000000	44.521477
1822.000000	44.487661
1821.000000	44.466314
1820.000000	44.444792
1819.000000	44.380965
1818.000000	44.330132
1817.000000	44.309284
1816.000000	44.277627
1815.000000	44.260820
1814.000000	44.250886
1813.000000	44.218034
1812.000000	44.178910
1811.000000	44.157519
1810.000000	44.145154
1809.000000	44.128709
1808.000000	44.093486
1807.000000	44.049748
1806.000000	44.022176
1805.000000	44.007542
1804.000000	43.993134
1803.000000	43.959133
1802.000000	43.925340
1801.000000	43.907855
1800.000000	43.887572
1799.000000	43.861747
1798.000000	43.843049
1797.000000	43.809523
1796.000000	43.792925
1795.000000	43.787510
1794.000000	43.782863
1793.000000	43.764610
1792.000000	43.750987
1791.000000	43.721752
1790.000000	43.713294
1789.000000	43.698843
1788.000000	43.707593
1787.000000	43.685510
1786.000000	43.676663
1785.000000	43.664238
1784.000000	43.623131
1783.000000	43.618081
1782.000000	43.610631
1781.000000	43.571473
1780.000000	43.521594
1779.000000	43.520292
1778.000000	43.483093
1777.000000	43.450207
1776.000000	43.396486
1775.000000	43.359113
1774.000000	43.319003
1773.000000	43.303605
1772.000000	43.278430
1771.000000	43.235111
1770.000000	43.204585
1769.000000	43.154634
1768.000000	43.103904
1767.000000	43.088365
1766.000000	43.039597
1765.000000	42.994993
1764.000000	42.960485
1763.000000	42.911416
1762.000000	42.882810
1761.000000	42.817997
1760.000000	42.768857
1759.000000	42.733193
1758.000000	42.729707
1757.000000	42.694291
1756.000000	42.621489
1755.000000	42.592698
1754.000000	42.563098
1753.000000	42.537801
1752.000000	42.484057
1751.000000	42.426506
1750.000000	42.409718
1749.000000	42.359223
1748.000000	42.296189
1747.000000	42.256840
1746.000000	42.204624
1745.000000	42.172719
1744.000000	42.122409
1743.000000	42.106920
1742.000000	42.048039
1741.000000	42.017491
1740.000000	41.982935
1739.000000	41.954838
1738.000000	41.914902
1737.000000	41.897216
1736.000000	41.859376
1735.000000	41.838922
1734.000000	41.849530
1733.000000	41.839897
1732.000000	41.844715
1731.000000	41.852971
1730.000000	41.876884
1729.000000	41.887659
1728.000000	41.940439
1727.000000	41.972776
1726.000000	42.030237
1725.000000	42.063289
1724.000000	42.120194
1723.000000	42.191679
1722.000000	42.280791
1721.000000	42.346504
1720.000000	42.414350
1719.000000	42.503918
1718.000000	42.559845
1717.000000	42.650426
1716.000000	42.711881
1715.000000	42.808271
1714.000000	42.880673
1713.000000	42.945376
1712.000000	43.015553
1711.000000	43.075963
1710.000000	43.134485
1709.000000	43.160811
1708.000000	43.241329
1707.000000	43.248480
1706.000000	43.283002
1705.000000	43.328524
1704.000000	43.366382
1703.000000	43.373317
1702.000000	43.362123
1701.000000	43.382859
1700.000000	43.396078
1699.000000	43.427273
1698.000000	43.453085
1697.000000	43.478626
1696.000000	43.484415
1695.000000	43.520773
1694.000000	43.574701
1693.000000	43.601446
1692.000000	43.644140
1691.000000	43.679292
1690.000000	43.762047
1689.000000	43.829466
1688.000000	43.933645
1687.000000	44.024598
1686.000000	44.121584
1685.000000	44.211402
1684.000000	44.332383
1683.000000	44.447558
1682.000000	44.576307
1681.000000	44.728420
1680.000000	44.870439
1679.000000	44.992295
1678.000000	45.128621
1677.000000	45.256271
1676.000000	45.407498
1675.000000	45.582179
1674.000000	45.729084
1673.000000	45.871315
1672.000000	46.003981
1671.000000	46.115428
1670.000000	46.234980
1669.000000	46.387759
1668.000000	46.485475
1667.000000	46.627515
1666.000000	46.702807
1665.000000	46.770437
1664.000000	46.866779
1663.000000	46.911205
1662.000000	46.987880
1661.000000	47.059966
1660.000000	47.137192
1659.000000	47.186332
1658.000000	47.208368
1657.000000	47.283878
1656.000000	47.310458
1655.000000	47.320750
1654.000000	47.338278
1653.000000	47.358482
1652.000000	47.384423
1651.000000	47.411798
1650.000000	47.392947
1649.000000	47.406537
1648.000000	47.394330
1647.000000	47.409436
1646.000000	47.385897
1645.000000	47.357064
1644.000000	47.343830
1643.000000	47.320555
1642.000000	47.298711
1641.000000	47.288158
1640.000000	47.262549
1639.000000	47.235387
1638.000000	47.194390
1637.000000	47.189750
1636.000000	47.149622
1635.000000	47.123896
1634.000000	47.087089
1633.000000	47.042999
1632.000000	47.007299
1631.000000	46.991431
1630.000000	46.968517
1629.000000	46.928600
1628.000000	46.869969
1627.000000	46.837576
1626.000000	46.799985
1625.000000	46.757669
1624.000000	46.720515
1623.000000	46.667213
1622.000000	46.633922
1621.000000	46.572366
1620.000000	46.537287
1619.000000	46.506914
1618.000000	46.475198
1617.000000	46.436259
1616.000000	46.395946
1615.000000	46.335392
1614.000000	46.279763
1613.000000	46.224588
1612.000000	46.171405
1611.000000	46.129469
1610.000000	46.093782
1609.000000	46.035692
1608.000000	45.983635
1607.000000	45.938511
1606.000000	45.865731
1605.000000	45.811933
1604.000000	45.750293
1603.000000	45.695684
1602.000000	45.667510
1601.000000	45.611369
1600.000000	45.549779
1599.000000	45.504154
1598.000000	45.449711
1597.000000	45.404253
1596.000000	45.362493
1595.000000	45.312078
1594.000000	45.253549
1593.000000	45.206835
1592.000000	45.167218
1591.000000	45.115469
1590.000000	45.082883
1589.000000	45.037888
1588.000000	44.980464
1587.000000	44.951487
1586.000000	44.905582
1585.000000	44.862103
1584.000000	44.844659
1583.000000	44.808390
1582.000000	44.759656
1581.000000	44.729658
1580.000000	44.686543
1579.000000	44.640899
1578.000000	44.615671
1577.000000	44.573209
1576.000000	44.533395
1575.000000	44.501764
1574.000000	44.449880
1573.000000	44.417548
1572.000000	44.386442
1571.000000	44.349067
1570.000000	44.315470
1569.000000	44.272865
1568.000000	44.249299
1567.000000	44.211068
1566.000000	44.173572
1565.000000	44.149950
1564.000000	44.129927
1563.000000	44.120170
1562.000000	44.105860
1561.000000	44.082159
1560.000000	44.051985
1559.000000	44.042535
1558.000000	44.034054
1557.000000	44.008041
1556.000000	43.985265
1555.000000	43.957331
1554.000000	43.935422
1553.000000	43.911664
1552.000000	43.893089
1551.000000	43.864433
1550.000000	43.835770
1549.000000	43.802047
1548.000000	43.773556
1547.000000	43.709102
1546.000000	43.662449
1545.000000	43.615829
1544.000000	43.569917
1543.000000	43.514047
1542.000000	43.432858
1541.000000	43.369074
1540.000000	43.315527
1539.000000	43.251526
1538.000000	43.182686
1537.000000	43.102605
1536.000000	43.039422
1535.000000	42.984225
1534.000000	42.908660
1533.000000	42.849104
1532.000000	42.771206
1531.000000	42.703360
1530.000000	42.644511
1529.000000	42.578175
1528.000000	42.530935
1527.000000	42.481239
1526.000000	42.425942
1525.000000	42.368095
1524.000000	42.313365
1523.000000	42.290544
1522.000000	42.241935
1521.000000	42.200122
1520.000000	42.164755
1519.000000	42.129675
1518.000000	42.108172
1517.000000	42.066556
1516.000000	42.024702
1515.000000	41.980089
1514.000000	41.965228
1513.000000	41.960144
1512.000000	41.949786
1511.000000	41.952962
1510.000000	41.962314
1509.000000	42.000412
1508.000000	41.991528
1507.000000	41.972577
1506.000000	41.948327
1505.000000	41.911687
1504.000000	41.898721
1503.000000	41.877998
1502.000000	41.853758
1501.000000	41.849174
1500.000000	41.825206
1499.000000	41.824852
1498.000000	41.823511
1497.000000	41.833902
1496.000000	41.848265
1495.000000	41.846208
1494.000000	41.860695
1493.000000	41.879571
1492.000000	41.877758
1491.000000	41.901207
1490.000000	41.941843
1489.000000	41.971830
1488.000000	41.994337
1487.000000	42.030255
1486.000000	42.054424
1485.000000	42.100398
1484.000000	42.139926
1483.000000	42.176878
1482.000000	42.177837
1481.000000	42.248923
1480.000000	42.260098
1479.000000	42.309642
1478.000000	42.343644
1477.000000	42.373148
1476.000000	42.415366
1475.000000	42.447702
1474.000000	42.501217
1473.000000	42.532554
1472.000000	42.568559
1471.000000	42.594218
1470.000000	42.652788
