PE UV       SUBTECH     SPECTRUM    ASCII       PEDS        4.00        
   -1
RTgChevreUK 12.Sample.asc
18/03/09
14:13:56.00
18/03/09
14:13:56.00
Administrator

200.000000
1
Lambda 750
750N8071901
PerkinElmer UV WinLab 6.0.4.0738 / 1.61.00 Lambda 900

0
0
3350/servo 860.8/2
0
0
UV/VIS
1
1
1
CommonBeamDepol,150mm sphere / downward view
0
0
0
0
Program
Program
3350/servo 860.8/2
3350/0.2 860.8/0.2
3350/0.2 860.8/0.2
0
1
 
 
 
0
 
860.8
319.2
860.8
Front
100
on
 
 
0
0
0
 
0
 
 
 
0
 
 
0
0
0
0
0
 
 
 
 
0
0


0
0
#HDR
-1
-1
#GR
nm
%R
1.0
0.0
2350.000000
-1.000000
2151
8
63.478388
8.602080
#DATA
2350.000000	31.702402
2349.000000	31.415781
2348.000000	31.798189
2347.000000	31.996612
2346.000000	31.644268
2345.000000	31.445660
2344.000000	31.664851
2343.000000	31.580963
2342.000000	31.412954
2341.000000	31.458843
2340.000000	31.490589
2339.000000	31.780569
2338.000000	32.034675
2337.000000	31.875875
2336.000000	31.961946
2335.000000	31.943522
2334.000000	32.091554
2333.000000	32.023169
2332.000000	31.886095
2331.000000	32.012606
2330.000000	32.118361
2329.000000	32.196150
2328.000000	32.191646
2327.000000	31.833954
2326.000000	32.014098
2325.000000	31.954047
2324.000000	31.889289
2323.000000	31.934008
2322.000000	31.682171
2321.000000	31.847446
2320.000000	31.881778
2319.000000	31.913165
2318.000000	31.901144
2317.000000	31.870914
2316.000000	31.698013
2315.000000	31.459196
2314.000000	31.588807
2313.000000	31.666892
2312.000000	31.580803
2311.000000	31.472602
2310.000000	31.407494
2309.000000	31.380622
2308.000000	31.222449
2307.000000	31.012150
2306.000000	31.079737
2305.000000	31.190644
2304.000000	31.252564
2303.000000	31.051561
2302.000000	30.905085
2301.000000	30.934375
2300.000000	30.815476
2299.000000	30.795292
2298.000000	30.743485
2297.000000	30.770691
2296.000000	30.815425
2295.000000	30.502613
2294.000000	30.541781
2293.000000	30.397410
2292.000000	30.341565
2291.000000	30.399935
2290.000000	30.246849
2289.000000	30.152004
2288.000000	30.472272
2287.000000	30.444720
2286.000000	30.177588
2285.000000	30.171955
2284.000000	30.186158
2283.000000	30.182316
2282.000000	30.125627
2281.000000	30.283027
2280.000000	30.232220
2279.000000	30.170501
2278.000000	30.163931
2277.000000	30.273573
2276.000000	30.371584
2275.000000	30.360237
2274.000000	30.287453
2273.000000	30.384663
2272.000000	30.584947
2271.000000	30.540954
2270.000000	30.463598
2269.000000	30.466185
2268.000000	30.419224
2267.000000	30.396596
2266.000000	30.466104
2265.000000	30.688510
2264.000000	30.801167
2263.000000	30.703379
2262.000000	30.871860
2261.000000	31.026257
2260.000000	31.102708
2259.000000	31.184687
2258.000000	31.369760
2257.000000	31.464940
2256.000000	31.471963
2255.000000	31.568546
2254.000000	31.698937
2253.000000	31.777072
2252.000000	32.006496
2251.000000	32.216489
2250.000000	32.319838
2249.000000	32.430234
2248.000000	32.491552
2247.000000	32.632678
2246.000000	32.815937
2245.000000	32.978675
2244.000000	33.220148
2243.000000	33.370838
2242.000000	33.424744
2241.000000	33.515947
2240.000000	33.673711
2239.000000	33.760901
2238.000000	33.699546
2237.000000	33.825928
2236.000000	33.948716
2235.000000	34.004980
2234.000000	34.038009
2233.000000	34.039553
2232.000000	34.239559
2231.000000	34.349999
2230.000000	34.247699
2229.000000	34.169283
2228.000000	34.268749
2227.000000	34.327629
2226.000000	34.290420
2225.000000	34.258985
2224.000000	34.218498
2223.000000	34.178912
2222.000000	34.268151
2221.000000	34.244338
2220.000000	34.269270
2219.000000	34.225944
2218.000000	34.164643
2217.000000	34.173103
2216.000000	34.159020
2215.000000	34.181541
2214.000000	34.109298
2213.000000	34.131072
2212.000000	34.110753
2211.000000	33.957541
2210.000000	33.826340
2209.000000	33.745014
2208.000000	33.680294
2207.000000	33.716355
2206.000000	33.676744
2205.000000	33.667887
2204.000000	33.642944
2203.000000	33.594761
2202.000000	33.501157
2201.000000	33.571265
2200.000000	33.594552
2199.000000	33.587158
2198.000000	33.483363
2197.000000	33.338509
2196.000000	33.327482
2195.000000	33.270070
2194.000000	33.128921
2193.000000	33.062557
2192.000000	33.155724
2191.000000	33.008874
2190.000000	33.004985
2189.000000	33.071006
2188.000000	32.906882
2187.000000	32.875408
2186.000000	32.824351
2185.000000	32.691556
2184.000000	32.785003
2183.000000	32.904576
2182.000000	32.876955
2181.000000	33.011172
2180.000000	32.921280
2179.000000	32.858046
2178.000000	32.677690
2177.000000	32.817330
2176.000000	32.875460
2175.000000	32.872669
2174.000000	32.987904
2173.000000	32.951596
2172.000000	33.003144
2171.000000	33.127675
2170.000000	33.122699
2169.000000	33.202903
2168.000000	33.260884
2167.000000	33.295353
2166.000000	33.358194
2165.000000	33.400435
2164.000000	33.439434
2163.000000	33.547641
2162.000000	33.770080
2161.000000	33.578948
2160.000000	33.844293
2159.000000	34.025392
2158.000000	33.895046
2157.000000	34.004920
2156.000000	34.141357
2155.000000	34.201706
2154.000000	34.441179
2153.000000	34.579775
2152.000000	34.703261
2151.000000	34.703272
2150.000000	34.938760
2149.000000	34.970897
2148.000000	34.973342
2147.000000	35.174745
2146.000000	35.229836
2145.000000	35.275662
2144.000000	35.480556
2143.000000	35.462594
2142.000000	35.903871
2141.000000	35.849548
2140.000000	35.768752
2139.000000	35.983552
2138.000000	36.024181
2137.000000	36.022054
2136.000000	36.083247
2135.000000	36.201428
2134.000000	36.369399
2133.000000	36.211746
2132.000000	36.511304
2131.000000	36.490431
2130.000000	36.664628
2129.000000	36.719874
2128.000000	36.611507
2127.000000	36.657183
2126.000000	36.742350
2125.000000	36.909294
2124.000000	36.890859
2123.000000	36.847455
2122.000000	36.937320
2121.000000	36.950811
2120.000000	36.871306
2119.000000	36.942363
2118.000000	37.054658
2117.000000	37.047656
2116.000000	37.110313
2115.000000	37.242968
2114.000000	37.088572
2113.000000	37.150474
2112.000000	37.098000
2111.000000	37.199330
2110.000000	37.205083
2109.000000	37.353497
2108.000000	37.264496
2107.000000	37.266216
2106.000000	37.309350
2105.000000	37.250690
2104.000000	37.229695
2103.000000	37.303423
2102.000000	37.372695
2101.000000	37.266731
2100.000000	37.327647
2099.000000	37.263355
2098.000000	37.204831
2097.000000	37.275839
2096.000000	37.264116
2095.000000	37.255993
2094.000000	37.253459
2093.000000	37.182460
2092.000000	37.258347
2091.000000	37.280990
2090.000000	37.112927
2089.000000	37.207069
2088.000000	37.201375
2087.000000	37.156113
2086.000000	37.142604
2085.000000	37.220189
2084.000000	37.145460
2083.000000	37.030457
2082.000000	37.028106
2081.000000	36.959732
2080.000000	36.960262
2079.000000	36.907243
2078.000000	36.790006
2077.000000	36.747937
2076.000000	36.679534
2075.000000	36.524653
2074.000000	36.455211
2073.000000	36.421200
2072.000000	36.378026
2071.000000	36.328972
2070.000000	36.214522
2069.000000	36.130365
2068.000000	36.007452
2067.000000	35.928465
2066.000000	35.802224
2065.000000	35.664309
2064.000000	35.571520
2063.000000	35.420063
2062.000000	35.315353
2061.000000	35.205837
2060.000000	35.116662
2059.000000	35.041988
2058.000000	34.907339
2057.000000	34.819912
2056.000000	34.787963
2055.000000	34.700462
2054.000000	34.608451
2053.000000	34.527901
2052.000000	34.429097
2051.000000	34.338201
2050.000000	34.284856
2049.000000	34.201063
2048.000000	34.131135
2047.000000	34.135410
2046.000000	34.083169
2045.000000	33.985807
2044.000000	33.973853
2043.000000	33.978177
2042.000000	33.938694
2041.000000	33.940117
2040.000000	33.962791
2039.000000	33.961138
2038.000000	33.990184
2037.000000	34.025515
2036.000000	34.087873
2035.000000	34.144953
2034.000000	34.163201
2033.000000	34.210027
2032.000000	34.322957
2031.000000	34.448152
2030.000000	34.505003
2029.000000	34.569652
2028.000000	34.624686
2027.000000	34.695086
2026.000000	34.782670
2025.000000	34.814219
2024.000000	34.848194
2023.000000	34.908217
2022.000000	34.989366
2021.000000	35.050153
2020.000000	35.063933
2019.000000	35.046091
2018.000000	35.056235
2017.000000	35.056960
2016.000000	35.031786
2015.000000	35.035308
2014.000000	35.044334
2013.000000	34.999056
2012.000000	34.948302
2011.000000	34.954179
2010.000000	34.951851
2009.000000	34.889470
2008.000000	34.823692
2007.000000	34.764241
2006.000000	34.700331
2005.000000	34.664443
2004.000000	34.629616
2003.000000	34.560122
2002.000000	34.502359
2001.000000	34.405511
2000.000000	34.340363
1999.000000	34.292884
1998.000000	34.221871
1997.000000	34.144428
1996.000000	34.073076
1995.000000	33.982175
1994.000000	33.935613
1993.000000	33.877560
1992.000000	33.773318
1991.000000	33.691943
1990.000000	33.634694
1989.000000	33.556330
1988.000000	33.499405
1987.000000	33.404837
1986.000000	33.295769
1985.000000	33.245975
1984.000000	33.194218
1983.000000	33.101510
1982.000000	33.032282
1981.000000	33.039140
1980.000000	32.917160
1979.000000	32.802636
1978.000000	32.754519
1977.000000	32.682432
1976.000000	32.573998
1975.000000	32.547829
1974.000000	32.492630
1973.000000	32.429497
1972.000000	32.387373
1971.000000	32.276898
1970.000000	32.228340
1969.000000	32.194381
1968.000000	32.115883
1967.000000	32.087660
1966.000000	32.050906
1965.000000	31.943874
1964.000000	31.883482
1963.000000	31.856140
1962.000000	31.777782
1961.000000	31.728055
1960.000000	31.676117
1959.000000	31.645845
1958.000000	31.608594
1957.000000	31.549796
1956.000000	31.465088
1955.000000	31.409467
1954.000000	31.440780
1953.000000	31.372377
1952.000000	31.378758
1951.000000	31.316262
1950.000000	31.354777
1949.000000	31.283220
1948.000000	31.260567
1947.000000	31.255137
1946.000000	31.277010
1945.000000	31.273837
1944.000000	31.278406
1943.000000	31.260630
1942.000000	31.340274
1941.000000	31.376687
1940.000000	31.356450
1939.000000	31.443796
1938.000000	31.448788
1937.000000	31.494615
1936.000000	31.574136
1935.000000	31.632373
1934.000000	31.631950
1933.000000	31.758152
1932.000000	31.862976
1931.000000	31.963302
1930.000000	32.138776
1929.000000	32.206139
1928.000000	32.328119
1927.000000	32.573596
1926.000000	32.641601
1925.000000	32.732628
1924.000000	32.918373
1923.000000	33.107167
1922.000000	33.256711
1921.000000	33.498736
1920.000000	33.609480
1919.000000	33.857672
1918.000000	34.139404
1917.000000	34.350224
1916.000000	34.516381
1915.000000	34.785292
1914.000000	35.101769
1913.000000	35.406118
1912.000000	35.599234
1911.000000	35.795481
1910.000000	36.142772
1909.000000	36.384058
1908.000000	36.701778
1907.000000	37.117328
1906.000000	37.372514
1905.000000	37.732160
1904.000000	38.075701
1903.000000	38.463355
1902.000000	38.838750
1901.000000	39.181527
1900.000000	39.579288
1899.000000	39.978139
1898.000000	40.417200
1897.000000	40.734179
1896.000000	41.144683
1895.000000	41.562998
1894.000000	41.966156
1893.000000	42.296839
1892.000000	42.678796
1891.000000	43.070505
1890.000000	43.451194
1889.000000	43.807580
1888.000000	44.133230
1887.000000	44.510243
1886.000000	44.842210
1885.000000	45.215122
1884.000000	45.576640
1883.000000	45.891496
1882.000000	46.161379
1881.000000	46.466919
1880.000000	46.728066
1879.000000	46.969488
1878.000000	47.259894
1877.000000	47.540528
1876.000000	47.738230
1875.000000	47.991457
1874.000000	48.167776
1873.000000	48.331960
1872.000000	48.563249
1871.000000	48.747985
1870.000000	48.934198
1869.000000	49.080980
1868.000000	49.251208
1867.000000	49.335555
1866.000000	49.364660
1865.000000	49.478379
1864.000000	49.567374
1863.000000	49.672953
1862.000000	49.754687
1861.000000	49.837664
1860.000000	49.883431
1859.000000	49.905165
1858.000000	49.931053
1857.000000	50.035187
1856.000000	50.036746
1855.000000	50.079695
1854.000000	50.104797
1853.000000	50.143444
1852.000000	50.176509
1851.000000	50.193009
1850.000000	50.191125
1849.000000	50.194947
1848.000000	50.199842
1847.000000	50.233784
1846.000000	50.218448
1845.000000	50.218824
1844.000000	50.208072
1843.000000	50.131147
1842.000000	50.130643
1841.000000	50.104457
1840.000000	50.056477
1839.000000	50.048993
1838.000000	50.056922
1837.000000	49.990370
1836.000000	49.931363
1835.000000	49.885409
1834.000000	49.844611
1833.000000	49.812348
1832.000000	49.782700
1831.000000	49.728901
1830.000000	49.714802
1829.000000	49.678921
1828.000000	49.617238
1827.000000	49.581497
1826.000000	49.542676
1825.000000	49.518862
1824.000000	49.518875
1823.000000	49.511202
1822.000000	49.474164
1821.000000	49.427313
1820.000000	49.379465
1819.000000	49.330574
1818.000000	49.306009
1817.000000	49.310310
1816.000000	49.263872
1815.000000	49.234335
1814.000000	49.196722
1813.000000	49.149741
1812.000000	49.146881
1811.000000	49.127262
1810.000000	49.086694
1809.000000	49.049608
1808.000000	49.014258
1807.000000	48.987088
1806.000000	48.977523
1805.000000	48.965307
1804.000000	48.928035
1803.000000	48.880864
1802.000000	48.860214
1801.000000	48.825782
1800.000000	48.821220
1799.000000	48.818806
1798.000000	48.801127
1797.000000	48.763665
1796.000000	48.743390
1795.000000	48.744532
1794.000000	48.737082
1793.000000	48.712687
1792.000000	48.690879
1791.000000	48.678690
1790.000000	48.670498
1789.000000	48.643001
1788.000000	48.651273
1787.000000	48.625546
1786.000000	48.613064
1785.000000	48.602190
1784.000000	48.579695
1783.000000	48.546307
1782.000000	48.537358
1781.000000	48.525735
1780.000000	48.474002
1779.000000	48.457815
1778.000000	48.425131
1777.000000	48.370978
1776.000000	48.348944
1775.000000	48.305302
1774.000000	48.267155
1773.000000	48.223961
1772.000000	48.191894
1771.000000	48.155021
1770.000000	48.107454
1769.000000	48.045309
1768.000000	47.981649
1767.000000	47.945149
1766.000000	47.914910
1765.000000	47.871783
1764.000000	47.850624
1763.000000	47.787692
1762.000000	47.720187
1761.000000	47.675002
1760.000000	47.603179
1759.000000	47.567442
1758.000000	47.565466
1757.000000	47.504570
1756.000000	47.468187
1755.000000	47.446362
1754.000000	47.385404
1753.000000	47.354264
1752.000000	47.318008
1751.000000	47.281157
1750.000000	47.265393
1749.000000	47.205302
1748.000000	47.125818
1747.000000	47.090583
1746.000000	47.051781
1745.000000	47.002446
1744.000000	46.947877
1743.000000	46.923001
1742.000000	46.873599
1741.000000	46.818292
1740.000000	46.796828
1739.000000	46.747756
1738.000000	46.727708
1737.000000	46.683261
1736.000000	46.647776
1735.000000	46.650259
1734.000000	46.619722
1733.000000	46.616454
1732.000000	46.613873
1731.000000	46.642781
1730.000000	46.630366
1729.000000	46.652451
1728.000000	46.709009
1727.000000	46.757945
1726.000000	46.808127
1725.000000	46.858068
1724.000000	46.897115
1723.000000	46.984567
1722.000000	47.097158
1721.000000	47.135162
1720.000000	47.263086
1719.000000	47.327443
1718.000000	47.392243
1717.000000	47.497950
1716.000000	47.571740
1715.000000	47.654968
1714.000000	47.706008
1713.000000	47.804046
1712.000000	47.890778
1711.000000	47.926350
1710.000000	48.007354
1709.000000	48.039847
1708.000000	48.071083
1707.000000	48.147031
1706.000000	48.184041
1705.000000	48.199308
1704.000000	48.242812
1703.000000	48.257809
1702.000000	48.273147
1701.000000	48.297198
1700.000000	48.278691
1699.000000	48.276832
1698.000000	48.325020
1697.000000	48.363498
1696.000000	48.388164
1695.000000	48.401617
1694.000000	48.444234
1693.000000	48.487197
1692.000000	48.509966
1691.000000	48.548822
1690.000000	48.653593
1689.000000	48.733755
1688.000000	48.821232
1687.000000	48.924247
1686.000000	49.006109
1685.000000	49.139459
1684.000000	49.266296
1683.000000	49.403531
1682.000000	49.525993
1681.000000	49.671408
1680.000000	49.823080
1679.000000	49.971820
1678.000000	50.131894
1677.000000	50.262841
1676.000000	50.427846
1675.000000	50.611835
1674.000000	50.744787
1673.000000	50.922376
1672.000000	51.063339
1671.000000	51.185928
1670.000000	51.334053
1669.000000	51.506327
1668.000000	51.645674
1667.000000	51.775998
1666.000000	51.867773
1665.000000	51.941399
1664.000000	52.028313
1663.000000	52.094937
1662.000000	52.172542
1661.000000	52.275816
1660.000000	52.330869
1659.000000	52.378034
1658.000000	52.398020
1657.000000	52.469992
1656.000000	52.485115
1655.000000	52.525882
1654.000000	52.550090
1653.000000	52.559934
1652.000000	52.580796
1651.000000	52.591943
1650.000000	52.613727
1649.000000	52.596295
1648.000000	52.576546
1647.000000	52.582574
1646.000000	52.556757
1645.000000	52.529993
1644.000000	52.506731
1643.000000	52.504024
1642.000000	52.483354
1641.000000	52.455569
1640.000000	52.450735
1639.000000	52.399260
1638.000000	52.384351
1637.000000	52.356829
1636.000000	52.316210
1635.000000	52.300792
1634.000000	52.256285
1633.000000	52.200817
1632.000000	52.170977
1631.000000	52.128713
1630.000000	52.090054
1629.000000	52.058911
1628.000000	52.012668
1627.000000	51.971137
1626.000000	51.938612
1625.000000	51.885685
1624.000000	51.851784
1623.000000	51.804400
1622.000000	51.755480
1621.000000	51.708130
1620.000000	51.658898
1619.000000	51.609880
1618.000000	51.565186
1617.000000	51.512152
1616.000000	51.469457
1615.000000	51.416930
1614.000000	51.359632
1613.000000	51.314813
1612.000000	51.261844
1611.000000	51.205434
1610.000000	51.144956
1609.000000	51.085302
1608.000000	51.038236
1607.000000	50.987443
1606.000000	50.921995
1605.000000	50.873620
1604.000000	50.811991
1603.000000	50.743731
1602.000000	50.703772
1601.000000	50.651169
1600.000000	50.583628
1599.000000	50.534471
1598.000000	50.474955
1597.000000	50.413797
1596.000000	50.369454
1595.000000	50.320494
1594.000000	50.269434
1593.000000	50.220607
1592.000000	50.170377
1591.000000	50.123728
1590.000000	50.081422
1589.000000	50.026431
1588.000000	49.974127
1587.000000	49.939606
1586.000000	49.898056
1585.000000	49.858641
1584.000000	49.820368
1583.000000	49.773161
1582.000000	49.724719
1581.000000	49.683696
1580.000000	49.641383
1579.000000	49.597035
1578.000000	49.574562
1577.000000	49.534266
1576.000000	49.484357
1575.000000	49.444708
1574.000000	49.390193
1573.000000	49.351764
1572.000000	49.317527
1571.000000	49.270520
1570.000000	49.228900
1569.000000	49.187367
1568.000000	49.153884
1567.000000	49.124442
1566.000000	49.094547
1565.000000	49.064279
1564.000000	49.043178
1563.000000	49.025915
1562.000000	48.989299
1561.000000	48.959819
1560.000000	48.929516
1559.000000	48.904285
1558.000000	48.878234
1557.000000	48.860912
1556.000000	48.849990
1555.000000	48.827926
1554.000000	48.800303
1553.000000	48.770652
1552.000000	48.741517
1551.000000	48.722936
1550.000000	48.684813
1549.000000	48.646196
1548.000000	48.610440
1547.000000	48.546529
1546.000000	48.503795
1545.000000	48.453882
1544.000000	48.397481
1543.000000	48.342217
1542.000000	48.284561
1541.000000	48.204755
1540.000000	48.133517
1539.000000	48.064503
1538.000000	47.988294
1537.000000	47.895387
1536.000000	47.829583
1535.000000	47.757477
1534.000000	47.686222
1533.000000	47.612361
1532.000000	47.543564
1531.000000	47.477869
1530.000000	47.395587
1529.000000	47.322509
1528.000000	47.262444
1527.000000	47.215177
1526.000000	47.167174
1525.000000	47.101090
1524.000000	47.045529
1523.000000	47.008402
1522.000000	46.958480
1521.000000	46.905460
1520.000000	46.874369
1519.000000	46.839342
1518.000000	46.822504
1517.000000	46.776299
1516.000000	46.724381
1515.000000	46.699817
1514.000000	46.668775
1513.000000	46.658603
1512.000000	46.676645
1511.000000	46.696448
1510.000000	46.700287
1509.000000	46.682048
1508.000000	46.649630
1507.000000	46.617937
1506.000000	46.585966
1505.000000	46.579242
1504.000000	46.577147
1503.000000	46.543181
1502.000000	46.527564
1501.000000	46.524664
1500.000000	46.520209
1499.000000	46.515480
1498.000000	46.526052
1497.000000	46.507736
1496.000000	46.533657
1495.000000	46.533119
1494.000000	46.542044
1493.000000	46.573849
1492.000000	46.581348
1491.000000	46.615530
1490.000000	46.642371
1489.000000	46.671705
1488.000000	46.699782
1487.000000	46.736520
1486.000000	46.776216
1485.000000	46.798280
1484.000000	46.861558
1483.000000	46.907723
1482.000000	46.910758
1481.000000	46.977176
1480.000000	47.018353
1479.000000	47.053007
1478.000000	47.086551
1477.000000	47.134452
1476.000000	47.158388
1475.000000	47.201663
1474.000000	47.250463
1473.000000	47.283555
1472.000000	47.321110
1471.000000	47.352074
1470.000000	47.402794
