PE UV       SUBTECH     SPECTRUM    ASCII       PEDS        4.00        
   -1
RTgChevreUK 32.Sample.asc
18/03/09
09:40:00.00
18/03/09
09:40:00.00
Administrator

200.000000
1
Lambda 750
750N8071901
PerkinElmer UV WinLab 6.0.4.0738 / 1.61.00 Lambda 900

0
0
3350/servo 860.8/2
0
0
UV/VIS
1
1
1
CommonBeamDepol,150mm sphere / downward view
0
0
0
0
Program
Program
3350/servo 860.8/2
3350/0.2 860.8/0.2
3350/0.2 860.8/0.2
0
1
 
 
 
0
 
860.8
319.2
860.8
Front
100
on
 
 
0
0
0
 
0
 
 
 
0
 
 
0
0
0
0
0
 
 
 
 
0
0


0
0
#HDR
-1
-1
#GR
nm
%R
1.0
0.0
2350.000000
-1.000000
2151
8
59.959892
9.539997
#DATA
2350.000000	28.100342
2349.000000	27.920349
2348.000000	27.773283
2347.000000	28.348410
2346.000000	28.236620
2345.000000	28.332110
2344.000000	27.995541
2343.000000	28.004257
2342.000000	27.930936
2341.000000	28.325495
2340.000000	28.279444
2339.000000	28.618615
2338.000000	28.419914
2337.000000	28.440871
2336.000000	28.536420
2335.000000	28.543542
2334.000000	28.869364
2333.000000	28.804908
2332.000000	28.651635
2331.000000	28.666267
2330.000000	28.638767
2329.000000	28.694525
2328.000000	28.507700
2327.000000	28.482087
2326.000000	28.654422
2325.000000	28.263054
2324.000000	28.420309
2323.000000	28.457272
2322.000000	28.271210
2321.000000	28.119564
2320.000000	28.237101
2319.000000	28.271226
2318.000000	28.336171
2317.000000	28.282656
2316.000000	28.157295
2315.000000	28.240280
2314.000000	28.284125
2313.000000	28.161961
2312.000000	27.851773
2311.000000	28.015745
2310.000000	28.032710
2309.000000	28.012077
2308.000000	27.889322
2307.000000	27.751112
2306.000000	27.809821
2305.000000	27.741044
2304.000000	27.627811
2303.000000	27.589145
2302.000000	27.536877
2301.000000	27.365256
2300.000000	27.452159
2299.000000	27.480211
2298.000000	27.292402
2297.000000	27.320876
2296.000000	27.258624
2295.000000	27.091011
2294.000000	27.124691
2293.000000	26.716074
2292.000000	26.774455
2291.000000	26.952917
2290.000000	26.818125
2289.000000	26.949744
2288.000000	26.865359
2287.000000	26.840369
2286.000000	26.750593
2285.000000	26.606344
2284.000000	26.732618
2283.000000	26.815903
2282.000000	26.741735
2281.000000	26.789655
2280.000000	26.765612
2279.000000	26.944543
2278.000000	26.960573
2277.000000	26.797438
2276.000000	26.779902
2275.000000	26.864338
2274.000000	26.740093
2273.000000	26.846248
2272.000000	26.968576
2271.000000	26.819669
2270.000000	26.757318
2269.000000	26.897116
2268.000000	27.098980
2267.000000	27.200427
2266.000000	27.228564
2265.000000	27.274366
2264.000000	27.458616
2263.000000	27.452932
2262.000000	27.573754
2261.000000	27.713993
2260.000000	27.617729
2259.000000	27.708005
2258.000000	27.887697
2257.000000	27.992744
2256.000000	28.058234
2255.000000	28.194316
2254.000000	28.276905
2253.000000	28.260148
2252.000000	28.436845
2251.000000	28.677504
2250.000000	28.811667
2249.000000	29.003248
2248.000000	29.075929
2247.000000	29.142570
2246.000000	29.347666
2245.000000	29.447435
2244.000000	29.597344
2243.000000	29.832953
2242.000000	29.977482
2241.000000	30.056139
2240.000000	30.072930
2239.000000	30.083898
2238.000000	30.190106
2237.000000	30.375408
2236.000000	30.406355
2235.000000	30.368996
2234.000000	30.441844
2233.000000	30.493681
2232.000000	30.636567
2231.000000	30.694297
2230.000000	30.691314
2229.000000	30.752095
2228.000000	30.730199
2227.000000	30.680492
2226.000000	30.751616
2225.000000	30.657600
2224.000000	30.593408
2223.000000	30.576836
2222.000000	30.663421
2221.000000	30.691000
2220.000000	30.718170
2219.000000	30.695127
2218.000000	30.633740
2217.000000	30.616866
2216.000000	30.579952
2215.000000	30.500101
2214.000000	30.455452
2213.000000	30.451518
2212.000000	30.464761
2211.000000	30.364102
2210.000000	30.300903
2209.000000	30.239693
2208.000000	30.108624
2207.000000	30.125188
2206.000000	30.116365
2205.000000	30.099257
2204.000000	29.975507
2203.000000	29.883956
2202.000000	29.909876
2201.000000	29.819752
2200.000000	29.882048
2199.000000	29.900274
2198.000000	29.861663
2197.000000	29.727366
2196.000000	29.770697
2195.000000	29.678375
2194.000000	29.617751
2193.000000	29.457669
2192.000000	29.505302
2191.000000	29.409737
2190.000000	29.526890
2189.000000	29.571022
2188.000000	29.491893
2187.000000	29.380175
2186.000000	29.386506
2185.000000	29.321681
2184.000000	29.403022
2183.000000	29.470868
2182.000000	29.242080
2181.000000	29.261272
2180.000000	29.296675
2179.000000	29.195172
2178.000000	29.181425
2177.000000	29.183481
2176.000000	29.216579
2175.000000	29.314936
2174.000000	29.411147
2173.000000	29.429119
2172.000000	29.517738
2171.000000	29.480918
2170.000000	29.412179
2169.000000	29.360018
2168.000000	29.859927
2167.000000	29.819756
2166.000000	29.657231
2165.000000	29.861189
2164.000000	29.949325
2163.000000	29.822978
2162.000000	30.047400
2161.000000	30.040119
2160.000000	30.101210
2159.000000	30.209580
2158.000000	30.425686
2157.000000	30.507536
2156.000000	30.572454
2155.000000	30.608334
2154.000000	30.794753
2153.000000	31.016964
2152.000000	30.952633
2151.000000	31.181146
2150.000000	31.337642
2149.000000	31.356091
2148.000000	31.371955
2147.000000	31.434329
2146.000000	31.584443
2145.000000	31.759542
2144.000000	31.777115
2143.000000	31.776590
2142.000000	31.789694
2141.000000	31.826925
2140.000000	32.054275
2139.000000	32.232253
2138.000000	32.338321
2137.000000	32.484815
2136.000000	32.369713
2135.000000	32.531435
2134.000000	32.687782
2133.000000	32.661595
2132.000000	32.670924
2131.000000	32.893299
2130.000000	32.850910
2129.000000	32.872987
2128.000000	32.873136
2127.000000	32.665380
2126.000000	32.944856
2125.000000	32.948490
2124.000000	33.080426
2123.000000	33.073107
2122.000000	33.241386
2121.000000	33.098545
2120.000000	32.970275
2119.000000	33.181895
2118.000000	33.299293
2117.000000	33.192800
2116.000000	33.348692
2115.000000	33.312158
2114.000000	33.434376
2113.000000	33.439672
2112.000000	33.433543
2111.000000	33.353812
2110.000000	33.322942
2109.000000	33.521228
2108.000000	33.395379
2107.000000	33.282887
2106.000000	33.482896
2105.000000	33.429929
2104.000000	33.478057
2103.000000	33.562121
2102.000000	33.571926
2101.000000	33.542326
2100.000000	33.593348
2099.000000	33.571411
2098.000000	33.518554
2097.000000	33.486447
2096.000000	33.527762
2095.000000	33.503478
2094.000000	33.509669
2093.000000	33.371197
2092.000000	33.417004
2091.000000	33.436333
2090.000000	33.415606
2089.000000	33.423923
2088.000000	33.398319
2087.000000	33.354172
2086.000000	33.391693
2085.000000	33.343603
2084.000000	33.287096
2083.000000	33.167658
2082.000000	33.124707
2081.000000	33.148988
2080.000000	33.043805
2079.000000	33.110582
2078.000000	32.989744
2077.000000	32.893802
2076.000000	32.840855
2075.000000	32.732531
2074.000000	32.697765
2073.000000	32.685115
2072.000000	32.584952
2071.000000	32.488250
2070.000000	32.401637
2069.000000	32.280834
2068.000000	32.134746
2067.000000	32.082572
2066.000000	31.981579
2065.000000	31.875533
2064.000000	31.806264
2063.000000	31.684298
2062.000000	31.579038
2061.000000	31.446124
2060.000000	31.389613
2059.000000	31.289537
2058.000000	31.172707
2057.000000	31.093258
2056.000000	31.029635
2055.000000	30.973407
2054.000000	30.875519
2053.000000	30.711118
2052.000000	30.629268
2051.000000	30.532350
2050.000000	30.441340
2049.000000	30.447720
2048.000000	30.466727
2047.000000	30.430343
2046.000000	30.334211
2045.000000	30.282783
2044.000000	30.213975
2043.000000	30.230950
2042.000000	30.212383
2041.000000	30.230085
2040.000000	30.292406
2039.000000	30.309618
2038.000000	30.330761
2037.000000	30.342405
2036.000000	30.407614
2035.000000	30.502486
2034.000000	30.518078
2033.000000	30.546149
2032.000000	30.654479
2031.000000	30.717673
2030.000000	30.739125
2029.000000	30.844905
2028.000000	30.941779
2027.000000	31.010620
2026.000000	31.090004
2025.000000	31.153994
2024.000000	31.177298
2023.000000	31.199128
2022.000000	31.255350
2021.000000	31.291723
2020.000000	31.303122
2019.000000	31.301716
2018.000000	31.325468
2017.000000	31.319189
2016.000000	31.285850
2015.000000	31.289767
2014.000000	31.308388
2013.000000	31.279432
2012.000000	31.221815
2011.000000	31.191146
2010.000000	31.201191
2009.000000	31.157026
2008.000000	31.092763
2007.000000	31.036273
2006.000000	30.978294
2005.000000	30.960136
2004.000000	30.893877
2003.000000	30.797424
2002.000000	30.724463
2001.000000	30.651607
2000.000000	30.593538
1999.000000	30.514389
1998.000000	30.457068
1997.000000	30.390207
1996.000000	30.324060
1995.000000	30.277400
1994.000000	30.205388
1993.000000	30.120696
1992.000000	30.016177
1991.000000	29.956996
1990.000000	29.910207
1989.000000	29.787083
1988.000000	29.719111
1987.000000	29.685474
1986.000000	29.655898
1985.000000	29.573011
1984.000000	29.530793
1983.000000	29.473433
1982.000000	29.401849
1981.000000	29.321515
1980.000000	29.257928
1979.000000	29.184661
1978.000000	29.112823
1977.000000	29.050715
1976.000000	28.974844
1975.000000	28.928859
1974.000000	28.835251
1973.000000	28.802132
1972.000000	28.739001
1971.000000	28.697786
1970.000000	28.660333
1969.000000	28.616121
1968.000000	28.567891
1967.000000	28.511836
1966.000000	28.432829
1965.000000	28.394033
1964.000000	28.305195
1963.000000	28.250494
1962.000000	28.231482
1961.000000	28.170794
1960.000000	28.118233
1959.000000	28.024133
1958.000000	27.996851
1957.000000	27.983045
1956.000000	27.898037
1955.000000	27.867737
1954.000000	27.862280
1953.000000	27.846384
1952.000000	27.857885
1951.000000	27.818344
1950.000000	27.803582
1949.000000	27.782027
1948.000000	27.761135
1947.000000	27.782769
1946.000000	27.769535
1945.000000	27.780521
1944.000000	27.816205
1943.000000	27.800041
1942.000000	27.849047
1941.000000	27.840565
1940.000000	27.865318
1939.000000	27.941847
1938.000000	27.975829
1937.000000	28.052539
1936.000000	28.197518
1935.000000	28.220584
1934.000000	28.277746
1933.000000	28.403083
1932.000000	28.454053
1931.000000	28.554434
1930.000000	28.665158
1929.000000	28.822424
1928.000000	28.952344
1927.000000	29.067445
1926.000000	29.177645
1925.000000	29.274275
1924.000000	29.457471
1923.000000	29.607143
1922.000000	29.853665
1921.000000	30.020036
1920.000000	30.228512
1919.000000	30.468384
1918.000000	30.681247
1917.000000	30.918367
1916.000000	31.002365
1915.000000	31.300769
1914.000000	31.622788
1913.000000	31.933613
1912.000000	32.142423
1911.000000	32.404920
1910.000000	32.618873
1909.000000	32.945302
1908.000000	33.229189
1907.000000	33.591677
1906.000000	33.881197
1905.000000	34.252359
1904.000000	34.631811
1903.000000	34.941247
1902.000000	35.345292
1901.000000	35.660639
1900.000000	36.073381
1899.000000	36.434671
1898.000000	36.883120
1897.000000	37.193902
1896.000000	37.565240
1895.000000	37.963218
1894.000000	38.311323
1893.000000	38.741035
1892.000000	39.131506
1891.000000	39.431698
1890.000000	39.830586
1889.000000	40.191525
1888.000000	40.559635
1887.000000	40.909777
1886.000000	41.201467
1885.000000	41.549253
1884.000000	41.883023
1883.000000	42.194155
1882.000000	42.469913
1881.000000	42.797525
1880.000000	43.050132
1879.000000	43.272144
1878.000000	43.537653
1877.000000	43.786744
1876.000000	44.021393
1875.000000	44.258576
1874.000000	44.472299
1873.000000	44.652020
1872.000000	44.831588
1871.000000	45.041008
1870.000000	45.188153
1869.000000	45.290643
1868.000000	45.416707
1867.000000	45.502550
1866.000000	45.582923
1865.000000	45.682085
1864.000000	45.748229
1863.000000	45.823798
1862.000000	45.939851
1861.000000	45.995780
1860.000000	46.035899
1859.000000	46.075303
1858.000000	46.137296
1857.000000	46.232488
1856.000000	46.247329
1855.000000	46.253344
1854.000000	46.322465
1853.000000	46.324354
1852.000000	46.337887
1851.000000	46.362910
1850.000000	46.369590
1849.000000	46.375424
1848.000000	46.374322
1847.000000	46.395363
1846.000000	46.378516
1845.000000	46.349808
1844.000000	46.334443
1843.000000	46.293861
1842.000000	46.281521
1841.000000	46.231588
1840.000000	46.214499
1839.000000	46.215500
1838.000000	46.190541
1837.000000	46.133972
1836.000000	46.088587
1835.000000	46.047816
1834.000000	45.980940
1833.000000	45.957087
1832.000000	45.926044
1831.000000	45.879035
1830.000000	45.844177
1829.000000	45.827862
1828.000000	45.802761
1827.000000	45.742346
1826.000000	45.690594
1825.000000	45.662711
1824.000000	45.662875
1823.000000	45.614650
1822.000000	45.547166
1821.000000	45.536869
1820.000000	45.499198
1819.000000	45.477843
1818.000000	45.448167
1817.000000	45.404254
1816.000000	45.382560
1815.000000	45.368231
1814.000000	45.317954
1813.000000	45.288850
1812.000000	45.274270
1811.000000	45.240467
1810.000000	45.214031
1809.000000	45.193729
1808.000000	45.167819
1807.000000	45.136008
1806.000000	45.120497
1805.000000	45.086344
1804.000000	45.036678
1803.000000	45.019331
1802.000000	45.009155
1801.000000	44.988993
1800.000000	44.952328
1799.000000	44.937676
1798.000000	44.945436
1797.000000	44.922181
1796.000000	44.898384
1795.000000	44.882336
1794.000000	44.869365
1793.000000	44.859777
1792.000000	44.842144
1791.000000	44.839307
1790.000000	44.820160
1789.000000	44.804963
1788.000000	44.799420
1787.000000	44.773717
1786.000000	44.750620
1785.000000	44.732884
1784.000000	44.722683
1783.000000	44.704990
1782.000000	44.684712
1781.000000	44.636146
1780.000000	44.600862
1779.000000	44.584272
1778.000000	44.561835
1777.000000	44.521556
1776.000000	44.509522
1775.000000	44.481103
1774.000000	44.421522
1773.000000	44.378259
1772.000000	44.329736
1771.000000	44.294550
1770.000000	44.241822
1769.000000	44.187631
1768.000000	44.132669
1767.000000	44.089378
1766.000000	44.038478
1765.000000	44.000792
1764.000000	43.977736
1763.000000	43.945101
1762.000000	43.866536
1761.000000	43.846562
1760.000000	43.776412
1759.000000	43.703498
1758.000000	43.699000
1757.000000	43.662012
1756.000000	43.606433
1755.000000	43.580686
1754.000000	43.521579
1753.000000	43.490427
1752.000000	43.443856
1751.000000	43.393465
1750.000000	43.368260
1749.000000	43.341931
1748.000000	43.292491
1747.000000	43.255294
1746.000000	43.190470
1745.000000	43.106916
1744.000000	43.056796
1743.000000	43.024734
1742.000000	42.986926
1741.000000	42.946716
1740.000000	42.911483
1739.000000	42.893339
1738.000000	42.828753
1737.000000	42.786464
1736.000000	42.789352
1735.000000	42.769357
1734.000000	42.744338
1733.000000	42.764946
1732.000000	42.771759
1731.000000	42.782215
1730.000000	42.783499
1729.000000	42.798902
1728.000000	42.857534
1727.000000	42.891113
1726.000000	42.964186
1725.000000	43.022598
1724.000000	43.094152
1723.000000	43.144949
1722.000000	43.269222
1721.000000	43.315818
1720.000000	43.398808
1719.000000	43.481575
1718.000000	43.584340
1717.000000	43.637272
1716.000000	43.742495
1715.000000	43.802774
1714.000000	43.877121
1713.000000	43.947552
1712.000000	44.015603
1711.000000	44.065247
1710.000000	44.141772
1709.000000	44.158076
1708.000000	44.208617
1707.000000	44.272798
1706.000000	44.297604
1705.000000	44.292973
1704.000000	44.337584
1703.000000	44.356228
1702.000000	44.369771
1701.000000	44.389047
1700.000000	44.417656
1699.000000	44.412933
1698.000000	44.434726
1697.000000	44.462962
1696.000000	44.501516
1695.000000	44.529626
1694.000000	44.555157
1693.000000	44.620172
1692.000000	44.618573
1691.000000	44.714460
1690.000000	44.781965
1689.000000	44.843660
1688.000000	44.958783
1687.000000	45.037912
1686.000000	45.155431
1685.000000	45.265343
1684.000000	45.404069
1683.000000	45.527301
1682.000000	45.686099
1681.000000	45.839502
1680.000000	45.966371
1679.000000	46.152230
1678.000000	46.287082
1677.000000	46.436096
1676.000000	46.601600
1675.000000	46.780147
1674.000000	46.906099
1673.000000	47.074385
1672.000000	47.209153
1671.000000	47.337707
1670.000000	47.485945
1669.000000	47.671668
1668.000000	47.781709
1667.000000	47.906466
1666.000000	47.997278
1665.000000	48.096297
1664.000000	48.147765
1663.000000	48.247053
1662.000000	48.332804
1661.000000	48.407638
1660.000000	48.456072
1659.000000	48.519766
1658.000000	48.557755
1657.000000	48.584520
1656.000000	48.638407
1655.000000	48.659889
1654.000000	48.662308
1653.000000	48.690132
1652.000000	48.725873
1651.000000	48.704184
1650.000000	48.715085
1649.000000	48.707243
1648.000000	48.694191
1647.000000	48.696737
1646.000000	48.676271
1645.000000	48.635902
1644.000000	48.645156
1643.000000	48.630307
1642.000000	48.602824
1641.000000	48.587707
1640.000000	48.539508
1639.000000	48.518571
1638.000000	48.497843
1637.000000	48.475222
1636.000000	48.422870
1635.000000	48.378707
1634.000000	48.348470
1633.000000	48.300618
1632.000000	48.285859
1631.000000	48.241758
1630.000000	48.185887
1629.000000	48.149854
1628.000000	48.110737
1627.000000	48.073228
1626.000000	48.034543
1625.000000	47.984473
1624.000000	47.928564
1623.000000	47.891725
1622.000000	47.844253
1621.000000	47.781614
1620.000000	47.749056
1619.000000	47.702205
1618.000000	47.662289
1617.000000	47.617188
1616.000000	47.555747
1615.000000	47.495342
1614.000000	47.449151
1613.000000	47.377235
1612.000000	47.319867
1611.000000	47.282222
1610.000000	47.224958
1609.000000	47.175485
1608.000000	47.132697
1607.000000	47.064097
1606.000000	47.012183
1605.000000	46.948022
1604.000000	46.873808
1603.000000	46.829942
1602.000000	46.779834
1601.000000	46.712509
1600.000000	46.649209
1599.000000	46.612649
1598.000000	46.566715
1597.000000	46.513305
1596.000000	46.447181
1595.000000	46.393188
1594.000000	46.355008
1593.000000	46.310722
1592.000000	46.259642
1591.000000	46.203156
1590.000000	46.164496
1589.000000	46.131968
1588.000000	46.093617
1587.000000	46.042431
1586.000000	45.995101
1585.000000	45.948451
1584.000000	45.908153
1583.000000	45.861953
1582.000000	45.821574
1581.000000	45.794081
1580.000000	45.751222
1579.000000	45.700481
1578.000000	45.662098
1577.000000	45.613879
1576.000000	45.570389
1575.000000	45.526005
1574.000000	45.479019
1573.000000	45.441142
1572.000000	45.398626
1571.000000	45.350658
1570.000000	45.322492
1569.000000	45.283065
1568.000000	45.249770
1567.000000	45.229119
1566.000000	45.191399
1565.000000	45.155630
1564.000000	45.119741
1563.000000	45.101528
1562.000000	45.090079
1561.000000	45.065954
1560.000000	45.029074
1559.000000	44.991919
1558.000000	44.968496
1557.000000	44.956620
1556.000000	44.933509
1555.000000	44.910597
1554.000000	44.890085
1553.000000	44.854931
1552.000000	44.829837
1551.000000	44.802180
1550.000000	44.778012
1549.000000	44.738139
1548.000000	44.693228
1547.000000	44.640913
1546.000000	44.570707
1545.000000	44.525604
1544.000000	44.468224
1543.000000	44.400639
1542.000000	44.346246
1541.000000	44.262845
1540.000000	44.198670
1539.000000	44.120500
1538.000000	44.032523
1537.000000	43.973239
1536.000000	43.902788
1535.000000	43.822476
1534.000000	43.747814
1533.000000	43.679176
1532.000000	43.608395
1531.000000	43.536721
1530.000000	43.481819
1529.000000	43.401834
1528.000000	43.344637
1527.000000	43.289519
1526.000000	43.234405
1525.000000	43.176187
1524.000000	43.131205
1523.000000	43.091031
1522.000000	43.042012
1521.000000	42.999534
1520.000000	42.965697
1519.000000	42.943130
1518.000000	42.895800
1517.000000	42.861314
1516.000000	42.835458
1515.000000	42.812449
1514.000000	42.786003
1513.000000	42.765766
1512.000000	42.752847
1511.000000	42.787814
1510.000000	42.777360
1509.000000	42.788335
1508.000000	42.734406
1507.000000	42.709711
1506.000000	42.691722
1505.000000	42.662187
1504.000000	42.636419
1503.000000	42.620078
1502.000000	42.613833
1501.000000	42.625072
1500.000000	42.619184
1499.000000	42.631952
1498.000000	42.623177
1497.000000	42.621897
1496.000000	42.627407
1495.000000	42.641568
1494.000000	42.660097
1493.000000	42.675192
1492.000000	42.685340
1491.000000	42.725342
1490.000000	42.751109
1489.000000	42.796618
1488.000000	42.784470
1487.000000	42.827253
1486.000000	42.875431
1485.000000	42.901267
1484.000000	42.946971
1483.000000	43.000248
1482.000000	43.022642
1481.000000	43.066016
1480.000000	43.097277
1479.000000	43.167258
1478.000000	43.183212
1477.000000	43.214682
1476.000000	43.253780
1475.000000	43.308730
1474.000000	43.324210
1473.000000	43.378022
1472.000000	43.425364
1471.000000	43.452765
1470.000000	43.471343
