PE UV       SUBTECH     SPECTRUM    ASCII       PEDS        4.00        
   -1
RTgChevreUK 62.Sample.asc
18/03/09
10:34:19.00
18/03/09
10:34:19.00
Administrator

200.000000
1
Lambda 750
750N8071901
PerkinElmer UV WinLab 6.0.4.0738 / 1.61.00 Lambda 900

0
0
3350/servo 860.8/2
0
0
UV/VIS
1
1
1
CommonBeamDepol,150mm sphere / downward view
0
0
0
0
Program
Program
3350/servo 860.8/2
3350/0.2 860.8/0.2
3350/0.2 860.8/0.2
0
1
 
 
 
0
 
860.8
319.2
860.8
Front
100
on
 
 
0
0
0
 
0
 
 
 
0
 
 
0
0
0
0
0
 
 
 
 
0
0


0
0
#HDR
-1
-1
#GR
nm
%R
1.0
0.0
2350.000000
-1.000000
2151
8
58.849964
11.193048
#DATA
2350.000000	27.439128
2349.000000	27.829056
2348.000000	27.615499
2347.000000	28.424425
2346.000000	27.892745
2345.000000	27.562849
2344.000000	27.653234
2343.000000	27.788465
2342.000000	27.834706
2341.000000	27.768644
2340.000000	27.926140
2339.000000	27.736323
2338.000000	27.955629
2337.000000	28.271570
2336.000000	28.104438
2335.000000	28.399064
2334.000000	28.528609
2333.000000	28.622728
2332.000000	28.702703
2331.000000	28.473094
2330.000000	28.075901
2329.000000	28.548772
2328.000000	28.385522
2327.000000	28.293498
2326.000000	28.437566
2325.000000	28.324911
2324.000000	28.235963
2323.000000	27.790026
2322.000000	27.995747
2321.000000	28.298361
2320.000000	28.272520
2319.000000	27.954933
2318.000000	27.939178
2317.000000	28.189255
2316.000000	28.178124
2315.000000	28.140926
2314.000000	28.094631
2313.000000	27.682346
2312.000000	27.587558
2311.000000	27.536898
2310.000000	27.534286
2309.000000	27.524151
2308.000000	27.404189
2307.000000	27.478294
2306.000000	27.694891
2305.000000	27.614771
2304.000000	27.519662
2303.000000	27.581675
2302.000000	27.596644
2301.000000	27.423553
2300.000000	27.273233
2299.000000	27.200259
2298.000000	26.961741
2297.000000	26.836686
2296.000000	26.765855
2295.000000	26.900257
2294.000000	26.792293
2293.000000	26.725689
2292.000000	26.717854
2291.000000	26.704815
2290.000000	26.590998
2289.000000	26.612885
2288.000000	26.721263
2287.000000	26.796344
2286.000000	26.584542
2285.000000	26.456363
2284.000000	26.257735
2283.000000	26.298911
2282.000000	26.426821
2281.000000	26.470207
2280.000000	26.386214
2279.000000	26.362922
2278.000000	26.298640
2277.000000	26.410409
2276.000000	26.496056
2275.000000	26.649485
2274.000000	26.711678
2273.000000	26.741418
2272.000000	26.723746
2271.000000	26.523014
2270.000000	26.624144
2269.000000	26.656240
2268.000000	26.730226
2267.000000	26.825092
2266.000000	26.764933
2265.000000	26.762060
2264.000000	26.879647
2263.000000	26.914315
2262.000000	27.061234
2261.000000	27.311414
2260.000000	27.411035
2259.000000	27.512062
2258.000000	27.648846
2257.000000	27.752889
2256.000000	27.775550
2255.000000	27.905172
2254.000000	28.018361
2253.000000	28.114310
2252.000000	28.294485
2251.000000	28.430467
2250.000000	28.559260
2249.000000	28.707759
2248.000000	28.796404
2247.000000	28.956537
2246.000000	29.026290
2245.000000	29.188735
2244.000000	29.410563
2243.000000	29.650977
2242.000000	29.812065
2241.000000	29.740049
2240.000000	29.720632
2239.000000	29.808015
2238.000000	29.985760
2237.000000	30.184371
2236.000000	30.228389
2235.000000	30.186081
2234.000000	30.217709
2233.000000	30.239728
2232.000000	30.263609
2231.000000	30.320663
2230.000000	30.394133
2229.000000	30.460062
2228.000000	30.435218
2227.000000	30.380726
2226.000000	30.384776
2225.000000	30.381178
2224.000000	30.381173
2223.000000	30.408831
2222.000000	30.362543
2221.000000	30.353285
2220.000000	30.460012
2219.000000	30.374148
2218.000000	30.253409
2217.000000	30.208166
2216.000000	30.230155
2215.000000	30.319956
2214.000000	30.291794
2213.000000	30.174818
2212.000000	30.163183
2211.000000	30.228638
2210.000000	30.213567
2209.000000	30.070437
2208.000000	30.046437
2207.000000	30.047173
2206.000000	29.925598
2205.000000	29.768704
2204.000000	29.821199
2203.000000	29.761878
2202.000000	29.745758
2201.000000	29.655707
2200.000000	29.675824
2199.000000	29.582851
2198.000000	29.588731
2197.000000	29.497432
2196.000000	29.463192
2195.000000	29.310347
2194.000000	29.299362
2193.000000	29.223070
2192.000000	29.226671
2191.000000	29.143002
2190.000000	29.173197
2189.000000	29.156945
2188.000000	29.127999
2187.000000	29.181922
2186.000000	29.077059
2185.000000	29.093800
2184.000000	29.132064
2183.000000	29.129248
2182.000000	29.129124
2181.000000	29.029849
2180.000000	29.013479
2179.000000	29.016494
2178.000000	28.914463
2177.000000	28.962372
2176.000000	29.013610
2175.000000	29.035506
2174.000000	29.155207
2173.000000	29.134597
2172.000000	29.245671
2171.000000	29.192125
2170.000000	29.334600
2169.000000	29.364955
2168.000000	29.597674
2167.000000	29.476540
2166.000000	29.415862
2165.000000	29.370429
2164.000000	29.500314
2163.000000	29.628839
2162.000000	29.782622
2161.000000	29.674605
2160.000000	30.085997
2159.000000	30.142808
2158.000000	30.004525
2157.000000	30.092828
2156.000000	30.323079
2155.000000	30.416620
2154.000000	30.452596
2153.000000	30.772786
2152.000000	30.756985
2151.000000	30.812954
2150.000000	31.034146
2149.000000	31.098282
2148.000000	31.164184
2147.000000	31.243983
2146.000000	31.270408
2145.000000	31.336096
2144.000000	31.446728
2143.000000	31.649394
2142.000000	31.617486
2141.000000	31.803686
2140.000000	31.844272
2139.000000	31.916360
2138.000000	32.305550
2137.000000	32.414150
2136.000000	32.397912
2135.000000	32.243409
2134.000000	32.236567
2133.000000	32.417663
2132.000000	32.649166
2131.000000	32.728085
2130.000000	32.594014
2129.000000	32.669220
2128.000000	32.796235
2127.000000	32.666084
2126.000000	32.656797
2125.000000	32.763173
2124.000000	32.870745
2123.000000	32.720790
2122.000000	32.929502
2121.000000	32.986799
2120.000000	33.024718
2119.000000	33.027502
2118.000000	32.873683
2117.000000	33.048605
2116.000000	33.246558
2115.000000	33.241171
2114.000000	33.238181
2113.000000	33.129038
2112.000000	33.253327
2111.000000	33.166071
2110.000000	33.094626
2109.000000	33.127901
2108.000000	33.199542
2107.000000	33.016729
2106.000000	33.191143
2105.000000	33.209537
2104.000000	33.234699
2103.000000	33.196424
2102.000000	33.254329
2101.000000	33.353000
2100.000000	33.275736
2099.000000	33.142771
2098.000000	33.188141
2097.000000	33.379264
2096.000000	33.211193
2095.000000	33.283465
2094.000000	33.277181
2093.000000	33.181306
2092.000000	33.117002
2091.000000	33.177974
2090.000000	33.153949
2089.000000	33.154778
2088.000000	33.072516
2087.000000	33.093298
2086.000000	33.142503
2085.000000	33.160056
2084.000000	33.037233
2083.000000	33.051328
2082.000000	32.963187
2081.000000	32.903036
2080.000000	32.837287
2079.000000	32.778678
2078.000000	32.673392
2077.000000	32.618395
2076.000000	32.502170
2075.000000	32.450706
2074.000000	32.417424
2073.000000	32.322797
2072.000000	32.260436
2071.000000	32.138065
2070.000000	32.065329
2069.000000	31.941967
2068.000000	31.866168
2067.000000	31.829352
2066.000000	31.693405
2065.000000	31.569451
2064.000000	31.529011
2063.000000	31.364004
2062.000000	31.265774
2061.000000	31.180168
2060.000000	31.085872
2059.000000	30.943556
2058.000000	30.860325
2057.000000	30.798968
2056.000000	30.758455
2055.000000	30.640483
2054.000000	30.527881
2053.000000	30.481252
2052.000000	30.357195
2051.000000	30.218995
2050.000000	30.129890
2049.000000	30.052218
2048.000000	30.005515
2047.000000	29.999605
2046.000000	29.935801
2045.000000	29.912175
2044.000000	29.844233
2043.000000	29.854636
2042.000000	29.862731
2041.000000	29.880429
2040.000000	29.874003
2039.000000	29.858819
2038.000000	29.916525
2037.000000	29.953486
2036.000000	29.971550
2035.000000	30.088811
2034.000000	30.163953
2033.000000	30.201036
2032.000000	30.238540
2031.000000	30.284138
2030.000000	30.359289
2029.000000	30.463425
2028.000000	30.570829
2027.000000	30.586101
2026.000000	30.648727
2025.000000	30.732810
2024.000000	30.776892
2023.000000	30.827017
2022.000000	30.850222
2021.000000	30.873882
2020.000000	30.878244
2019.000000	30.889305
2018.000000	30.890912
2017.000000	30.881769
2016.000000	30.894130
2015.000000	30.906528
2014.000000	30.868746
2013.000000	30.803156
2012.000000	30.788684
2011.000000	30.772902
2010.000000	30.714677
2009.000000	30.659409
2008.000000	30.628739
2007.000000	30.578321
2006.000000	30.507820
2005.000000	30.453441
2004.000000	30.380378
2003.000000	30.307221
2002.000000	30.250761
2001.000000	30.173201
2000.000000	30.099481
1999.000000	30.046108
1998.000000	30.008376
1997.000000	29.912171
1996.000000	29.807897
1995.000000	29.744348
1994.000000	29.658363
1993.000000	29.555765
1992.000000	29.463233
1991.000000	29.418514
1990.000000	29.359924
1989.000000	29.285839
1988.000000	29.232744
1987.000000	29.156561
1986.000000	29.067745
1985.000000	28.998369
1984.000000	28.942420
1983.000000	28.891235
1982.000000	28.791093
1981.000000	28.734630
1980.000000	28.670463
1979.000000	28.598247
1978.000000	28.478219
1977.000000	28.362587
1976.000000	28.319136
1975.000000	28.277369
1974.000000	28.224876
1973.000000	28.142202
1972.000000	28.102103
1971.000000	28.056100
1970.000000	27.969598
1969.000000	27.881943
1968.000000	27.852801
1967.000000	27.814014
1966.000000	27.763439
1965.000000	27.724935
1964.000000	27.620223
1963.000000	27.557495
1962.000000	27.492968
1961.000000	27.490566
1960.000000	27.423420
1959.000000	27.366633
1958.000000	27.342995
1957.000000	27.243921
1956.000000	27.220167
1955.000000	27.164712
1954.000000	27.171306
1953.000000	27.121557
1952.000000	27.103706
1951.000000	27.085613
1950.000000	27.049074
1949.000000	27.107199
1948.000000	27.020208
1947.000000	27.035485
1946.000000	27.065193
1945.000000	27.062205
1944.000000	27.034978
1943.000000	27.024081
1942.000000	27.063903
1941.000000	27.129955
1940.000000	27.156330
1939.000000	27.227600
1938.000000	27.296059
1937.000000	27.366750
1936.000000	27.418487
1935.000000	27.501905
1934.000000	27.551187
1933.000000	27.631688
1932.000000	27.755441
1931.000000	27.861827
1930.000000	27.903953
1929.000000	28.033389
1928.000000	28.251665
1927.000000	28.353375
1926.000000	28.478049
1925.000000	28.662509
1924.000000	28.872918
1923.000000	28.978244
1922.000000	29.190421
1921.000000	29.502636
1920.000000	29.637445
1919.000000	29.771612
1918.000000	29.988773
1917.000000	30.286079
1916.000000	30.385073
1915.000000	30.756601
1914.000000	31.035994
1913.000000	31.391969
1912.000000	31.659132
1911.000000	31.887278
1910.000000	32.135410
1909.000000	32.461513
1908.000000	32.830343
1907.000000	33.091510
1906.000000	33.399111
1905.000000	33.765697
1904.000000	34.125209
1903.000000	34.504980
1902.000000	34.900430
1901.000000	35.276907
1900.000000	35.644641
1899.000000	36.122261
1898.000000	36.516680
1897.000000	36.834483
1896.000000	37.194161
1895.000000	37.666706
1894.000000	38.050301
1893.000000	38.448413
1892.000000	38.874081
1891.000000	39.221558
1890.000000	39.599410
1889.000000	39.995237
1888.000000	40.325153
1887.000000	40.633326
1886.000000	41.029768
1885.000000	41.327691
1884.000000	41.645940
1883.000000	41.986668
1882.000000	42.298913
1881.000000	42.581426
1880.000000	42.858053
1879.000000	43.115076
1878.000000	43.382424
1877.000000	43.666817
1876.000000	43.908623
1875.000000	44.059217
1874.000000	44.288147
1873.000000	44.538380
1872.000000	44.706023
1871.000000	44.866018
1870.000000	45.042638
1869.000000	45.136178
1868.000000	45.321020
1867.000000	45.404950
1866.000000	45.499183
1865.000000	45.625738
1864.000000	45.679553
1863.000000	45.735378
1862.000000	45.811878
1861.000000	45.921499
1860.000000	45.942621
1859.000000	45.976729
1858.000000	46.051987
1857.000000	46.109920
1856.000000	46.112445
1855.000000	46.141972
1854.000000	46.211274
1853.000000	46.248376
1852.000000	46.235281
1851.000000	46.253124
1850.000000	46.316666
1849.000000	46.302476
1848.000000	46.289047
1847.000000	46.312084
1846.000000	46.305351
1845.000000	46.276644
1844.000000	46.247234
1843.000000	46.200303
1842.000000	46.195229
1841.000000	46.182826
1840.000000	46.179487
1839.000000	46.128367
1838.000000	46.087120
1837.000000	46.033174
1836.000000	45.998799
1835.000000	45.948701
1834.000000	45.895714
1833.000000	45.881061
1832.000000	45.847059
1831.000000	45.803468
1830.000000	45.767995
1829.000000	45.742150
1828.000000	45.701242
1827.000000	45.656324
1826.000000	45.622000
1825.000000	45.616906
1824.000000	45.596172
1823.000000	45.559602
1822.000000	45.497811
1821.000000	45.463990
1820.000000	45.411017
1819.000000	45.389649
1818.000000	45.388351
1817.000000	45.351529
1816.000000	45.318263
1815.000000	45.290225
1814.000000	45.241474
1813.000000	45.209943
1812.000000	45.190482
1811.000000	45.159229
1810.000000	45.147598
1809.000000	45.121401
1808.000000	45.079565
1807.000000	45.053938
1806.000000	45.030098
1805.000000	45.005054
1804.000000	44.970922
1803.000000	44.940484
1802.000000	44.935874
1801.000000	44.927588
1800.000000	44.876012
1799.000000	44.832636
1798.000000	44.850428
1797.000000	44.850717
1796.000000	44.827425
1795.000000	44.809649
1794.000000	44.794441
1793.000000	44.781915
1792.000000	44.769056
1791.000000	44.746714
1790.000000	44.725532
1789.000000	44.724349
1788.000000	44.714935
1787.000000	44.696033
1786.000000	44.683614
1785.000000	44.675916
1784.000000	44.647329
1783.000000	44.627013
1782.000000	44.609064
1781.000000	44.572904
1780.000000	44.560055
1779.000000	44.544885
1778.000000	44.501431
1777.000000	44.458308
1776.000000	44.447479
1775.000000	44.395194
1774.000000	44.327202
1773.000000	44.291046
1772.000000	44.250947
1771.000000	44.223468
1770.000000	44.190949
1769.000000	44.115136
1768.000000	44.070449
1767.000000	44.058416
1766.000000	44.029238
1765.000000	43.964345
1764.000000	43.919162
1763.000000	43.864076
1762.000000	43.814356
1761.000000	43.800052
1760.000000	43.764532
1759.000000	43.715681
1758.000000	43.682349
1757.000000	43.650029
1756.000000	43.600239
1755.000000	43.538863
1754.000000	43.496100
1753.000000	43.452875
1752.000000	43.417570
1751.000000	43.352060
1750.000000	43.327659
1749.000000	43.306403
1748.000000	43.263956
1747.000000	43.211223
1746.000000	43.167013
1745.000000	43.089860
1744.000000	43.025834
1743.000000	43.001178
1742.000000	42.952617
1741.000000	42.918294
1740.000000	42.874633
1739.000000	42.846745
1738.000000	42.810992
1737.000000	42.760387
1736.000000	42.747947
1735.000000	42.745913
1734.000000	42.730534
1733.000000	42.714193
1732.000000	42.741407
1731.000000	42.730039
1730.000000	42.736202
1729.000000	42.781446
1728.000000	42.838041
1727.000000	42.849281
1726.000000	42.908054
1725.000000	42.976096
1724.000000	43.045114
1723.000000	43.095720
1722.000000	43.190153
1721.000000	43.266999
1720.000000	43.353433
1719.000000	43.435389
1718.000000	43.524240
1717.000000	43.600527
1716.000000	43.665254
1715.000000	43.720477
1714.000000	43.833380
1713.000000	43.889710
1712.000000	43.978149
1711.000000	44.021504
1710.000000	44.080674
1709.000000	44.138285
1708.000000	44.212373
1707.000000	44.228237
1706.000000	44.267351
1705.000000	44.286681
1704.000000	44.308960
1703.000000	44.341612
1702.000000	44.347038
1701.000000	44.372811
1700.000000	44.386390
1699.000000	44.392531
1698.000000	44.416359
1697.000000	44.441039
1696.000000	44.466103
1695.000000	44.495111
1694.000000	44.534453
1693.000000	44.603624
1692.000000	44.609845
1691.000000	44.697107
1690.000000	44.752633
1689.000000	44.811793
1688.000000	44.932194
1687.000000	45.013456
1686.000000	45.116260
1685.000000	45.228502
1684.000000	45.357494
1683.000000	45.492695
1682.000000	45.630699
1681.000000	45.763092
1680.000000	45.888028
1679.000000	46.057855
1678.000000	46.204356
1677.000000	46.354704
1676.000000	46.509865
1675.000000	46.658264
1674.000000	46.820445
1673.000000	46.981533
1672.000000	47.109113
1671.000000	47.247414
1670.000000	47.403457
1669.000000	47.556844
1668.000000	47.662832
1667.000000	47.796715
1666.000000	47.857113
1665.000000	47.936958
1664.000000	47.997866
1663.000000	48.089939
1662.000000	48.182693
1661.000000	48.254072
1660.000000	48.314355
1659.000000	48.376415
1658.000000	48.397787
1657.000000	48.412249
1656.000000	48.454164
1655.000000	48.482728
1654.000000	48.501479
1653.000000	48.522272
1652.000000	48.540769
1651.000000	48.539982
1650.000000	48.550837
1649.000000	48.536011
1648.000000	48.525290
1647.000000	48.507651
1646.000000	48.508079
1645.000000	48.493706
1644.000000	48.494110
1643.000000	48.459069
1642.000000	48.447109
1641.000000	48.415881
1640.000000	48.392440
1639.000000	48.359957
1638.000000	48.329985
1637.000000	48.303599
1636.000000	48.264852
1635.000000	48.233152
1634.000000	48.203814
1633.000000	48.168964
1632.000000	48.126293
1631.000000	48.072659
1630.000000	48.033121
1629.000000	47.996174
1628.000000	47.963541
1627.000000	47.918843
1626.000000	47.874385
1625.000000	47.826444
1624.000000	47.779275
1623.000000	47.749733
1622.000000	47.708025
1621.000000	47.653817
1620.000000	47.594382
1619.000000	47.547839
1618.000000	47.513599
1617.000000	47.457015
1616.000000	47.386653
1615.000000	47.342183
1614.000000	47.313425
1613.000000	47.269918
1612.000000	47.210131
1611.000000	47.155957
1610.000000	47.102238
1609.000000	47.043641
1608.000000	46.993249
1607.000000	46.944521
1606.000000	46.881742
1605.000000	46.807449
1604.000000	46.746327
1603.000000	46.702055
1602.000000	46.644037
1601.000000	46.592426
1600.000000	46.536934
1599.000000	46.482002
1598.000000	46.433332
1597.000000	46.380855
1596.000000	46.332786
1595.000000	46.282452
1594.000000	46.237573
1593.000000	46.206973
1592.000000	46.151334
1591.000000	46.092008
1590.000000	46.054148
1589.000000	46.001327
1588.000000	45.950187
1587.000000	45.913212
1586.000000	45.871465
1585.000000	45.826648
1584.000000	45.791322
1583.000000	45.748270
1582.000000	45.703023
1581.000000	45.657776
1580.000000	45.624765
1579.000000	45.591986
1578.000000	45.557252
1577.000000	45.507309
1576.000000	45.452564
1575.000000	45.404020
1574.000000	45.369611
1573.000000	45.329498
1572.000000	45.292962
1571.000000	45.248752
1570.000000	45.203556
1569.000000	45.162409
1568.000000	45.137828
1567.000000	45.114940
1566.000000	45.078149
1565.000000	45.034484
1564.000000	44.997790
1563.000000	44.990916
1562.000000	44.966993
1561.000000	44.934958
1560.000000	44.923220
1559.000000	44.890121
1558.000000	44.857670
1557.000000	44.832415
1556.000000	44.814487
1555.000000	44.795543
1554.000000	44.773600
1553.000000	44.738661
1552.000000	44.705853
1551.000000	44.671595
1550.000000	44.634461
1549.000000	44.600664
1548.000000	44.562241
1547.000000	44.520260
1546.000000	44.461623
1545.000000	44.397968
1544.000000	44.338761
1543.000000	44.273412
1542.000000	44.209882
1541.000000	44.129231
1540.000000	44.068393
1539.000000	43.992470
1538.000000	43.925175
1537.000000	43.857581
1536.000000	43.773340
1535.000000	43.692830
1534.000000	43.615739
1533.000000	43.559157
1532.000000	43.487163
1531.000000	43.424182
1530.000000	43.354656
1529.000000	43.280360
1528.000000	43.215682
1527.000000	43.171803
1526.000000	43.108675
1525.000000	43.041161
1524.000000	43.003654
1523.000000	42.967705
1522.000000	42.913952
1521.000000	42.870887
1520.000000	42.836533
1519.000000	42.805936
1518.000000	42.776670
1517.000000	42.712583
1516.000000	42.695931
1515.000000	42.669909
1514.000000	42.652964
1513.000000	42.621877
1512.000000	42.622650
1511.000000	42.640681
1510.000000	42.659235
1509.000000	42.667846
1508.000000	42.627632
1507.000000	42.601317
1506.000000	42.559705
1505.000000	42.537580
1504.000000	42.511305
1503.000000	42.506508
1502.000000	42.490526
1501.000000	42.495376
1500.000000	42.474061
1499.000000	42.482057
1498.000000	42.478576
1497.000000	42.468388
1496.000000	42.476732
1495.000000	42.490807
1494.000000	42.505060
1493.000000	42.512562
1492.000000	42.539031
1491.000000	42.556960
1490.000000	42.583419
1489.000000	42.608048
1488.000000	42.614392
1487.000000	42.659988
1486.000000	42.686598
1485.000000	42.709478
1484.000000	42.757714
1483.000000	42.790615
1482.000000	42.824069
1481.000000	42.866683
1480.000000	42.897928
1479.000000	42.933951
1478.000000	42.974967
1477.000000	42.997107
1476.000000	43.039029
1475.000000	43.070767
1474.000000	43.113224
1473.000000	43.150593
1472.000000	43.185750
1471.000000	43.224929
1470.000000	43.249198
