PE UV       SUBTECH     SPECTRUM    ASCII       PEDS        4.00        
   -1
RTgChevreUK 42.Sample.asc
18/03/09
09:51:05.00
18/03/09
09:51:05.00
Administrator

200.000000
1
Lambda 750
750N8071901
PerkinElmer UV WinLab 6.0.4.0738 / 1.61.00 Lambda 900

0
0
3350/servo 860.8/2
0
0
UV/VIS
1
1
1
CommonBeamDepol,150mm sphere / downward view
0
0
0
0
Program
Program
3350/servo 860.8/2
3350/0.2 860.8/0.2
3350/0.2 860.8/0.2
0
1
 
 
 
0
 
860.8
319.2
860.8
Front
100
on
 
 
0
0
0
 
0
 
 
 
0
 
 
0
0
0
0
0
 
 
 
 
0
0


0
0
#HDR
-1
-1
#GR
nm
%R
1.0
0.0
2350.000000
-1.000000
2151
8
58.784088
10.935076
#DATA
2350.000000	27.342913
2349.000000	26.974640
2348.000000	27.195145
2347.000000	27.691497
2346.000000	27.428594
2345.000000	27.570557
2344.000000	27.159698
2343.000000	27.088891
2342.000000	27.105758
2341.000000	27.400114
2340.000000	27.294762
2339.000000	27.699645
2338.000000	27.656257
2337.000000	27.696776
2336.000000	27.697445
2335.000000	27.893744
2334.000000	27.886093
2333.000000	27.844212
2332.000000	27.842233
2331.000000	27.947987
2330.000000	27.737574
2329.000000	27.798058
2328.000000	27.977787
2327.000000	27.885547
2326.000000	27.891415
2325.000000	27.895652
2324.000000	27.995877
2323.000000	27.702730
2322.000000	27.513712
2321.000000	27.351504
2320.000000	27.519612
2319.000000	27.469027
2318.000000	27.522675
2317.000000	27.708267
2316.000000	27.276018
2315.000000	27.346898
2314.000000	27.363930
2313.000000	27.113054
2312.000000	27.229906
2311.000000	27.314124
2310.000000	27.138929
2309.000000	27.272239
2308.000000	27.197129
2307.000000	27.016821
2306.000000	26.917009
2305.000000	27.010625
2304.000000	26.934541
2303.000000	26.826986
2302.000000	26.826849
2301.000000	26.718234
2300.000000	26.510370
2299.000000	26.654454
2298.000000	26.375532
2297.000000	26.404334
2296.000000	26.505133
2295.000000	26.380136
2294.000000	26.292533
2293.000000	26.335702
2292.000000	26.100001
2291.000000	26.085572
2290.000000	26.065281
2289.000000	26.037350
2288.000000	26.144877
2287.000000	26.182028
2286.000000	25.997545
2285.000000	25.928598
2284.000000	26.140737
2283.000000	26.121347
2282.000000	25.798107
2281.000000	25.798011
2280.000000	25.887134
2279.000000	25.928427
2278.000000	25.939328
2277.000000	25.859781
2276.000000	26.045824
2275.000000	26.087431
2274.000000	26.041356
2273.000000	26.167986
2272.000000	26.173689
2271.000000	26.196248
2270.000000	26.226849
2269.000000	26.033664
2268.000000	26.080279
2267.000000	26.342692
2266.000000	26.502041
2265.000000	26.494919
2264.000000	26.641374
2263.000000	26.642375
2262.000000	26.647879
2261.000000	26.840524
2260.000000	26.880749
2259.000000	26.966640
2258.000000	27.182890
2257.000000	27.353603
2256.000000	27.391417
2255.000000	27.529102
2254.000000	27.671171
2253.000000	27.650888
2252.000000	27.883089
2251.000000	28.107971
2250.000000	28.156947
2249.000000	28.280830
2248.000000	28.388351
2247.000000	28.528459
2246.000000	28.703095
2245.000000	28.893525
2244.000000	29.001506
2243.000000	29.175493
2242.000000	29.285728
2241.000000	29.351748
2240.000000	29.440110
2239.000000	29.490133
2238.000000	29.542554
2237.000000	29.634053
2236.000000	29.640501
2235.000000	29.678210
2234.000000	29.878016
2233.000000	29.921831
2232.000000	29.838166
2231.000000	29.907178
2230.000000	29.966772
2229.000000	30.041429
2228.000000	30.169573
2227.000000	29.992680
2226.000000	29.966284
2225.000000	30.009339
2224.000000	30.021477
2223.000000	29.993529
2222.000000	29.945872
2221.000000	29.928253
2220.000000	29.962954
2219.000000	29.919613
2218.000000	29.818326
2217.000000	29.838129
2216.000000	29.935774
2215.000000	29.880813
2214.000000	29.823981
2213.000000	29.864644
2212.000000	29.840578
2211.000000	29.778004
2210.000000	29.694113
2209.000000	29.513544
2208.000000	29.450198
2207.000000	29.568246
2206.000000	29.576888
2205.000000	29.488250
2204.000000	29.500938
2203.000000	29.230953
2202.000000	29.246116
2201.000000	29.213907
2200.000000	29.097184
2199.000000	29.109749
2198.000000	29.036393
2197.000000	29.051013
2196.000000	29.048263
2195.000000	28.917230
2194.000000	28.828252
2193.000000	28.789986
2192.000000	28.805587
2191.000000	28.755843
2190.000000	28.609613
2189.000000	28.609627
2188.000000	28.602980
2187.000000	28.550014
2186.000000	28.586890
2185.000000	28.554906
2184.000000	28.712887
2183.000000	28.642836
2182.000000	28.550216
2181.000000	28.489794
2180.000000	28.346228
2179.000000	28.324293
2178.000000	28.392441
2177.000000	28.599208
2176.000000	28.646791
2175.000000	28.651958
2174.000000	28.639589
2173.000000	28.555548
2172.000000	28.712121
2171.000000	28.581926
2170.000000	28.696156
2169.000000	28.831418
2168.000000	29.078514
2167.000000	29.075617
2166.000000	28.950335
2165.000000	29.148408
2164.000000	29.197312
2163.000000	29.267157
2162.000000	29.357524
2161.000000	29.314332
2160.000000	29.531185
2159.000000	29.656475
2158.000000	29.734333
2157.000000	29.711547
2156.000000	29.885465
2155.000000	29.914035
2154.000000	30.243919
2153.000000	30.316615
2152.000000	30.320478
2151.000000	30.375574
2150.000000	30.471402
2149.000000	30.676888
2148.000000	30.802396
2147.000000	30.859869
2146.000000	31.001524
2145.000000	31.123315
2144.000000	31.187498
2143.000000	31.067652
2142.000000	31.186163
2141.000000	31.442920
2140.000000	31.482500
2139.000000	31.676145
2138.000000	31.725431
2137.000000	31.903791
2136.000000	31.822540
2135.000000	31.985415
2134.000000	32.010708
2133.000000	31.859800
2132.000000	32.076810
2131.000000	32.197428
2130.000000	32.217869
2129.000000	32.308625
2128.000000	32.433774
2127.000000	32.248345
2126.000000	32.385767
2125.000000	32.367849
2124.000000	32.498136
2123.000000	32.507264
2122.000000	32.526510
2121.000000	32.523678
2120.000000	32.487339
2119.000000	32.600781
2118.000000	32.687768
2117.000000	32.642421
2116.000000	32.657849
2115.000000	32.749203
2114.000000	32.809841
2113.000000	32.866473
2112.000000	32.835518
2111.000000	32.721787
2110.000000	32.710536
2109.000000	32.874334
2108.000000	32.840204
2107.000000	32.890511
2106.000000	32.940794
2105.000000	32.823523
2104.000000	32.836834
2103.000000	32.794258
2102.000000	32.833858
2101.000000	32.834526
2100.000000	32.908134
2099.000000	32.855666
2098.000000	32.824960
2097.000000	32.775465
2096.000000	32.884936
2095.000000	32.875965
2094.000000	32.861086
2093.000000	32.813855
2092.000000	32.850737
2091.000000	32.786090
2090.000000	32.821022
2089.000000	32.696283
2088.000000	32.770136
2087.000000	32.778998
2086.000000	32.798402
2085.000000	32.765587
2084.000000	32.689343
2083.000000	32.630240
2082.000000	32.521051
2081.000000	32.483484
2080.000000	32.416679
2079.000000	32.327349
2078.000000	32.225834
2077.000000	32.281315
2076.000000	32.153581
2075.000000	32.122095
2074.000000	32.056941
2073.000000	31.983515
2072.000000	31.869463
2071.000000	31.838297
2070.000000	31.768039
2069.000000	31.584089
2068.000000	31.530244
2067.000000	31.464185
2066.000000	31.302940
2065.000000	31.173302
2064.000000	31.109135
2063.000000	31.045733
2062.000000	30.922277
2061.000000	30.774863
2060.000000	30.624849
2059.000000	30.499372
2058.000000	30.469190
2057.000000	30.385892
2056.000000	30.270675
2055.000000	30.154346
2054.000000	30.107094
2053.000000	29.973563
2052.000000	29.882965
2051.000000	29.768326
2050.000000	29.752186
2049.000000	29.744537
2048.000000	29.666436
2047.000000	29.657930
2046.000000	29.591936
2045.000000	29.524262
2044.000000	29.495431
2043.000000	29.524577
2042.000000	29.525227
2041.000000	29.508407
2040.000000	29.534646
2039.000000	29.496581
2038.000000	29.509071
2037.000000	29.601312
2036.000000	29.668219
2035.000000	29.700453
2034.000000	29.703934
2033.000000	29.741864
2032.000000	29.842745
2031.000000	29.943387
2030.000000	30.001428
2029.000000	30.064025
2028.000000	30.129275
2027.000000	30.217699
2026.000000	30.304092
2025.000000	30.351851
2024.000000	30.400498
2023.000000	30.452675
2022.000000	30.448437
2021.000000	30.478826
2020.000000	30.536234
2019.000000	30.533145
2018.000000	30.565501
2017.000000	30.571077
2016.000000	30.500891
2015.000000	30.517210
2014.000000	30.529234
2013.000000	30.494620
2012.000000	30.463861
2011.000000	30.424263
2010.000000	30.368179
2009.000000	30.285841
2008.000000	30.271368
2007.000000	30.233032
2006.000000	30.129697
2005.000000	30.052890
2004.000000	29.996775
2003.000000	29.921953
2002.000000	29.826641
2001.000000	29.757765
2000.000000	29.701152
1999.000000	29.638061
1998.000000	29.581889
1997.000000	29.515362
1996.000000	29.467305
1995.000000	29.397635
1994.000000	29.291718
1993.000000	29.217050
1992.000000	29.121750
1991.000000	29.025913
1990.000000	28.959516
1989.000000	28.859071
1988.000000	28.800576
1987.000000	28.775098
1986.000000	28.675575
1985.000000	28.583750
1984.000000	28.558729
1983.000000	28.472783
1982.000000	28.363726
1981.000000	28.313165
1980.000000	28.260750
1979.000000	28.167289
1978.000000	28.117430
1977.000000	28.026640
1976.000000	27.938096
1975.000000	27.901479
1974.000000	27.822290
1973.000000	27.751459
1972.000000	27.727068
1971.000000	27.645965
1970.000000	27.630117
1969.000000	27.503742
1968.000000	27.424010
1967.000000	27.398285
1966.000000	27.361278
1965.000000	27.328064
1964.000000	27.220199
1963.000000	27.160510
1962.000000	27.107780
1961.000000	27.057583
1960.000000	27.033039
1959.000000	26.958702
1958.000000	26.920108
1957.000000	26.885669
1956.000000	26.850651
1955.000000	26.814416
1954.000000	26.798346
1953.000000	26.741654
1952.000000	26.702227
1951.000000	26.678788
1950.000000	26.681399
1949.000000	26.645887
1948.000000	26.618610
1947.000000	26.654694
1946.000000	26.673193
1945.000000	26.677042
1944.000000	26.628139
1943.000000	26.667504
1942.000000	26.716368
1941.000000	26.776170
1940.000000	26.775003
1939.000000	26.796053
1938.000000	26.866352
1937.000000	26.939625
1936.000000	27.003841
1935.000000	27.092924
1934.000000	27.159745
1933.000000	27.265496
1932.000000	27.357131
1931.000000	27.471837
1930.000000	27.542386
1929.000000	27.703451
1928.000000	27.817425
1927.000000	28.009556
1926.000000	28.066426
1925.000000	28.218654
1924.000000	28.451056
1923.000000	28.627304
1922.000000	28.800391
1921.000000	29.045808
1920.000000	29.192121
1919.000000	29.451029
1918.000000	29.711236
1917.000000	29.929138
1916.000000	30.049685
1915.000000	30.433704
1914.000000	30.685963
1913.000000	31.033236
1912.000000	31.277522
1911.000000	31.505883
1910.000000	31.836360
1909.000000	32.184772
1908.000000	32.466244
1907.000000	32.839146
1906.000000	33.112027
1905.000000	33.519327
1904.000000	33.887403
1903.000000	34.264623
1902.000000	34.611792
1901.000000	35.012680
1900.000000	35.422519
1899.000000	35.826266
1898.000000	36.209506
1897.000000	36.606720
1896.000000	37.001783
1895.000000	37.429395
1894.000000	37.823427
1893.000000	38.182844
1892.000000	38.662381
1891.000000	39.003713
1890.000000	39.321613
1889.000000	39.714536
1888.000000	40.058853
1887.000000	40.438147
1886.000000	40.793340
1885.000000	41.152811
1884.000000	41.442971
1883.000000	41.743454
1882.000000	42.021467
1881.000000	42.292182
1880.000000	42.585664
1879.000000	42.855756
1878.000000	43.132135
1877.000000	43.394605
1876.000000	43.645865
1875.000000	43.894635
1874.000000	44.126142
1873.000000	44.302406
1872.000000	44.445792
1871.000000	44.648368
1870.000000	44.850506
1869.000000	44.938042
1868.000000	45.100314
1867.000000	45.212480
1866.000000	45.280225
1865.000000	45.397518
1864.000000	45.441461
1863.000000	45.544575
1862.000000	45.602973
1861.000000	45.685299
1860.000000	45.730672
1859.000000	45.768853
1858.000000	45.778552
1857.000000	45.882598
1856.000000	45.911889
1855.000000	45.942291
1854.000000	45.984846
1853.000000	45.991712
1852.000000	46.026829
1851.000000	46.051665
1850.000000	46.054373
1849.000000	46.048723
1848.000000	46.021081
1847.000000	46.051621
1846.000000	46.015730
1845.000000	46.024362
1844.000000	46.009990
1843.000000	45.973334
1842.000000	45.984913
1841.000000	45.954395
1840.000000	45.912339
1839.000000	45.888019
1838.000000	45.839903
1837.000000	45.806380
1836.000000	45.768207
1835.000000	45.761710
1834.000000	45.683457
1833.000000	45.628483
1832.000000	45.582560
1831.000000	45.553872
1830.000000	45.558900
1829.000000	45.492308
1828.000000	45.466086
1827.000000	45.457631
1826.000000	45.406897
1825.000000	45.365184
1824.000000	45.350445
1823.000000	45.315278
1822.000000	45.248297
1821.000000	45.225488
1820.000000	45.194922
1819.000000	45.164806
1818.000000	45.150200
1817.000000	45.096826
1816.000000	45.060975
1815.000000	45.041904
1814.000000	44.992763
1813.000000	44.964401
1812.000000	44.951492
1811.000000	44.920791
1810.000000	44.896674
1809.000000	44.871549
1808.000000	44.841179
1807.000000	44.806716
1806.000000	44.786090
1805.000000	44.767576
1804.000000	44.727787
1803.000000	44.695723
1802.000000	44.675634
1801.000000	44.650707
1800.000000	44.627984
1799.000000	44.602563
1798.000000	44.612197
1797.000000	44.608611
1796.000000	44.563284
1795.000000	44.548545
1794.000000	44.547333
1793.000000	44.517874
1792.000000	44.502385
1791.000000	44.503150
1790.000000	44.464593
1789.000000	44.451134
1788.000000	44.461887
1787.000000	44.439525
1786.000000	44.408888
1785.000000	44.397981
1784.000000	44.397605
1783.000000	44.376327
1782.000000	44.344754
1781.000000	44.311101
1780.000000	44.273589
1779.000000	44.247759
1778.000000	44.210881
1777.000000	44.162373
1776.000000	44.146506
1775.000000	44.121219
1774.000000	44.047491
1773.000000	44.013264
1772.000000	43.966454
1771.000000	43.934770
1770.000000	43.892718
1769.000000	43.834800
1768.000000	43.780666
1767.000000	43.755393
1766.000000	43.728995
1765.000000	43.685057
1764.000000	43.646696
1763.000000	43.566169
1762.000000	43.514776
1761.000000	43.517133
1760.000000	43.443275
1759.000000	43.402295
1758.000000	43.373597
1757.000000	43.330751
1756.000000	43.301910
1755.000000	43.236055
1754.000000	43.183959
1753.000000	43.152152
1752.000000	43.112999
1751.000000	43.053193
1750.000000	43.017065
1749.000000	42.989190
1748.000000	42.957080
1747.000000	42.879570
1746.000000	42.814755
1745.000000	42.771183
1744.000000	42.730320
1743.000000	42.708655
1742.000000	42.651650
1741.000000	42.587886
1740.000000	42.559220
1739.000000	42.535712
1738.000000	42.494428
1737.000000	42.476381
1736.000000	42.423809
1735.000000	42.407657
1734.000000	42.445535
1733.000000	42.423581
1732.000000	42.396478
1731.000000	42.414753
1730.000000	42.424605
1729.000000	42.453632
1728.000000	42.525440
1727.000000	42.548340
1726.000000	42.617145
1725.000000	42.654439
1724.000000	42.716774
1723.000000	42.809987
1722.000000	42.892146
1721.000000	42.935918
1720.000000	43.034788
1719.000000	43.157156
1718.000000	43.221611
1717.000000	43.306059
1716.000000	43.374153
1715.000000	43.452477
1714.000000	43.511863
1713.000000	43.601208
1712.000000	43.688668
1711.000000	43.743213
1710.000000	43.805326
1709.000000	43.846098
1708.000000	43.895158
1707.000000	43.950112
1706.000000	43.982693
1705.000000	43.987302
1704.000000	44.032668
1703.000000	44.054056
1702.000000	44.034656
1701.000000	44.049900
1700.000000	44.090176
1699.000000	44.084065
1698.000000	44.149691
1697.000000	44.132684
1696.000000	44.173868
1695.000000	44.211177
1694.000000	44.253534
1693.000000	44.297345
1692.000000	44.325702
1691.000000	44.382722
1690.000000	44.451087
1689.000000	44.545086
1688.000000	44.635356
1687.000000	44.729322
1686.000000	44.839526
1685.000000	44.963413
1684.000000	45.096919
1683.000000	45.209145
1682.000000	45.364555
1681.000000	45.492054
1680.000000	45.670350
1679.000000	45.791270
1678.000000	45.969577
1677.000000	46.117124
1676.000000	46.266321
1675.000000	46.437738
1674.000000	46.581446
1673.000000	46.738290
1672.000000	46.855155
1671.000000	47.028680
1670.000000	47.165429
1669.000000	47.309749
1668.000000	47.439380
1667.000000	47.571533
1666.000000	47.616541
1665.000000	47.702260
1664.000000	47.808312
1663.000000	47.875417
1662.000000	47.952151
1661.000000	48.014188
1660.000000	48.103351
1659.000000	48.166714
1658.000000	48.195418
1657.000000	48.211385
1656.000000	48.259376
1655.000000	48.296948
1654.000000	48.309214
1653.000000	48.333619
1652.000000	48.360127
1651.000000	48.333386
1650.000000	48.356865
1649.000000	48.338913
1648.000000	48.319667
1647.000000	48.319072
1646.000000	48.299106
1645.000000	48.281731
1644.000000	48.270433
1643.000000	48.252631
1642.000000	48.233977
1641.000000	48.214943
1640.000000	48.177212
1639.000000	48.138465
1638.000000	48.122165
1637.000000	48.100937
1636.000000	48.063223
1635.000000	48.032012
1634.000000	47.991698
1633.000000	47.945720
1632.000000	47.911544
1631.000000	47.873838
1630.000000	47.828420
1629.000000	47.796542
1628.000000	47.757201
1627.000000	47.706437
1626.000000	47.659151
1625.000000	47.620946
1624.000000	47.567715
1623.000000	47.528429
1622.000000	47.505257
1621.000000	47.435752
1620.000000	47.385140
1619.000000	47.338907
1618.000000	47.292592
1617.000000	47.261136
1616.000000	47.207111
1615.000000	47.137193
1614.000000	47.084780
1613.000000	47.044229
1612.000000	46.988324
1611.000000	46.927566
1610.000000	46.880226
1609.000000	46.826401
1608.000000	46.755224
1607.000000	46.692489
1606.000000	46.651695
1605.000000	46.592432
1604.000000	46.524425
1603.000000	46.469200
1602.000000	46.424573
1601.000000	46.372239
1600.000000	46.312791
1599.000000	46.252557
1598.000000	46.197907
1597.000000	46.151857
1596.000000	46.094160
1595.000000	46.032588
1594.000000	46.003211
1593.000000	45.954040
1592.000000	45.885129
1591.000000	45.837563
1590.000000	45.803431
1589.000000	45.749882
1588.000000	45.697207
1587.000000	45.662279
1586.000000	45.628654
1585.000000	45.584259
1584.000000	45.533521
1583.000000	45.484195
1582.000000	45.449798
1581.000000	45.413057
1580.000000	45.364550
1579.000000	45.311316
1578.000000	45.274961
1577.000000	45.243675
1576.000000	45.206266
1575.000000	45.160152
1574.000000	45.103441
1573.000000	45.064026
1572.000000	45.032657
1571.000000	44.982985
1570.000000	44.938408
1569.000000	44.905483
1568.000000	44.873285
1567.000000	44.846020
1566.000000	44.813427
1565.000000	44.773639
1564.000000	44.735540
1563.000000	44.707744
1562.000000	44.678946
1561.000000	44.666680
1560.000000	44.640639
1559.000000	44.610379
1558.000000	44.601237
1557.000000	44.584309
1556.000000	44.557181
1555.000000	44.524380
1554.000000	44.492780
1553.000000	44.457566
1552.000000	44.449063
1551.000000	44.421069
1550.000000	44.367938
1549.000000	44.326829
1548.000000	44.301888
1547.000000	44.252189
1546.000000	44.191243
1545.000000	44.137523
1544.000000	44.075780
1543.000000	44.010543
1542.000000	43.945264
1541.000000	43.870214
1540.000000	43.811894
1539.000000	43.733572
1538.000000	43.649254
1537.000000	43.571932
1536.000000	43.507045
1535.000000	43.437895
1534.000000	43.352501
1533.000000	43.284856
1532.000000	43.200506
1531.000000	43.152061
1530.000000	43.076397
1529.000000	42.987221
1528.000000	42.930803
1527.000000	42.880810
1526.000000	42.825783
1525.000000	42.757727
1524.000000	42.714991
1523.000000	42.696001
1522.000000	42.638871
1521.000000	42.586525
1520.000000	42.544444
1519.000000	42.526275
1518.000000	42.486500
1517.000000	42.434789
1516.000000	42.406737
1515.000000	42.372057
1514.000000	42.362348
1513.000000	42.337243
1512.000000	42.344411
1511.000000	42.373287
1510.000000	42.399259
1509.000000	42.403641
1508.000000	42.353751
1507.000000	42.314665
1506.000000	42.293134
1505.000000	42.269710
1504.000000	42.259252
1503.000000	42.241137
1502.000000	42.233672
1501.000000	42.232131
1500.000000	42.213429
1499.000000	42.211981
1498.000000	42.218984
1497.000000	42.213081
1496.000000	42.219895
1495.000000	42.219600
1494.000000	42.233617
1493.000000	42.245096
1492.000000	42.273687
1491.000000	42.299064
1490.000000	42.320326
1489.000000	42.351450
1488.000000	42.367384
1487.000000	42.419837
1486.000000	42.442524
1485.000000	42.466700
1484.000000	42.500945
1483.000000	42.552801
1482.000000	42.579883
1481.000000	42.625194
1480.000000	42.660168
1479.000000	42.703989
1478.000000	42.732978
1477.000000	42.755007
1476.000000	42.806036
1475.000000	42.854189
1474.000000	42.890787
1473.000000	42.913841
1472.000000	42.977558
1471.000000	42.996587
1470.000000	43.027357
