PE UV       SUBTECH     SPECTRUM    ASCII       PEDS        4.00        
   -1
RTgVeauUK 12 .Sample.asc
18/03/09
14:37:54.00
18/03/09
14:37:54.00
Administrator

200.000000
1
Lambda 750
750N8071901
PerkinElmer UV WinLab 6.0.4.0738 / 1.61.00 Lambda 900

0
0
3350/servo 860.8/2
0
0
UV/VIS
1
1
1
CommonBeamDepol,150mm sphere / downward view
0
0
0
0
Program
Program
3350/servo 860.8/2
3350/0.2 860.8/0.2
3350/0.2 860.8/0.2
0
1
 
 
 
0
 
860.8
319.2
860.8
Front
100
on
 
 
0
0
0
 
0
 
 
 
0
 
 
0
0
0
0
0
 
 
 
 
0
0


0
0
#HDR
-1
-1
#GR
nm
%R
1.0
0.0
2350.000000
-1.000000
2151
8
56.275708
11.867896
#DATA
2350.000000	22.844363
2349.000000	23.320604
2348.000000	22.957538
2347.000000	23.072162
2346.000000	23.158921
2345.000000	22.953247
2344.000000	23.211783
2343.000000	22.949389
2342.000000	23.523662
2341.000000	23.587859
2340.000000	23.098410
2339.000000	23.367274
2338.000000	23.500680
2337.000000	23.515584
2336.000000	23.364390
2335.000000	23.601439
2334.000000	23.896417
2333.000000	23.784406
2332.000000	23.616051
2331.000000	23.761006
2330.000000	23.611101
2329.000000	23.786812
2328.000000	23.706752
2327.000000	23.330999
2326.000000	23.178835
2325.000000	23.451124
2324.000000	23.446344
2323.000000	23.563356
2322.000000	23.584736
2321.000000	23.314060
2320.000000	23.415300
2319.000000	23.593374
2318.000000	23.392519
2317.000000	23.566492
2316.000000	23.349420
2315.000000	23.261039
2314.000000	23.268498
2313.000000	23.332330
2312.000000	23.283875
2311.000000	23.219687
2310.000000	23.275155
2309.000000	23.188227
2308.000000	23.061698
2307.000000	22.936241
2306.000000	22.798537
2305.000000	22.888001
2304.000000	22.821887
2303.000000	22.893531
2302.000000	22.846540
2301.000000	22.768080
2300.000000	22.525971
2299.000000	22.455082
2298.000000	22.447390
2297.000000	22.395855
2296.000000	22.442983
2295.000000	22.339604
2294.000000	22.317322
2293.000000	22.288357
2292.000000	22.285162
2291.000000	22.166729
2290.000000	22.110495
2289.000000	22.033087
2288.000000	22.076848
2287.000000	22.027296
2286.000000	22.006500
2285.000000	21.942423
2284.000000	22.050666
2283.000000	21.906737
2282.000000	21.924342
2281.000000	22.108565
2280.000000	21.906950
2279.000000	21.870714
2278.000000	21.938615
2277.000000	21.978928
2276.000000	21.920408
2275.000000	21.981806
2274.000000	22.000286
2273.000000	22.051599
2272.000000	22.263626
2271.000000	22.203147
2270.000000	22.074934
2269.000000	22.044670
2268.000000	22.072809
2267.000000	22.269148
2266.000000	22.474965
2265.000000	22.526724
2264.000000	22.606795
2263.000000	22.553395
2262.000000	22.527261
2261.000000	22.777224
2260.000000	22.900287
2259.000000	22.931949
2258.000000	22.998374
2257.000000	23.118473
2256.000000	23.148406
2255.000000	23.184879
2254.000000	23.295754
2253.000000	23.455816
2252.000000	23.672371
2251.000000	23.837277
2250.000000	23.912527
2249.000000	24.047274
2248.000000	24.242544
2247.000000	24.335286
2246.000000	24.349012
2245.000000	24.502147
2244.000000	24.675740
2243.000000	24.744696
2242.000000	24.821966
2241.000000	24.946963
2240.000000	25.020865
2239.000000	25.092000
2238.000000	25.160959
2237.000000	25.252764
2236.000000	25.338078
2235.000000	25.340108
2234.000000	25.403569
2233.000000	25.515359
2232.000000	25.561736
2231.000000	25.677968
2230.000000	25.670869
2229.000000	25.702910
2228.000000	25.848294
2227.000000	25.839909
2226.000000	25.771866
2225.000000	25.778480
2224.000000	25.722670
2223.000000	25.628834
2222.000000	25.693286
2221.000000	25.751301
2220.000000	25.804084
2219.000000	25.721466
2218.000000	25.638980
2217.000000	25.608665
2216.000000	25.607180
2215.000000	25.607870
2214.000000	25.522570
2213.000000	25.540939
2212.000000	25.556410
2211.000000	25.399573
2210.000000	25.325848
2209.000000	25.424230
2208.000000	25.455115
2207.000000	25.261557
2206.000000	25.243942
2205.000000	25.183887
2204.000000	25.114906
2203.000000	25.124114
2202.000000	25.059998
2201.000000	25.075286
2200.000000	25.085657
2199.000000	25.029272
2198.000000	24.980131
2197.000000	24.864629
2196.000000	24.838388
2195.000000	24.878403
2194.000000	24.739042
2193.000000	24.643579
2192.000000	24.675211
2191.000000	24.622574
2190.000000	24.633771
2189.000000	24.619161
2188.000000	24.420238
2187.000000	24.320745
2186.000000	24.293615
2185.000000	24.308569
2184.000000	24.505943
2183.000000	24.535958
2182.000000	24.461824
2181.000000	24.394310
2180.000000	24.419036
2179.000000	24.429620
2178.000000	24.436816
2177.000000	24.341168
2176.000000	24.360891
2175.000000	24.296346
2174.000000	24.414645
2173.000000	24.430261
2172.000000	24.512856
2171.000000	24.561661
2170.000000	24.383930
2169.000000	24.565125
2168.000000	24.737592
2167.000000	24.611435
2166.000000	24.686881
2165.000000	24.661838
2164.000000	24.769486
2163.000000	24.883260
2162.000000	24.978250
2161.000000	25.116247
2160.000000	25.167580
2159.000000	25.389371
2158.000000	25.275161
2157.000000	25.267603
2156.000000	25.435933
2155.000000	25.551090
2154.000000	25.769451
2153.000000	25.928177
2152.000000	25.911615
2151.000000	26.014262
2150.000000	26.212588
2149.000000	26.175933
2148.000000	26.203118
2147.000000	26.281458
2146.000000	26.360955
2145.000000	26.522127
2144.000000	26.645491
2143.000000	26.716885
2142.000000	27.099645
2141.000000	26.919277
2140.000000	26.925582
2139.000000	27.160153
2138.000000	27.168442
2137.000000	27.183432
2136.000000	27.123956
2135.000000	27.251386
2134.000000	27.604294
2133.000000	27.392303
2132.000000	27.561293
2131.000000	27.755978
2130.000000	27.867126
2129.000000	27.711210
2128.000000	27.792278
2127.000000	27.779142
2126.000000	27.943483
2125.000000	27.863763
2124.000000	27.952794
2123.000000	27.917289
2122.000000	27.922878
2121.000000	27.930514
2120.000000	27.931293
2119.000000	28.066531
2118.000000	27.999638
2117.000000	28.007208
2116.000000	28.202225
2115.000000	28.360541
2114.000000	28.243049
2113.000000	28.324672
2112.000000	28.225638
2111.000000	28.215814
2110.000000	28.318158
2109.000000	28.318218
2108.000000	28.283113
2107.000000	28.316088
2106.000000	28.357169
2105.000000	28.257971
2104.000000	28.319626
2103.000000	28.360711
2102.000000	28.272309
2101.000000	28.323223
2100.000000	28.296146
2099.000000	28.298348
2098.000000	28.479063
2097.000000	28.398453
2096.000000	28.412100
2095.000000	28.288250
2094.000000	28.321256
2093.000000	28.408985
2092.000000	28.362196
2091.000000	28.247408
2090.000000	28.245235
2089.000000	28.282120
2088.000000	28.242921
2087.000000	28.293066
2086.000000	28.307363
2085.000000	28.307955
2084.000000	28.290691
2083.000000	28.178702
2082.000000	28.187287
2081.000000	28.085754
2080.000000	28.045920
2079.000000	28.004284
2078.000000	27.879534
2077.000000	27.931897
2076.000000	27.905824
2075.000000	27.754047
2074.000000	27.710202
2073.000000	27.601324
2072.000000	27.537065
2071.000000	27.407085
2070.000000	27.349172
2069.000000	27.277354
2068.000000	27.169878
2067.000000	27.072802
2066.000000	26.963374
2065.000000	26.888988
2064.000000	26.813372
2063.000000	26.672766
2062.000000	26.661548
2061.000000	26.596159
2060.000000	26.391902
2059.000000	26.308694
2058.000000	26.243486
2057.000000	26.091001
2056.000000	26.034483
2055.000000	26.012819
2054.000000	25.932341
2053.000000	25.779296
2052.000000	25.704481
2051.000000	25.637846
2050.000000	25.516241
2049.000000	25.469482
2048.000000	25.427960
2047.000000	25.385928
2046.000000	25.308849
2045.000000	25.201220
2044.000000	25.187755
2043.000000	25.214825
2042.000000	25.200376
2041.000000	25.261058
2040.000000	25.276331
2039.000000	25.255360
2038.000000	25.268556
2037.000000	25.277870
2036.000000	25.287266
2035.000000	25.357520
2034.000000	25.400293
2033.000000	25.481720
2032.000000	25.592345
2031.000000	25.629786
2030.000000	25.734943
2029.000000	25.800386
2028.000000	25.818268
2027.000000	25.926565
2026.000000	26.033252
2025.000000	26.015431
2024.000000	26.002011
2023.000000	26.086957
2022.000000	26.142976
2021.000000	26.175826
2020.000000	26.184090
2019.000000	26.177826
2018.000000	26.203821
2017.000000	26.247038
2016.000000	26.246181
2015.000000	26.244057
2014.000000	26.266943
2013.000000	26.200034
2012.000000	26.151211
2011.000000	26.167252
2010.000000	26.137142
2009.000000	26.071631
2008.000000	26.036197
2007.000000	25.995995
2006.000000	25.940387
2005.000000	25.900834
2004.000000	25.819633
2003.000000	25.765694
2002.000000	25.711822
2001.000000	25.649469
2000.000000	25.578156
1999.000000	25.521663
1998.000000	25.470926
1997.000000	25.394833
1996.000000	25.342369
1995.000000	25.273872
1994.000000	25.221848
1993.000000	25.167410
1992.000000	25.080247
1991.000000	25.020380
1990.000000	24.951468
1989.000000	24.865130
1988.000000	24.791264
1987.000000	24.731987
1986.000000	24.647834
1985.000000	24.578288
1984.000000	24.526045
1983.000000	24.468282
1982.000000	24.412065
1981.000000	24.367190
1980.000000	24.303461
1979.000000	24.226161
1978.000000	24.170659
1977.000000	24.073136
1976.000000	24.053781
1975.000000	24.016880
1974.000000	23.921846
1973.000000	23.886305
1972.000000	23.814936
1971.000000	23.736658
1970.000000	23.663078
1969.000000	23.649456
1968.000000	23.598244
1967.000000	23.572089
1966.000000	23.528787
1965.000000	23.455776
1964.000000	23.405022
1963.000000	23.324156
1962.000000	23.294225
1961.000000	23.291868
1960.000000	23.227264
1959.000000	23.181624
1958.000000	23.096518
1957.000000	23.085046
1956.000000	23.002222
1955.000000	22.994871
1954.000000	23.001540
1953.000000	22.966212
1952.000000	22.947959
1951.000000	22.977597
1950.000000	22.915123
1949.000000	22.829637
1948.000000	22.857969
1947.000000	22.848943
1946.000000	22.848977
1945.000000	22.855532
1944.000000	22.911209
1943.000000	22.894606
1942.000000	22.894456
1941.000000	22.921629
1940.000000	22.984175
1939.000000	22.952838
1938.000000	22.981659
1937.000000	23.037077
1936.000000	23.105285
1935.000000	23.157102
1934.000000	23.247787
1933.000000	23.374724
1932.000000	23.499018
1931.000000	23.518217
1930.000000	23.652994
1929.000000	23.765194
1928.000000	23.884116
1927.000000	24.004458
1926.000000	24.024162
1925.000000	24.254377
1924.000000	24.370203
1923.000000	24.576443
1922.000000	24.766705
1921.000000	24.904484
1920.000000	25.001563
1919.000000	25.251505
1918.000000	25.486492
1917.000000	25.651229
1916.000000	25.789407
1915.000000	26.124963
1914.000000	26.362876
1913.000000	26.613038
1912.000000	26.834090
1911.000000	27.114728
1910.000000	27.384792
1909.000000	27.713147
1908.000000	27.980699
1907.000000	28.293256
1906.000000	28.561738
1905.000000	28.925056
1904.000000	29.265469
1903.000000	29.623287
1902.000000	29.995297
1901.000000	30.362215
1900.000000	30.701731
1899.000000	31.104784
1898.000000	31.531703
1897.000000	31.952093
1896.000000	32.303159
1895.000000	32.675122
1894.000000	33.093580
1893.000000	33.493385
1892.000000	33.862715
1891.000000	34.234517
1890.000000	34.577080
1889.000000	34.977771
1888.000000	35.349586
1887.000000	35.669715
1886.000000	36.045323
1885.000000	36.388915
1884.000000	36.761508
1883.000000	37.105105
1882.000000	37.391262
1881.000000	37.763678
1880.000000	37.988759
1879.000000	38.263599
1878.000000	38.538556
1877.000000	38.881822
1876.000000	39.085597
1875.000000	39.319690
1874.000000	39.537367
1873.000000	39.742097
1872.000000	39.963899
1871.000000	40.141127
1870.000000	40.302183
1869.000000	40.486160
1868.000000	40.601654
1867.000000	40.714446
1866.000000	40.822133
1865.000000	40.934120
1864.000000	41.030763
1863.000000	41.125384
1862.000000	41.236605
1861.000000	41.289631
1860.000000	41.333933
1859.000000	41.398622
1858.000000	41.451778
1857.000000	41.499721
1856.000000	41.562368
1855.000000	41.617779
1854.000000	41.686283
1853.000000	41.700688
1852.000000	41.680107
1851.000000	41.693863
1850.000000	41.716829
1849.000000	41.730658
1848.000000	41.774705
1847.000000	41.773694
1846.000000	41.741818
1845.000000	41.743539
1844.000000	41.716450
1843.000000	41.692320
1842.000000	41.687869
1841.000000	41.634191
1840.000000	41.576577
1839.000000	41.573369
1838.000000	41.561419
1837.000000	41.504957
1836.000000	41.472261
1835.000000	41.412066
1834.000000	41.346500
1833.000000	41.315761
1832.000000	41.291144
1831.000000	41.243833
1830.000000	41.225389
1829.000000	41.182440
1828.000000	41.136909
1827.000000	41.117631
1826.000000	41.080030
1825.000000	41.031342
1824.000000	41.028239
1823.000000	40.996025
1822.000000	40.914500
1821.000000	40.885806
1820.000000	40.873750
1819.000000	40.851348
1818.000000	40.813689
1817.000000	40.758493
1816.000000	40.709468
1815.000000	40.685829
1814.000000	40.668261
1813.000000	40.640374
1812.000000	40.620640
1811.000000	40.582155
1810.000000	40.556032
1809.000000	40.539319
1808.000000	40.491521
1807.000000	40.453181
1806.000000	40.447630
1805.000000	40.406068
1804.000000	40.353228
1803.000000	40.341906
1802.000000	40.334353
1801.000000	40.309982
1800.000000	40.280969
1799.000000	40.239203
1798.000000	40.234847
1797.000000	40.229907
1796.000000	40.190371
1795.000000	40.156678
1794.000000	40.169482
1793.000000	40.162642
1792.000000	40.118091
1791.000000	40.108085
1790.000000	40.087463
1789.000000	40.071002
1788.000000	40.086621
1787.000000	40.070578
1786.000000	40.051932
1785.000000	40.049878
1784.000000	40.011804
1783.000000	39.985568
1782.000000	39.975383
1781.000000	39.937228
1780.000000	39.890266
1779.000000	39.884744
1778.000000	39.851117
1777.000000	39.814234
1776.000000	39.798618
1775.000000	39.745626
1774.000000	39.701301
1773.000000	39.648689
1772.000000	39.605327
1771.000000	39.551127
1770.000000	39.521661
1769.000000	39.456209
1768.000000	39.380138
1767.000000	39.362476
1766.000000	39.300372
1765.000000	39.274890
1764.000000	39.244112
1763.000000	39.178611
1762.000000	39.127288
1761.000000	39.074698
1760.000000	39.028460
1759.000000	38.966475
1758.000000	38.945759
1757.000000	38.881151
1756.000000	38.848798
1755.000000	38.829921
1754.000000	38.774605
1753.000000	38.731059
1752.000000	38.689726
1751.000000	38.643301
1750.000000	38.583424
1749.000000	38.547411
1748.000000	38.488702
1747.000000	38.466592
1746.000000	38.411201
1745.000000	38.345938
1744.000000	38.282734
1743.000000	38.245208
1742.000000	38.190304
1741.000000	38.152860
1740.000000	38.104103
1739.000000	38.089512
1738.000000	38.042312
1737.000000	37.988849
1736.000000	37.973663
1735.000000	37.979550
1734.000000	37.980616
1733.000000	37.946247
1732.000000	37.963709
1731.000000	37.979829
1730.000000	37.972502
1729.000000	37.999111
1728.000000	38.049076
1727.000000	38.089494
1726.000000	38.149244
1725.000000	38.191486
1724.000000	38.247747
1723.000000	38.338553
1722.000000	38.414584
1721.000000	38.506148
1720.000000	38.590634
1719.000000	38.676425
1718.000000	38.746796
1717.000000	38.845582
1716.000000	38.910642
1715.000000	38.982922
1714.000000	39.083051
1713.000000	39.152682
1712.000000	39.227039
1711.000000	39.275907
1710.000000	39.337495
1709.000000	39.401472
1708.000000	39.449673
1707.000000	39.481329
1706.000000	39.523191
1705.000000	39.542284
1704.000000	39.578461
1703.000000	39.609095
1702.000000	39.605236
1701.000000	39.594683
1700.000000	39.632944
1699.000000	39.626792
1698.000000	39.662971
1697.000000	39.686408
1696.000000	39.710868
1695.000000	39.732733
1694.000000	39.749528
1693.000000	39.803453
1692.000000	39.850673
1691.000000	39.914078
1690.000000	39.994050
1689.000000	40.064377
1688.000000	40.158147
1687.000000	40.252859
1686.000000	40.360591
1685.000000	40.469914
1684.000000	40.595481
1683.000000	40.740164
1682.000000	40.891079
1681.000000	41.039088
1680.000000	41.200201
1679.000000	41.371687
1678.000000	41.530093
1677.000000	41.673098
1676.000000	41.867591
1675.000000	42.061420
1674.000000	42.205282
1673.000000	42.377578
1672.000000	42.533260
1671.000000	42.697369
1670.000000	42.852318
1669.000000	43.024423
1668.000000	43.153678
1667.000000	43.307720
1666.000000	43.380334
1665.000000	43.510587
1664.000000	43.602018
1663.000000	43.681420
1662.000000	43.767963
1661.000000	43.863265
1660.000000	43.923619
1659.000000	43.994721
1658.000000	44.028027
1657.000000	44.087126
1656.000000	44.120820
1655.000000	44.145503
1654.000000	44.182352
1653.000000	44.191673
1652.000000	44.209715
1651.000000	44.220890
1650.000000	44.226561
1649.000000	44.231113
1648.000000	44.224083
1647.000000	44.223913
1646.000000	44.199597
1645.000000	44.157655
1644.000000	44.149208
1643.000000	44.137595
1642.000000	44.097719
1641.000000	44.079743
1640.000000	44.060651
1639.000000	44.032936
1638.000000	43.996890
1637.000000	43.963536
1636.000000	43.920655
1635.000000	43.887692
1634.000000	43.836312
1633.000000	43.804755
1632.000000	43.763168
1631.000000	43.728015
1630.000000	43.680897
1629.000000	43.643041
1628.000000	43.593822
1627.000000	43.539322
1626.000000	43.507256
1625.000000	43.460286
1624.000000	43.426522
1623.000000	43.374563
1622.000000	43.323149
1621.000000	43.266702
1620.000000	43.204732
1619.000000	43.167551
1618.000000	43.118137
1617.000000	43.043029
1616.000000	42.998304
1615.000000	42.937793
1614.000000	42.870270
1613.000000	42.822309
1612.000000	42.764906
1611.000000	42.702801
1610.000000	42.658357
1609.000000	42.584666
1608.000000	42.539563
1607.000000	42.482308
1606.000000	42.407922
1605.000000	42.350307
1604.000000	42.294884
1603.000000	42.224570
1602.000000	42.157899
1601.000000	42.107663
1600.000000	42.049628
1599.000000	41.992636
1598.000000	41.928997
1597.000000	41.868932
1596.000000	41.814241
1595.000000	41.755159
1594.000000	41.699712
1593.000000	41.650233
1592.000000	41.594400
1591.000000	41.534633
1590.000000	41.493638
1589.000000	41.448017
1588.000000	41.385451
1587.000000	41.346627
1586.000000	41.302214
1585.000000	41.243373
1584.000000	41.205423
1583.000000	41.164215
1582.000000	41.122026
1581.000000	41.076618
1580.000000	41.031858
1579.000000	40.988802
1578.000000	40.957856
1577.000000	40.908484
1576.000000	40.856481
1575.000000	40.820607
1574.000000	40.767386
1573.000000	40.725729
1572.000000	40.689315
1571.000000	40.632482
1570.000000	40.591006
1569.000000	40.551187
1568.000000	40.519798
1567.000000	40.489730
1566.000000	40.449291
1565.000000	40.416765
1564.000000	40.389236
1563.000000	40.360147
1562.000000	40.315377
1561.000000	40.295667
1560.000000	40.268028
1559.000000	40.260029
1558.000000	40.226960
1557.000000	40.207241
1556.000000	40.184341
1555.000000	40.150833
1554.000000	40.143406
1553.000000	40.118080
1552.000000	40.086064
1551.000000	40.040818
1550.000000	40.008264
1549.000000	39.971507
1548.000000	39.939333
1547.000000	39.888442
1546.000000	39.832920
1545.000000	39.770969
1544.000000	39.720678
1543.000000	39.654845
1542.000000	39.589362
1541.000000	39.516210
1540.000000	39.434038
1539.000000	39.356687
1538.000000	39.276356
1537.000000	39.207025
1536.000000	39.126297
1535.000000	39.046299
1534.000000	38.975172
1533.000000	38.899272
1532.000000	38.811229
1531.000000	38.733964
1530.000000	38.671339
1529.000000	38.592905
1528.000000	38.535753
1527.000000	38.469125
1526.000000	38.393989
1525.000000	38.352424
1524.000000	38.283247
1523.000000	38.254418
1522.000000	38.205102
1521.000000	38.160018
1520.000000	38.114579
1519.000000	38.079136
1518.000000	38.055783
1517.000000	38.022429
1516.000000	37.975318
1515.000000	37.931390
1514.000000	37.912626
1513.000000	37.884359
1512.000000	37.863484
1511.000000	37.853692
1510.000000	37.844860
1509.000000	37.861663
1508.000000	37.876547
1507.000000	37.894635
1506.000000	37.888411
1505.000000	37.859952
1504.000000	37.848891
1503.000000	37.814042
1502.000000	37.787610
1501.000000	37.784246
1500.000000	37.764060
1499.000000	37.774342
1498.000000	37.775768
1497.000000	37.782053
1496.000000	37.778234
1495.000000	37.796519
1494.000000	37.815802
1493.000000	37.819280
1492.000000	37.829873
1491.000000	37.855928
1490.000000	37.896826
1489.000000	37.921903
1488.000000	37.940327
1487.000000	37.978272
1486.000000	38.020034
1485.000000	38.026097
1484.000000	38.068303
1483.000000	38.120713
1482.000000	38.151637
1481.000000	38.209771
1480.000000	38.241246
1479.000000	38.309893
1478.000000	38.337266
1477.000000	38.390466
1476.000000	38.410187
1475.000000	38.471123
1474.000000	38.520989
1473.000000	38.570811
1472.000000	38.606147
1471.000000	38.627402
1470.000000	38.677363
