PE UV       SUBTECH     SPECTRUM    ASCII       PEDS        4.00        
   -1
RTgVeauAl 32.Sample.asc
18/03/09
17:36:41.00
18/03/09
17:36:41.00
Administrator

200.000000
1
Lambda 750
750N8071901
PerkinElmer UV WinLab 6.0.4.0738 / 1.61.00 Lambda 900

0
0
3350/servo 860.8/2
0
0
UV/VIS
1
1
1
CommonBeamDepol,150mm sphere / downward view
0
0
0
0
Program
Program
3350/servo 860.8/2
3350/0.2 860.8/0.2
3350/0.2 860.8/0.2
0
1
 
 
 
0
 
860.8
319.2
860.8
Front
100
on
 
 
0
0
0
 
0
 
 
 
0
 
 
0
0
0
0
0
 
 
 
 
0
0


0
0
#HDR
-1
-1
#GR
nm
%R
1.0
0.0
2350.000000
-1.000000
2151
8
61.008194
10.561552
#DATA
2350.000000	20.615418
2349.000000	20.392629
2348.000000	20.217898
2347.000000	20.723739
2346.000000	20.276917
2345.000000	20.311102
2344.000000	20.293308
2343.000000	20.375521
2342.000000	20.175997
2341.000000	20.318419
2340.000000	20.792528
2339.000000	20.821530
2338.000000	20.720453
2337.000000	20.697194
2336.000000	21.040484
2335.000000	20.929739
2334.000000	21.129571
2333.000000	21.064207
2332.000000	21.242172
2331.000000	21.502369
2330.000000	20.931196
2329.000000	20.890704
2328.000000	20.914157
2327.000000	20.864899
2326.000000	20.957637
2325.000000	20.702997
2324.000000	20.804090
2323.000000	20.886565
2322.000000	20.622154
2321.000000	20.886460
2320.000000	20.724719
2319.000000	20.567711
2318.000000	20.784689
2317.000000	20.670607
2316.000000	20.303374
2315.000000	20.290777
2314.000000	20.467362
2313.000000	20.469483
2312.000000	20.256560
2311.000000	20.176813
2310.000000	20.403398
2309.000000	20.413141
2308.000000	20.315367
2307.000000	20.010443
2306.000000	19.797265
2305.000000	19.746190
2304.000000	19.907654
2303.000000	19.878588
2302.000000	19.904241
2301.000000	19.676510
2300.000000	19.559208
2299.000000	19.537902
2298.000000	19.389665
2297.000000	19.285617
2296.000000	19.494385
2295.000000	19.418255
2294.000000	19.221877
2293.000000	19.374169
2292.000000	19.297726
2291.000000	19.082376
2290.000000	18.875611
2289.000000	18.806187
2288.000000	18.935508
2287.000000	18.925317
2286.000000	18.885712
2285.000000	18.860640
2284.000000	19.019919
2283.000000	18.929791
2282.000000	18.800158
2281.000000	18.759709
2280.000000	18.780315
2279.000000	18.854482
2278.000000	18.961315
2277.000000	18.969810
2276.000000	18.924488
2275.000000	18.908891
2274.000000	18.872462
2273.000000	19.017186
2272.000000	19.236111
2271.000000	19.193286
2270.000000	18.998333
2269.000000	19.080656
2268.000000	19.060747
2267.000000	19.128578
2266.000000	19.434342
2265.000000	19.595030
2264.000000	19.723927
2263.000000	19.759481
2262.000000	19.755480
2261.000000	19.807036
2260.000000	19.982253
2259.000000	20.132893
2258.000000	20.364659
2257.000000	20.603452
2256.000000	20.689356
2255.000000	20.808545
2254.000000	20.880964
2253.000000	21.078805
2252.000000	21.332207
2251.000000	21.531302
2250.000000	21.739047
2249.000000	21.925310
2248.000000	22.055407
2247.000000	22.174457
2246.000000	22.337024
2245.000000	22.503479
2244.000000	22.767620
2243.000000	22.965743
2242.000000	23.062477
2241.000000	23.232722
2240.000000	23.314667
2239.000000	23.424931
2238.000000	23.593277
2237.000000	23.707988
2236.000000	23.808147
2235.000000	23.948662
2234.000000	24.050632
2233.000000	23.999536
2232.000000	24.017650
2231.000000	24.045191
2230.000000	24.110922
2229.000000	24.220866
2228.000000	24.272444
2227.000000	24.245395
2226.000000	24.273879
2225.000000	24.209749
2224.000000	24.242492
2223.000000	24.176833
2222.000000	24.159654
2221.000000	24.292617
2220.000000	24.291097
2219.000000	24.184024
2218.000000	24.188319
2217.000000	24.141271
2216.000000	24.049053
2215.000000	23.988601
2214.000000	24.017592
2213.000000	24.069105
2212.000000	24.001167
2211.000000	23.825690
2210.000000	23.755182
2209.000000	23.775355
2208.000000	23.642633
2207.000000	23.504455
2206.000000	23.375219
2205.000000	23.335640
2204.000000	23.306191
2203.000000	23.182069
2202.000000	23.227852
2201.000000	23.195524
2200.000000	23.195902
2199.000000	23.123673
2198.000000	23.048290
2197.000000	22.930880
2196.000000	22.792507
2195.000000	22.734174
2194.000000	22.659639
2193.000000	22.525371
2192.000000	22.641018
2191.000000	22.578260
2190.000000	22.535272
2189.000000	22.415590
2188.000000	22.220262
2187.000000	22.189235
2186.000000	22.354899
2185.000000	22.245958
2184.000000	22.208354
2183.000000	22.191194
2182.000000	22.071082
2181.000000	21.999758
2180.000000	22.023565
2179.000000	21.932925
2178.000000	21.764128
2177.000000	21.931957
2176.000000	22.110565
2175.000000	22.016346
2174.000000	22.090246
2173.000000	22.067214
2172.000000	22.067893
2171.000000	22.141488
2170.000000	22.164632
2169.000000	22.234465
2168.000000	22.373503
2167.000000	22.314158
2166.000000	22.300192
2165.000000	22.539449
2164.000000	22.460225
2163.000000	22.680087
2162.000000	22.846623
2161.000000	22.901090
2160.000000	22.979043
2159.000000	23.012133
2158.000000	23.105387
2157.000000	23.249332
2156.000000	23.444786
2155.000000	23.572518
2154.000000	23.841486
2153.000000	23.840941
2152.000000	24.018143
2151.000000	24.110419
2150.000000	24.270457
2149.000000	24.362632
2148.000000	24.508444
2147.000000	24.639883
2146.000000	24.655208
2145.000000	24.921062
2144.000000	25.019519
2143.000000	25.170069
2142.000000	25.301270
2141.000000	25.413195
2140.000000	25.392885
2139.000000	25.656341
2138.000000	25.811525
2137.000000	25.902048
2136.000000	26.009151
2135.000000	25.985784
2134.000000	26.085742
2133.000000	26.056593
2132.000000	26.327954
2131.000000	26.573383
2130.000000	26.667229
2129.000000	26.518705
2128.000000	26.547636
2127.000000	26.719539
2126.000000	26.672658
2125.000000	26.684790
2124.000000	26.895084
2123.000000	26.761572
2122.000000	27.047347
2121.000000	26.958764
2120.000000	26.901869
2119.000000	27.235851
2118.000000	27.113323
2117.000000	27.028481
2116.000000	27.115069
2115.000000	27.240503
2114.000000	27.295016
2113.000000	27.271364
2112.000000	27.346324
2111.000000	27.353303
2110.000000	27.421496
2109.000000	27.537609
2108.000000	27.417548
2107.000000	27.523562
2106.000000	27.614007
2105.000000	27.553670
2104.000000	27.546039
2103.000000	27.460966
2102.000000	27.543139
2101.000000	27.562232
2100.000000	27.567493
2099.000000	27.519202
2098.000000	27.553064
2097.000000	27.621010
2096.000000	27.616362
2095.000000	27.620755
2094.000000	27.608205
2093.000000	27.640777
2092.000000	27.582035
2091.000000	27.587697
2090.000000	27.558335
2089.000000	27.614145
2088.000000	27.546967
2087.000000	27.480547
2086.000000	27.492170
2085.000000	27.521119
2084.000000	27.498357
2083.000000	27.321489
2082.000000	27.386225
2081.000000	27.260052
2080.000000	27.247241
2079.000000	27.151672
2078.000000	27.030860
2077.000000	26.992272
2076.000000	26.862868
2075.000000	26.745726
2074.000000	26.650420
2073.000000	26.572751
2072.000000	26.444846
2071.000000	26.302608
2070.000000	26.177168
2069.000000	26.073933
2068.000000	25.964236
2067.000000	25.723832
2066.000000	25.622396
2065.000000	25.493265
2064.000000	25.367796
2063.000000	25.136286
2062.000000	25.056749
2061.000000	24.900681
2060.000000	24.727244
2059.000000	24.643665
2058.000000	24.490674
2057.000000	24.373112
2056.000000	24.238594
2055.000000	24.071118
2054.000000	23.859049
2053.000000	23.768919
2052.000000	23.598831
2051.000000	23.441411
2050.000000	23.401460
2049.000000	23.317008
2048.000000	23.181966
2047.000000	23.185137
2046.000000	23.104750
2045.000000	23.076628
2044.000000	23.069594
2043.000000	22.982302
2042.000000	22.931030
2041.000000	23.002989
2040.000000	23.063158
2039.000000	23.053220
2038.000000	23.109313
2037.000000	23.179529
2036.000000	23.202646
2035.000000	23.302555
2034.000000	23.395472
2033.000000	23.508201
2032.000000	23.632317
2031.000000	23.705977
2030.000000	23.846221
2029.000000	23.981993
2028.000000	24.105612
2027.000000	24.241599
2026.000000	24.318273
2025.000000	24.400535
2024.000000	24.464672
2023.000000	24.531190
2022.000000	24.665868
2021.000000	24.732167
2020.000000	24.803131
2019.000000	24.861869
2018.000000	24.843667
2017.000000	24.893079
2016.000000	24.922909
2015.000000	24.913056
2014.000000	24.915557
2013.000000	24.893787
2012.000000	24.874668
2011.000000	24.862051
2010.000000	24.799673
2009.000000	24.726946
2008.000000	24.652749
2007.000000	24.605182
2006.000000	24.523821
2005.000000	24.483801
2004.000000	24.407933
2003.000000	24.338366
2002.000000	24.272560
2001.000000	24.157068
2000.000000	24.040215
1999.000000	23.964155
1998.000000	23.873843
1997.000000	23.755357
1996.000000	23.678554
1995.000000	23.557951
1994.000000	23.454039
1993.000000	23.367447
1992.000000	23.290441
1991.000000	23.178818
1990.000000	23.040015
1989.000000	22.940014
1988.000000	22.879348
1987.000000	22.746134
1986.000000	22.601452
1985.000000	22.522958
1984.000000	22.438197
1983.000000	22.371050
1982.000000	22.274836
1981.000000	22.209323
1980.000000	22.082891
1979.000000	21.977585
1978.000000	21.894899
1977.000000	21.764079
1976.000000	21.667651
1975.000000	21.601469
1974.000000	21.494260
1973.000000	21.397046
1972.000000	21.361822
1971.000000	21.242855
1970.000000	21.156688
1969.000000	21.064130
1968.000000	20.998119
1967.000000	20.932039
1966.000000	20.850138
1965.000000	20.730002
1964.000000	20.659095
1963.000000	20.617671
1962.000000	20.515334
1961.000000	20.419467
1960.000000	20.355488
1959.000000	20.277179
1958.000000	20.160084
1957.000000	20.088039
1956.000000	20.023375
1955.000000	19.942540
1954.000000	19.942386
1953.000000	19.826519
1952.000000	19.800842
1951.000000	19.737910
1950.000000	19.710513
1949.000000	19.682722
1948.000000	19.612496
1947.000000	19.586382
1946.000000	19.603390
1945.000000	19.578878
1944.000000	19.582813
1943.000000	19.555670
1942.000000	19.645210
1941.000000	19.649837
1940.000000	19.652964
1939.000000	19.731180
1938.000000	19.743815
1937.000000	19.778297
1936.000000	19.924119
1935.000000	20.011140
1934.000000	20.104205
1933.000000	20.193046
1932.000000	20.352042
1931.000000	20.376599
1930.000000	20.544334
1929.000000	20.697822
1928.000000	20.880277
1927.000000	21.063350
1926.000000	21.180902
1925.000000	21.415021
1924.000000	21.639166
1923.000000	21.870618
1922.000000	22.144737
1921.000000	22.374236
1920.000000	22.541956
1919.000000	22.860393
1918.000000	23.160167
1917.000000	23.467955
1916.000000	23.727453
1915.000000	24.165516
1914.000000	24.461695
1913.000000	24.849498
1912.000000	25.159726
1911.000000	25.578101
1910.000000	25.932980
1909.000000	26.401657
1908.000000	26.764822
1907.000000	27.207759
1906.000000	27.677814
1905.000000	28.224504
1904.000000	28.752848
1903.000000	29.188928
1902.000000	29.745804
1901.000000	30.302076
1900.000000	30.729484
1899.000000	31.318145
1898.000000	31.889571
1897.000000	32.454818
1896.000000	33.044517
1895.000000	33.582831
1894.000000	34.092702
1893.000000	34.604585
1892.000000	35.183591
1891.000000	35.731794
1890.000000	36.218687
1889.000000	36.724079
1888.000000	37.268651
1887.000000	37.707849
1886.000000	38.205351
1885.000000	38.634400
1884.000000	39.121313
1883.000000	39.586798
1882.000000	39.962041
1881.000000	40.358973
1880.000000	40.714505
1879.000000	41.107209
1878.000000	41.462129
1877.000000	41.831596
1876.000000	42.186448
1875.000000	42.486412
1874.000000	42.772612
1873.000000	43.071830
1872.000000	43.334801
1871.000000	43.567874
1870.000000	43.741870
1869.000000	43.982457
1868.000000	44.194668
1867.000000	44.344228
1866.000000	44.446617
1865.000000	44.584155
1864.000000	44.721865
1863.000000	44.793754
1862.000000	44.903892
1861.000000	44.995523
1860.000000	45.097229
1859.000000	45.156642
1858.000000	45.193566
1857.000000	45.260920
1856.000000	45.338291
1855.000000	45.397786
1854.000000	45.461685
1853.000000	45.517136
1852.000000	45.532147
1851.000000	45.526325
1850.000000	45.532172
1849.000000	45.553201
1848.000000	45.586429
1847.000000	45.576252
1846.000000	45.538398
1845.000000	45.562432
1844.000000	45.503878
1843.000000	45.436976
1842.000000	45.443516
1841.000000	45.422773
1840.000000	45.358666
1839.000000	45.348321
1838.000000	45.332168
1837.000000	45.281518
1836.000000	45.230226
1835.000000	45.182558
1834.000000	45.100743
1833.000000	45.070309
1832.000000	45.029350
1831.000000	44.970972
1830.000000	44.946247
1829.000000	44.886360
1828.000000	44.829657
1827.000000	44.797432
1826.000000	44.762352
1825.000000	44.705764
1824.000000	44.671860
1823.000000	44.636149
1822.000000	44.573936
1821.000000	44.535929
1820.000000	44.499657
1819.000000	44.455537
1818.000000	44.414519
1817.000000	44.376802
1816.000000	44.324519
1815.000000	44.295589
1814.000000	44.259479
1813.000000	44.201353
1812.000000	44.177798
1811.000000	44.137402
1810.000000	44.089747
1809.000000	44.067929
1808.000000	44.018349
1807.000000	43.970563
1806.000000	43.926286
1805.000000	43.872408
1804.000000	43.842222
1803.000000	43.815189
1802.000000	43.776221
1801.000000	43.755798
1800.000000	43.736020
1799.000000	43.693807
1798.000000	43.634528
1797.000000	43.604259
1796.000000	43.588776
1795.000000	43.556530
1794.000000	43.537363
1793.000000	43.510204
1792.000000	43.469774
1791.000000	43.451944
1790.000000	43.433255
1789.000000	43.399188
1788.000000	43.392735
1787.000000	43.355196
1786.000000	43.341887
1785.000000	43.310963
1784.000000	43.253818
1783.000000	43.210836
1782.000000	43.176596
1781.000000	43.132716
1780.000000	43.090611
1779.000000	43.059610
1778.000000	43.007535
1777.000000	42.933920
1776.000000	42.881088
1775.000000	42.802024
1774.000000	42.726139
1773.000000	42.680906
1772.000000	42.611836
1771.000000	42.541523
1770.000000	42.482622
1769.000000	42.402417
1768.000000	42.327634
1767.000000	42.282579
1766.000000	42.204812
1765.000000	42.157190
1764.000000	42.102759
1763.000000	42.028739
1762.000000	41.961188
1761.000000	41.901886
1760.000000	41.821766
1759.000000	41.769299
1758.000000	41.737933
1757.000000	41.665773
1756.000000	41.617631
1755.000000	41.552128
1754.000000	41.491328
1753.000000	41.427898
1752.000000	41.385229
1751.000000	41.314679
1750.000000	41.263723
1749.000000	41.186817
1748.000000	41.103048
1747.000000	41.034183
1746.000000	40.974694
1745.000000	40.889434
1744.000000	40.786874
1743.000000	40.766370
1742.000000	40.679603
1741.000000	40.585044
1740.000000	40.555996
1739.000000	40.485871
1738.000000	40.427110
1737.000000	40.370438
1736.000000	40.304281
1735.000000	40.300010
1734.000000	40.260477
1733.000000	40.216851
1732.000000	40.232664
1731.000000	40.236328
1730.000000	40.211875
1729.000000	40.245790
1728.000000	40.307164
1727.000000	40.345678
1726.000000	40.412338
1725.000000	40.500443
1724.000000	40.576719
1723.000000	40.675314
1722.000000	40.781639
1721.000000	40.900629
1720.000000	41.043337
1719.000000	41.152336
1718.000000	41.253791
1717.000000	41.373946
1716.000000	41.500483
1715.000000	41.630190
1714.000000	41.736307
1713.000000	41.838925
1712.000000	41.920039
1711.000000	41.992646
1710.000000	42.127816
1709.000000	42.186906
1708.000000	42.271634
1707.000000	42.330975
1706.000000	42.406465
1705.000000	42.457166
1704.000000	42.494138
1703.000000	42.534507
1702.000000	42.577149
1701.000000	42.561054
1700.000000	42.633536
1699.000000	42.628120
1698.000000	42.685168
1697.000000	42.697277
1696.000000	42.748686
1695.000000	42.793214
1694.000000	42.817051
1693.000000	42.880255
1692.000000	42.956276
1691.000000	43.050509
1690.000000	43.134200
1689.000000	43.249646
1688.000000	43.379573
1687.000000	43.500810
1686.000000	43.641861
1685.000000	43.769953
1684.000000	43.964064
1683.000000	44.133643
1682.000000	44.326936
1681.000000	44.540726
1680.000000	44.710974
1679.000000	44.925917
1678.000000	45.118806
1677.000000	45.334056
1676.000000	45.546488
1675.000000	45.798806
1674.000000	45.992760
1673.000000	46.190914
1672.000000	46.388875
1671.000000	46.618301
1670.000000	46.793600
1669.000000	47.016621
1668.000000	47.173717
1667.000000	47.348998
1666.000000	47.466054
1665.000000	47.597156
1664.000000	47.743302
1663.000000	47.825999
1662.000000	47.936740
1661.000000	48.050023
1660.000000	48.126840
1659.000000	48.224653
1658.000000	48.287489
1657.000000	48.352125
1656.000000	48.388701
1655.000000	48.434973
1654.000000	48.471483
1653.000000	48.491052
1652.000000	48.520883
1651.000000	48.527110
1650.000000	48.539322
1649.000000	48.533444
1648.000000	48.532686
1647.000000	48.533917
1646.000000	48.529785
1645.000000	48.497414
1644.000000	48.466134
1643.000000	48.442543
1642.000000	48.413554
1641.000000	48.387553
1640.000000	48.367458
1639.000000	48.337108
1638.000000	48.303391
1637.000000	48.273715
1636.000000	48.221900
1635.000000	48.174118
1634.000000	48.128693
1633.000000	48.061320
1632.000000	48.026872
1631.000000	47.986654
1630.000000	47.924508
1629.000000	47.889711
1628.000000	47.830699
1627.000000	47.767210
1626.000000	47.717930
1625.000000	47.656000
1624.000000	47.596386
1623.000000	47.539537
1622.000000	47.494626
1621.000000	47.422666
1620.000000	47.355236
1619.000000	47.300151
1618.000000	47.234434
1617.000000	47.169460
1616.000000	47.110579
1615.000000	47.036224
1614.000000	46.959276
1613.000000	46.888363
1612.000000	46.810692
1611.000000	46.735977
1610.000000	46.673515
1609.000000	46.602253
1608.000000	46.540259
1607.000000	46.464332
1606.000000	46.363068
1605.000000	46.277628
1604.000000	46.192682
1603.000000	46.116759
1602.000000	46.050108
1601.000000	45.972619
1600.000000	45.889534
1599.000000	45.822087
1598.000000	45.754621
1597.000000	45.681668
1596.000000	45.613210
1595.000000	45.540937
1594.000000	45.464810
1593.000000	45.402627
1592.000000	45.336231
1591.000000	45.263761
1590.000000	45.200745
1589.000000	45.129057
1588.000000	45.067280
1587.000000	45.014459
1586.000000	44.953193
1585.000000	44.894246
1584.000000	44.839403
1583.000000	44.786758
1582.000000	44.720439
1581.000000	44.657392
1580.000000	44.616204
1579.000000	44.565713
1578.000000	44.507315
1577.000000	44.438683
1576.000000	44.382198
1575.000000	44.329132
1574.000000	44.263506
1573.000000	44.206000
1572.000000	44.151455
1571.000000	44.098209
1570.000000	44.044607
1569.000000	43.980394
1568.000000	43.933471
1567.000000	43.893629
1566.000000	43.851106
1565.000000	43.800658
1564.000000	43.758880
1563.000000	43.720310
1562.000000	43.686705
1561.000000	43.661741
1560.000000	43.632219
1559.000000	43.601844
1558.000000	43.574980
1557.000000	43.550425
1556.000000	43.526029
1555.000000	43.495414
1554.000000	43.464073
1553.000000	43.421299
1552.000000	43.398001
1551.000000	43.356942
1550.000000	43.312928
1549.000000	43.259980
1548.000000	43.209830
1547.000000	43.128885
1546.000000	43.080355
1545.000000	43.009608
1544.000000	42.919150
1543.000000	42.847155
1542.000000	42.754926
1541.000000	42.656411
1540.000000	42.560083
1539.000000	42.461302
1538.000000	42.341394
1537.000000	42.242173
1536.000000	42.144910
1535.000000	42.035353
1534.000000	41.915288
1533.000000	41.807878
1532.000000	41.705575
1531.000000	41.617886
1530.000000	41.520389
1529.000000	41.422553
1528.000000	41.321609
1527.000000	41.240509
1526.000000	41.147742
1525.000000	41.069552
1524.000000	40.991916
1523.000000	40.929302
1522.000000	40.886050
1521.000000	40.807617
1520.000000	40.749800
1519.000000	40.698974
1518.000000	40.666772
1517.000000	40.609009
1516.000000	40.558206
1515.000000	40.509525
1514.000000	40.472457
1513.000000	40.436196
1512.000000	40.420960
1511.000000	40.395990
1510.000000	40.382316
1509.000000	40.375998
1508.000000	40.383791
1507.000000	40.395656
1506.000000	40.383012
1505.000000	40.349099
1504.000000	40.324961
1503.000000	40.282613
1502.000000	40.257252
1501.000000	40.250956
1500.000000	40.248853
1499.000000	40.242546
1498.000000	40.233358
1497.000000	40.234424
1496.000000	40.245942
1495.000000	40.251332
1494.000000	40.271378
1493.000000	40.303696
1492.000000	40.309929
1491.000000	40.351051
1490.000000	40.377020
1489.000000	40.431170
1488.000000	40.449972
1487.000000	40.505786
1486.000000	40.520703
1485.000000	40.568418
1484.000000	40.634994
1483.000000	40.693469
1482.000000	40.728639
1481.000000	40.822336
1480.000000	40.861170
1479.000000	40.940775
1478.000000	40.979743
1477.000000	41.025962
1476.000000	41.098920
1475.000000	41.153241
1474.000000	41.218511
1473.000000	41.260994
1472.000000	41.328412
1471.000000	41.373022
1470.000000	41.430668
