PE UV       SUBTECH     SPECTRUM    ASCII       PEDS        4.00        
   -1
RTgVeauUK 52.Sample.asc
18/03/09
15:25:11.00
18/03/09
15:25:11.00
Administrator

200.000000
1
Lambda 750
750N8071901
PerkinElmer UV WinLab 6.0.4.0738 / 1.61.00 Lambda 900

0
0
3350/servo 860.8/2
0
0
UV/VIS
1
1
1
CommonBeamDepol,150mm sphere / downward view
0
0
0
0
Program
Program
3350/servo 860.8/2
3350/0.2 860.8/0.2
3350/0.2 860.8/0.2
0
1
 
 
 
0
 
860.8
319.2
860.8
Front
100
on
 
 
0
0
0
 
0
 
 
 
0
 
 
0
0
0
0
0
 
 
 
 
0
0


0
0
#HDR
-1
-1
#GR
nm
%R
1.0
0.0
2350.000000
-1.000000
2151
8
56.324221
11.489010
#DATA
2350.000000	22.491279
2349.000000	22.482603
2348.000000	22.398183
2347.000000	22.962739
2346.000000	22.764545
2345.000000	22.855744
2344.000000	22.794873
2343.000000	22.623787
2342.000000	22.497549
2341.000000	22.989275
2340.000000	22.780396
2339.000000	23.301947
2338.000000	23.026081
2337.000000	23.123858
2336.000000	23.372047
2335.000000	23.389417
2334.000000	23.208229
2333.000000	23.301333
2332.000000	23.465344
2331.000000	23.387655
2330.000000	23.478094
2329.000000	23.210191
2328.000000	23.196422
2327.000000	23.160075
2326.000000	23.365246
2325.000000	23.271778
2324.000000	23.192485
2323.000000	23.109480
2322.000000	23.000222
2321.000000	23.020285
2320.000000	22.958744
2319.000000	22.998786
2318.000000	23.004773
2317.000000	23.025112
2316.000000	23.021502
2315.000000	22.831042
2314.000000	23.075407
2313.000000	22.998139
2312.000000	22.655255
2311.000000	22.660853
2310.000000	22.645709
2309.000000	22.798931
2308.000000	22.521567
2307.000000	22.544623
2306.000000	22.657234
2305.000000	22.610103
2304.000000	22.745671
2303.000000	22.622259
2302.000000	22.588068
2301.000000	22.329095
2300.000000	22.159015
2299.000000	22.170425
2298.000000	22.016668
2297.000000	21.854487
2296.000000	21.976197
2295.000000	22.178412
2294.000000	22.150480
2293.000000	21.720657
2292.000000	21.788834
2291.000000	21.764878
2290.000000	21.757219
2289.000000	21.611161
2288.000000	21.716879
2287.000000	21.624728
2286.000000	21.650880
2285.000000	21.616707
2284.000000	21.491687
2283.000000	21.323645
2282.000000	21.457388
2281.000000	21.555439
2280.000000	21.568974
2279.000000	21.556052
2278.000000	21.549601
2277.000000	21.591439
2276.000000	21.584613
2275.000000	21.569675
2274.000000	21.592147
2273.000000	21.638480
2272.000000	21.692305
2271.000000	21.656561
2270.000000	21.598167
2269.000000	21.610291
2268.000000	21.681538
2267.000000	21.815117
2266.000000	22.026470
2265.000000	21.996084
2264.000000	21.986010
2263.000000	22.008824
2262.000000	22.129548
2261.000000	22.248886
2260.000000	22.479593
2259.000000	22.617166
2258.000000	22.592357
2257.000000	22.563097
2256.000000	22.610193
2255.000000	22.697615
2254.000000	22.945007
2253.000000	23.196260
2252.000000	23.308568
2251.000000	23.341955
2250.000000	23.574763
2249.000000	23.732688
2248.000000	23.667491
2247.000000	23.851776
2246.000000	24.057769
2245.000000	24.176274
2244.000000	24.296071
2243.000000	24.419865
2242.000000	24.605892
2241.000000	24.694510
2240.000000	24.716425
2239.000000	24.830773
2238.000000	24.822683
2237.000000	24.831608
2236.000000	24.936135
2235.000000	25.026240
2234.000000	25.118804
2233.000000	25.143342
2232.000000	25.248760
2231.000000	25.228177
2230.000000	25.231828
2229.000000	25.377745
2228.000000	25.498397
2227.000000	25.434289
2226.000000	25.360460
2225.000000	25.406556
2224.000000	25.326926
2223.000000	25.208164
2222.000000	25.314221
2221.000000	25.285972
2220.000000	25.280311
2219.000000	25.248461
2218.000000	25.261372
2217.000000	25.338876
2216.000000	25.305848
2215.000000	25.190046
2214.000000	25.144610
2213.000000	25.236098
2212.000000	25.252813
2211.000000	25.080157
2210.000000	24.965721
2209.000000	24.884833
2208.000000	25.015802
2207.000000	24.965662
2206.000000	24.825050
2205.000000	24.827310
2204.000000	24.809197
2203.000000	24.725011
2202.000000	24.648251
2201.000000	24.634205
2200.000000	24.773608
2199.000000	24.719192
2198.000000	24.702221
2197.000000	24.613699
2196.000000	24.449186
2195.000000	24.230692
2194.000000	24.197570
2193.000000	24.195209
2192.000000	24.272915
2191.000000	24.125292
2190.000000	24.179600
2189.000000	24.071722
2188.000000	24.119279
2187.000000	24.096015
2186.000000	24.068684
2185.000000	24.008428
2184.000000	24.036089
2183.000000	24.001322
2182.000000	23.969520
2181.000000	23.981585
2180.000000	23.883698
2179.000000	23.884221
2178.000000	23.788822
2177.000000	23.961084
2176.000000	24.005894
2175.000000	24.047911
2174.000000	23.982320
2173.000000	24.062808
2172.000000	23.981491
2171.000000	24.043261
2170.000000	24.329647
2169.000000	24.469615
2168.000000	24.351975
2167.000000	24.283683
2166.000000	24.413921
2165.000000	24.366766
2164.000000	24.378767
2163.000000	24.427965
2162.000000	24.580516
2161.000000	24.627933
2160.000000	24.816551
2159.000000	24.917622
2158.000000	24.954713
2157.000000	24.774870
2156.000000	25.024180
2155.000000	25.225765
2154.000000	25.306667
2153.000000	25.463599
2152.000000	25.513259
2151.000000	25.702282
2150.000000	25.766832
2149.000000	25.841804
2148.000000	25.863982
2147.000000	25.901020
2146.000000	25.935900
2145.000000	26.159773
2144.000000	26.291234
2143.000000	26.283214
2142.000000	26.233575
2141.000000	26.403121
2140.000000	26.713795
2139.000000	26.853361
2138.000000	26.733032
2137.000000	26.858022
2136.000000	26.905271
2135.000000	27.031185
2134.000000	27.118438
2133.000000	27.006326
2132.000000	27.264726
2131.000000	27.354859
2130.000000	27.460767
2129.000000	27.565496
2128.000000	27.331668
2127.000000	27.443614
2126.000000	27.418082
2125.000000	27.523553
2124.000000	27.681148
2123.000000	27.447249
2122.000000	27.679234
2121.000000	27.688104
2120.000000	27.536310
2119.000000	27.786185
2118.000000	27.795112
2117.000000	27.884830
2116.000000	27.837762
2115.000000	27.888761
2114.000000	27.823968
2113.000000	27.850955
2112.000000	27.857043
2111.000000	27.810547
2110.000000	27.814534
2109.000000	27.961630
2108.000000	28.038814
2107.000000	27.940018
2106.000000	27.975366
2105.000000	28.062981
2104.000000	27.995647
2103.000000	28.002845
2102.000000	28.050449
2101.000000	28.160700
2100.000000	28.037666
2099.000000	27.937938
2098.000000	28.011081
2097.000000	28.084515
2096.000000	27.995246
2095.000000	28.003374
2094.000000	27.979663
2093.000000	27.964874
2092.000000	28.093748
2091.000000	27.990132
2090.000000	27.894336
2089.000000	27.963231
2088.000000	27.961299
2087.000000	27.890681
2086.000000	27.848169
2085.000000	27.931112
2084.000000	27.800938
2083.000000	27.798513
2082.000000	27.739374
2081.000000	27.736573
2080.000000	27.698818
2079.000000	27.700147
2078.000000	27.609803
2077.000000	27.532093
2076.000000	27.435748
2075.000000	27.351464
2074.000000	27.331363
2073.000000	27.252993
2072.000000	27.170844
2071.000000	27.091707
2070.000000	27.104412
2069.000000	27.001898
2068.000000	26.802237
2067.000000	26.710168
2066.000000	26.586385
2065.000000	26.403357
2064.000000	26.333933
2063.000000	26.251766
2062.000000	26.222465
2061.000000	26.164702
2060.000000	26.030545
2059.000000	25.903268
2058.000000	25.884496
2057.000000	25.756634
2056.000000	25.639909
2055.000000	25.564246
2054.000000	25.475195
2053.000000	25.393004
2052.000000	25.212013
2051.000000	25.127045
2050.000000	25.135962
2049.000000	25.072143
2048.000000	24.997225
2047.000000	24.991196
2046.000000	24.977170
2045.000000	24.880499
2044.000000	24.843752
2043.000000	24.807857
2042.000000	24.794585
2041.000000	24.839977
2040.000000	24.872350
2039.000000	24.873493
2038.000000	24.845970
2037.000000	24.873237
2036.000000	24.866306
2035.000000	24.907397
2034.000000	24.997856
2033.000000	25.043811
2032.000000	25.138866
2031.000000	25.237069
2030.000000	25.331097
2029.000000	25.384219
2028.000000	25.441859
2027.000000	25.526583
2026.000000	25.570440
2025.000000	25.576547
2024.000000	25.603872
2023.000000	25.668228
2022.000000	25.731636
2021.000000	25.778254
2020.000000	25.805904
2019.000000	25.824796
2018.000000	25.852419
2017.000000	25.875517
2016.000000	25.891645
2015.000000	25.923352
2014.000000	25.901100
2013.000000	25.851190
2012.000000	25.846940
2011.000000	25.826861
2010.000000	25.759223
2009.000000	25.680955
2008.000000	25.659095
2007.000000	25.624633
2006.000000	25.560131
2005.000000	25.530048
2004.000000	25.424956
2003.000000	25.344298
2002.000000	25.321024
2001.000000	25.284584
2000.000000	25.201581
1999.000000	25.171967
1998.000000	25.122938
1997.000000	25.056405
1996.000000	25.008089
1995.000000	24.895061
1994.000000	24.807475
1993.000000	24.741010
1992.000000	24.658836
1991.000000	24.613290
1990.000000	24.581923
1989.000000	24.469928
1988.000000	24.397265
1987.000000	24.327551
1986.000000	24.234187
1985.000000	24.163379
1984.000000	24.141277
1983.000000	24.124948
1982.000000	24.017630
1981.000000	23.968915
1980.000000	23.898617
1979.000000	23.818754
1978.000000	23.768751
1977.000000	23.694025
1976.000000	23.642219
1975.000000	23.571100
1974.000000	23.501039
1973.000000	23.463872
1972.000000	23.443933
1971.000000	23.387526
1970.000000	23.270415
1969.000000	23.248811
1968.000000	23.196428
1967.000000	23.146917
1966.000000	23.109192
1965.000000	23.016014
1964.000000	22.993871
1963.000000	22.952100
1962.000000	22.893425
1961.000000	22.906763
1960.000000	22.836661
1959.000000	22.746336
1958.000000	22.683256
1957.000000	22.674487
1956.000000	22.656141
1955.000000	22.590588
1954.000000	22.580710
1953.000000	22.553124
1952.000000	22.538986
1951.000000	22.580166
1950.000000	22.474213
1949.000000	22.404113
1948.000000	22.440916
1947.000000	22.422851
1946.000000	22.410848
1945.000000	22.419170
1944.000000	22.466519
1943.000000	22.399291
1942.000000	22.470518
1941.000000	22.503365
1940.000000	22.507798
1939.000000	22.603692
1938.000000	22.616762
1937.000000	22.628507
1936.000000	22.716595
1935.000000	22.807472
1934.000000	22.850692
1933.000000	22.947561
1932.000000	22.996950
1931.000000	23.107349
1930.000000	23.217249
1929.000000	23.335183
1928.000000	23.446651
1927.000000	23.534514
1926.000000	23.660810
1925.000000	23.822748
1924.000000	24.018972
1923.000000	24.182047
1922.000000	24.287318
1921.000000	24.523833
1920.000000	24.701018
1919.000000	24.866981
1918.000000	25.083238
1917.000000	25.216572
1916.000000	25.419375
1915.000000	25.737188
1914.000000	25.959696
1913.000000	26.285093
1912.000000	26.459925
1911.000000	26.723409
1910.000000	26.993089
1909.000000	27.285571
1908.000000	27.600561
1907.000000	27.960864
1906.000000	28.311409
1905.000000	28.606816
1904.000000	28.941570
1903.000000	29.324362
1902.000000	29.693423
1901.000000	30.008446
1900.000000	30.424002
1899.000000	30.852061
1898.000000	31.317567
1897.000000	31.671791
1896.000000	32.042467
1895.000000	32.426903
1894.000000	32.798158
1893.000000	33.185335
1892.000000	33.592517
1891.000000	33.976968
1890.000000	34.404778
1889.000000	34.769822
1888.000000	35.179313
1887.000000	35.554326
1886.000000	35.940637
1885.000000	36.301510
1884.000000	36.607504
1883.000000	37.008223
1882.000000	37.279625
1881.000000	37.646651
1880.000000	37.902457
1879.000000	38.148505
1878.000000	38.470128
1877.000000	38.692515
1876.000000	38.940275
1875.000000	39.207161
1874.000000	39.451627
1873.000000	39.673384
1872.000000	39.847556
1871.000000	40.037574
1870.000000	40.232557
1869.000000	40.379137
1868.000000	40.559131
1867.000000	40.668487
1866.000000	40.794014
1865.000000	40.878895
1864.000000	40.934613
1863.000000	41.024297
1862.000000	41.142130
1861.000000	41.209371
1860.000000	41.328387
1859.000000	41.369884
1858.000000	41.384847
1857.000000	41.441344
1856.000000	41.511458
1855.000000	41.558802
1854.000000	41.580126
1853.000000	41.613291
1852.000000	41.623354
1851.000000	41.643368
1850.000000	41.645075
1849.000000	41.682274
1848.000000	41.738406
1847.000000	41.699278
1846.000000	41.674278
1845.000000	41.675906
1844.000000	41.653545
1843.000000	41.602840
1842.000000	41.568966
1841.000000	41.560118
1840.000000	41.534761
1839.000000	41.523570
1838.000000	41.489524
1837.000000	41.435375
1836.000000	41.384409
1835.000000	41.321685
1834.000000	41.284869
1833.000000	41.242718
1832.000000	41.207373
1831.000000	41.150052
1830.000000	41.133302
1829.000000	41.103785
1828.000000	41.072400
1827.000000	41.039181
1826.000000	40.982195
1825.000000	40.919968
1824.000000	40.907516
1823.000000	40.894588
1822.000000	40.835701
1821.000000	40.793154
1820.000000	40.777560
1819.000000	40.740400
1818.000000	40.702015
1817.000000	40.671163
1816.000000	40.634178
1815.000000	40.593551
1814.000000	40.571813
1813.000000	40.556157
1812.000000	40.522872
1811.000000	40.493598
1810.000000	40.461193
1809.000000	40.439602
1808.000000	40.406675
1807.000000	40.366817
1806.000000	40.332622
1805.000000	40.292378
1804.000000	40.276457
1803.000000	40.257138
1802.000000	40.237639
1801.000000	40.222369
1800.000000	40.193153
1799.000000	40.155334
1798.000000	40.133672
1797.000000	40.122875
1796.000000	40.090117
1795.000000	40.064407
1794.000000	40.076888
1793.000000	40.061041
1792.000000	40.022060
1791.000000	40.019026
1790.000000	40.012671
1789.000000	39.979011
1788.000000	39.985887
1787.000000	39.959629
1786.000000	39.943209
1785.000000	39.936676
1784.000000	39.905607
1783.000000	39.892866
1782.000000	39.872340
1781.000000	39.834193
1780.000000	39.794031
1779.000000	39.779367
1778.000000	39.766999
1777.000000	39.709377
1776.000000	39.675639
1775.000000	39.629734
1774.000000	39.573175
1773.000000	39.519028
1772.000000	39.471502
1771.000000	39.448369
1770.000000	39.414734
1769.000000	39.341722
1768.000000	39.282674
1767.000000	39.231806
1766.000000	39.183069
1765.000000	39.155739
1764.000000	39.122939
1763.000000	39.044216
1762.000000	38.962601
1761.000000	38.935611
1760.000000	38.887191
1759.000000	38.851403
1758.000000	38.823660
1757.000000	38.791468
1756.000000	38.746560
1755.000000	38.692940
1754.000000	38.632803
1753.000000	38.584124
1752.000000	38.549248
1751.000000	38.478035
1750.000000	38.433000
1749.000000	38.386199
1748.000000	38.310419
1747.000000	38.280445
1746.000000	38.246239
1745.000000	38.165084
1744.000000	38.104575
1743.000000	38.090129
1742.000000	38.009026
1741.000000	37.962569
1740.000000	37.937883
1739.000000	37.912192
1738.000000	37.881511
1737.000000	37.842233
1736.000000	37.808968
1735.000000	37.791424
1734.000000	37.785830
1733.000000	37.767156
1732.000000	37.766466
1731.000000	37.790665
1730.000000	37.750690
1729.000000	37.782125
1728.000000	37.864486
1727.000000	37.913630
1726.000000	37.960493
1725.000000	38.015228
1724.000000	38.094169
1723.000000	38.157479
1722.000000	38.239445
1721.000000	38.339819
1720.000000	38.431654
1719.000000	38.511398
1718.000000	38.589685
1717.000000	38.685667
1716.000000	38.771118
1715.000000	38.853104
1714.000000	38.929572
1713.000000	38.989674
1712.000000	39.057657
1711.000000	39.120093
1710.000000	39.185720
1709.000000	39.258918
1708.000000	39.290402
1707.000000	39.352324
1706.000000	39.377894
1705.000000	39.415304
1704.000000	39.448318
1703.000000	39.435625
1702.000000	39.453847
1701.000000	39.478323
1700.000000	39.486344
1699.000000	39.482807
1698.000000	39.528527
1697.000000	39.549422
1696.000000	39.582581
1695.000000	39.591389
1694.000000	39.637332
1693.000000	39.663626
1692.000000	39.708953
1691.000000	39.775293
1690.000000	39.860285
1689.000000	39.931919
1688.000000	40.032783
1687.000000	40.137518
1686.000000	40.243442
1685.000000	40.371589
1684.000000	40.505551
1683.000000	40.653162
1682.000000	40.805089
1681.000000	40.964213
1680.000000	41.122593
1679.000000	41.277888
1678.000000	41.452585
1677.000000	41.609778
1676.000000	41.808818
1675.000000	41.970864
1674.000000	42.164810
1673.000000	42.355826
1672.000000	42.507364
1671.000000	42.663588
1670.000000	42.830475
1669.000000	42.996717
1668.000000	43.134566
1667.000000	43.294674
1666.000000	43.376895
1665.000000	43.493395
1664.000000	43.601513
1663.000000	43.659278
1662.000000	43.750575
1661.000000	43.866501
1660.000000	43.925035
1659.000000	43.969239
1658.000000	44.026612
1657.000000	44.088036
1656.000000	44.121123
1655.000000	44.158545
1654.000000	44.184981
1653.000000	44.190864
1652.000000	44.205267
1651.000000	44.224733
1650.000000	44.236775
1649.000000	44.215135
1648.000000	44.204364
1647.000000	44.209652
1646.000000	44.201620
1645.000000	44.173226
1644.000000	44.153657
1643.000000	44.126271
1642.000000	44.112174
1641.000000	44.082675
1640.000000	44.043363
1639.000000	44.013526
1638.000000	43.983040
1637.000000	43.955651
1636.000000	43.901549
1635.000000	43.881322
1634.000000	43.833885
1633.000000	43.779077
1632.000000	43.733344
1631.000000	43.701322
1630.000000	43.661583
1629.000000	43.615127
1628.000000	43.573902
1627.000000	43.530122
1626.000000	43.488552
1625.000000	43.440469
1624.000000	43.382339
1623.000000	43.343221
1622.000000	43.296558
1621.000000	43.233038
1620.000000	43.175819
1619.000000	43.118922
1618.000000	43.065863
1617.000000	43.007137
1616.000000	42.956648
1615.000000	42.888455
1614.000000	42.831048
1613.000000	42.776211
1612.000000	42.712441
1611.000000	42.660851
1610.000000	42.606187
1609.000000	42.538969
1608.000000	42.481030
1607.000000	42.411942
1606.000000	42.341610
1605.000000	42.283693
1604.000000	42.215222
1603.000000	42.156430
1602.000000	42.102794
1601.000000	42.039821
1600.000000	41.969162
1599.000000	41.908832
1598.000000	41.852568
1597.000000	41.801094
1596.000000	41.740239
1595.000000	41.676716
1594.000000	41.622890
1593.000000	41.570076
1592.000000	41.526269
1591.000000	41.469231
1590.000000	41.408223
1589.000000	41.350480
1588.000000	41.292066
1587.000000	41.256061
1586.000000	41.211440
1585.000000	41.164329
1584.000000	41.124149
1583.000000	41.070811
1582.000000	41.030552
1581.000000	40.991212
1580.000000	40.944743
1579.000000	40.892090
1578.000000	40.849400
1577.000000	40.800945
1576.000000	40.746116
1575.000000	40.701139
1574.000000	40.653075
1573.000000	40.603733
1572.000000	40.565505
1571.000000	40.529996
1570.000000	40.491252
1569.000000	40.437999
1568.000000	40.398823
1567.000000	40.369567
1566.000000	40.332370
1565.000000	40.292588
1564.000000	40.260602
1563.000000	40.233732
1562.000000	40.199270
1561.000000	40.175504
1560.000000	40.157175
1559.000000	40.118151
1558.000000	40.092866
1557.000000	40.081821
1556.000000	40.050532
1555.000000	40.030680
1554.000000	39.999090
1553.000000	39.968636
1552.000000	39.948753
1551.000000	39.916849
1550.000000	39.874094
1549.000000	39.828842
1548.000000	39.803125
1547.000000	39.738615
1546.000000	39.688028
1545.000000	39.633660
1544.000000	39.564983
1543.000000	39.501483
1542.000000	39.434579
1541.000000	39.366080
1540.000000	39.299055
1539.000000	39.218567
1538.000000	39.123008
1537.000000	39.047828
1536.000000	38.956083
1535.000000	38.876385
1534.000000	38.802943
1533.000000	38.733496
1532.000000	38.640712
1531.000000	38.566960
1530.000000	38.504848
1529.000000	38.425190
1528.000000	38.367713
1527.000000	38.293697
1526.000000	38.227659
1525.000000	38.164378
1524.000000	38.098870
1523.000000	38.059074
1522.000000	38.011678
1521.000000	37.957235
1520.000000	37.921405
1519.000000	37.882428
1518.000000	37.854704
1517.000000	37.817702
1516.000000	37.773743
1515.000000	37.735294
1514.000000	37.703459
1513.000000	37.688119
1512.000000	37.664586
1511.000000	37.656102
1510.000000	37.629296
1509.000000	37.632563
1508.000000	37.636159
1507.000000	37.671165
1506.000000	37.654473
1505.000000	37.646224
1504.000000	37.618436
1503.000000	37.585335
1502.000000	37.578117
1501.000000	37.570989
1500.000000	37.534651
1499.000000	37.550189
1498.000000	37.559085
1497.000000	37.560039
1496.000000	37.564894
1495.000000	37.578049
1494.000000	37.581148
1493.000000	37.593838
1492.000000	37.615380
1491.000000	37.633554
1490.000000	37.670912
1489.000000	37.704883
1488.000000	37.729952
1487.000000	37.776107
1486.000000	37.802418
1485.000000	37.845145
1484.000000	37.899662
1483.000000	37.941512
1482.000000	37.968820
1481.000000	38.047849
1480.000000	38.065837
1479.000000	38.113056
1478.000000	38.154497
1477.000000	38.191317
1476.000000	38.250037
1475.000000	38.280993
1474.000000	38.327775
1473.000000	38.380920
1472.000000	38.409521
1471.000000	38.454027
1470.000000	38.513438
