PE UV       SUBTECH     SPECTRUM    ASCII       PEDS        4.00        
   -1
RTgVeauUK 62.Sample.asc
18/03/09
15:39:22.00
18/03/09
15:39:22.00
Administrator

200.000000
1
Lambda 750
750N8071901
PerkinElmer UV WinLab 6.0.4.0738 / 1.61.00 Lambda 900

0
0
3350/servo 860.8/2
0
0
UV/VIS
1
1
1
CommonBeamDepol,150mm sphere / downward view
0
0
0
0
Program
Program
3350/servo 860.8/2
3350/0.2 860.8/0.2
3350/0.2 860.8/0.2
0
1
 
 
 
0
 
860.8
319.2
860.8
Front
100
on
 
 
0
0
0
 
0
 
 
 
0
 
 
0
0
0
0
0
 
 
 
 
0
0


0
0
#HDR
-1
-1
#GR
nm
%R
1.0
0.0
2350.000000
-1.000000
2151
8
50.018035
12.208935
#DATA
2350.000000	18.997217
2349.000000	19.205428
2348.000000	18.909948
2347.000000	19.621069
2346.000000	19.490879
2345.000000	19.171891
2344.000000	18.975778
2343.000000	19.037529
2342.000000	18.795376
2341.000000	18.892296
2340.000000	19.308930
2339.000000	19.414475
2338.000000	19.479163
2337.000000	19.486486
2336.000000	19.532922
2335.000000	19.554210
2334.000000	19.894235
2333.000000	19.864060
2332.000000	19.901608
2331.000000	20.048129
2330.000000	19.533002
2329.000000	19.695130
2328.000000	19.748062
2327.000000	19.610080
2326.000000	19.739509
2325.000000	19.457649
2324.000000	19.559272
2323.000000	19.439262
2322.000000	19.494547
2321.000000	19.701192
2320.000000	19.390938
2319.000000	19.408477
2318.000000	19.624678
2317.000000	19.714648
2316.000000	19.496487
2315.000000	19.132326
2314.000000	19.272218
2313.000000	19.422258
2312.000000	19.399104
2311.000000	19.372999
2310.000000	19.306460
2309.000000	19.288901
2308.000000	18.991204
2307.000000	19.072373
2306.000000	18.957400
2305.000000	18.905132
2304.000000	18.925423
2303.000000	18.908419
2302.000000	18.867629
2301.000000	18.988911
2300.000000	18.840243
2299.000000	18.932526
2298.000000	18.804912
2297.000000	18.695365
2296.000000	18.655363
2295.000000	18.698447
2294.000000	18.556428
2293.000000	18.322215
2292.000000	18.187085
2291.000000	18.239356
2290.000000	18.337371
2289.000000	18.225573
2288.000000	18.563318
2287.000000	18.439977
2286.000000	18.170041
2285.000000	18.230107
2284.000000	18.291853
2283.000000	18.283702
2282.000000	18.240136
2281.000000	18.168099
2280.000000	18.239311
2279.000000	18.431535
2278.000000	18.519423
2277.000000	18.510997
2276.000000	18.346331
2275.000000	18.260909
2274.000000	18.236144
2273.000000	18.383744
2272.000000	18.486505
2271.000000	18.498679
2270.000000	18.381376
2269.000000	18.361538
2268.000000	18.412565
2267.000000	18.495680
2266.000000	18.591469
2265.000000	18.709082
2264.000000	18.779626
2263.000000	18.787329
2262.000000	18.772801
2261.000000	18.855019
2260.000000	18.921644
2259.000000	19.059141
2258.000000	19.161228
2257.000000	19.271276
2256.000000	19.220458
2255.000000	19.355640
2254.000000	19.547031
2253.000000	19.584185
2252.000000	19.677206
2251.000000	19.817549
2250.000000	19.936188
2249.000000	20.068010
2248.000000	20.106934
2247.000000	20.109080
2246.000000	20.141156
2245.000000	20.311544
2244.000000	20.550383
2243.000000	20.736829
2242.000000	20.870839
2241.000000	20.873153
2240.000000	20.780429
2239.000000	20.846293
2238.000000	20.913628
2237.000000	20.932585
2236.000000	21.000409
2235.000000	21.181224
2234.000000	21.305880
2233.000000	21.164395
2232.000000	21.160300
2231.000000	21.269309
2230.000000	21.288229
2229.000000	21.307695
2228.000000	21.392099
2227.000000	21.393643
2226.000000	21.255587
2225.000000	21.228493
2224.000000	21.325758
2223.000000	21.421937
2222.000000	21.482868
2221.000000	21.391504
2220.000000	21.389874
2219.000000	21.311509
2218.000000	21.233082
2217.000000	21.234431
2216.000000	21.212130
2215.000000	21.304770
2214.000000	21.323949
2213.000000	21.306567
2212.000000	21.276261
2211.000000	21.184734
2210.000000	21.157165
2209.000000	21.083114
2208.000000	20.958391
2207.000000	20.956551
2206.000000	20.951135
2205.000000	20.946325
2204.000000	20.958727
2203.000000	20.939082
2202.000000	20.752836
2201.000000	20.749465
2200.000000	20.822430
2199.000000	20.773040
2198.000000	20.833893
2197.000000	20.599411
2196.000000	20.592579
2195.000000	20.569654
2194.000000	20.648878
2193.000000	20.640727
2192.000000	20.628227
2191.000000	20.563707
2190.000000	20.417523
2189.000000	20.347014
2188.000000	20.409365
2187.000000	20.323269
2186.000000	20.315306
2185.000000	20.220916
2184.000000	20.401673
2183.000000	20.386909
2182.000000	20.286974
2181.000000	20.280355
2180.000000	20.281578
2179.000000	20.168772
2178.000000	20.227719
2177.000000	20.222435
2176.000000	20.219771
2175.000000	20.322200
2174.000000	20.383512
2173.000000	20.245841
2172.000000	20.324548
2171.000000	20.352560
2170.000000	20.521948
2169.000000	20.489839
2168.000000	20.522061
2167.000000	20.549703
2166.000000	20.639081
2165.000000	20.538969
2164.000000	20.631077
2163.000000	20.721051
2162.000000	20.769648
2161.000000	20.786470
2160.000000	20.885017
2159.000000	20.916858
2158.000000	20.986394
2157.000000	21.128764
2156.000000	21.229202
2155.000000	21.366248
2154.000000	21.362373
2153.000000	21.490527
2152.000000	21.539841
2151.000000	21.645334
2150.000000	21.779548
2149.000000	21.856258
2148.000000	21.708592
2147.000000	21.696227
2146.000000	21.941387
2145.000000	22.041815
2144.000000	22.199308
2143.000000	22.035170
2142.000000	22.177005
2141.000000	22.272570
2140.000000	22.507761
2139.000000	22.623897
2138.000000	22.683160
2137.000000	22.722756
2136.000000	22.838559
2135.000000	22.772200
2134.000000	22.829018
2133.000000	22.681379
2132.000000	22.873221
2131.000000	23.059701
2130.000000	23.191043
2129.000000	23.011037
2128.000000	23.019141
2127.000000	23.153393
2126.000000	23.112441
2125.000000	23.080411
2124.000000	23.103205
2123.000000	23.173295
2122.000000	23.364727
2121.000000	23.177906
2120.000000	23.388193
2119.000000	23.376374
2118.000000	23.349674
2117.000000	23.514642
2116.000000	23.378942
2115.000000	23.504596
2114.000000	23.446995
2113.000000	23.422253
2112.000000	23.561828
2111.000000	23.553292
2110.000000	23.492222
2109.000000	23.458332
2108.000000	23.521851
2107.000000	23.568489
2106.000000	23.548524
2105.000000	23.562899
2104.000000	23.521904
2103.000000	23.598494
2102.000000	23.585580
2101.000000	23.660768
2100.000000	23.688786
2099.000000	23.646299
2098.000000	23.580401
2097.000000	23.606289
2096.000000	23.546024
2095.000000	23.573206
2094.000000	23.512104
2093.000000	23.482891
2092.000000	23.602661
2091.000000	23.566772
2090.000000	23.553499
2089.000000	23.501310
2088.000000	23.514521
2087.000000	23.467861
2086.000000	23.476105
2085.000000	23.514191
2084.000000	23.483166
2083.000000	23.421759
2082.000000	23.430716
2081.000000	23.349352
2080.000000	23.414492
2079.000000	23.367206
2078.000000	23.232374
2077.000000	23.192672
2076.000000	23.133605
2075.000000	23.024982
2074.000000	22.931417
2073.000000	22.997174
2072.000000	22.916860
2071.000000	22.811505
2070.000000	22.797493
2069.000000	22.733581
2068.000000	22.638137
2067.000000	22.503655
2066.000000	22.405740
2065.000000	22.283806
2064.000000	22.227902
2063.000000	22.172556
2062.000000	22.126339
2061.000000	22.095354
2060.000000	21.998980
2059.000000	21.933735
2058.000000	21.831062
2057.000000	21.689309
2056.000000	21.661622
2055.000000	21.643337
2054.000000	21.559098
2053.000000	21.484160
2052.000000	21.395737
2051.000000	21.286106
2050.000000	21.231718
2049.000000	21.208223
2048.000000	21.146345
2047.000000	21.180098
2046.000000	21.140909
2045.000000	21.106293
2044.000000	21.088752
2043.000000	21.069748
2042.000000	21.003673
2041.000000	21.023321
2040.000000	21.027818
2039.000000	21.012562
2038.000000	21.065606
2037.000000	21.080885
2036.000000	21.103396
2035.000000	21.157888
2034.000000	21.186606
2033.000000	21.231335
2032.000000	21.302821
2031.000000	21.372693
2030.000000	21.447569
2029.000000	21.503164
2028.000000	21.542682
2027.000000	21.579932
2026.000000	21.655464
2025.000000	21.731084
2024.000000	21.702530
2023.000000	21.744179
2022.000000	21.807796
2021.000000	21.792336
2020.000000	21.823290
2019.000000	21.879653
2018.000000	21.896095
2017.000000	21.896168
2016.000000	21.862724
2015.000000	21.852169
2014.000000	21.871381
2013.000000	21.795173
2012.000000	21.812782
2011.000000	21.864391
2010.000000	21.808151
2009.000000	21.727723
2008.000000	21.695736
2007.000000	21.682770
2006.000000	21.636336
2005.000000	21.622441
2004.000000	21.580894
2003.000000	21.518986
2002.000000	21.442557
2001.000000	21.396312
2000.000000	21.365474
1999.000000	21.296090
1998.000000	21.235629
1997.000000	21.204613
1996.000000	21.188847
1995.000000	21.080263
1994.000000	21.058906
1993.000000	20.978151
1992.000000	20.900931
1991.000000	20.851480
1990.000000	20.800595
1989.000000	20.744044
1988.000000	20.714277
1987.000000	20.662841
1986.000000	20.580967
1985.000000	20.560179
1984.000000	20.527506
1983.000000	20.456107
1982.000000	20.399957
1981.000000	20.364712
1980.000000	20.315620
1979.000000	20.271071
1978.000000	20.194984
1977.000000	20.135561
1976.000000	20.096857
1975.000000	20.088549
1974.000000	20.038741
1973.000000	19.971055
1972.000000	19.884894
1971.000000	19.864131
1970.000000	19.860150
1969.000000	19.814759
1968.000000	19.745944
1967.000000	19.732293
1966.000000	19.695265
1965.000000	19.662010
1964.000000	19.592067
1963.000000	19.534996
1962.000000	19.508985
1961.000000	19.471275
1960.000000	19.421356
1959.000000	19.391731
1958.000000	19.353794
1957.000000	19.382534
1956.000000	19.278942
1955.000000	19.283381
1954.000000	19.280404
1953.000000	19.220528
1952.000000	19.202094
1951.000000	19.266391
1950.000000	19.200176
1949.000000	19.215363
1948.000000	19.216664
1947.000000	19.173735
1946.000000	19.119478
1945.000000	19.127661
1944.000000	19.188073
1943.000000	19.233776
1942.000000	19.191164
1941.000000	19.153111
1940.000000	19.246010
1939.000000	19.331463
1938.000000	19.294734
1937.000000	19.402807
1936.000000	19.450364
1935.000000	19.467271
1934.000000	19.453707
1933.000000	19.600587
1932.000000	19.687360
1931.000000	19.703316
1930.000000	19.819605
1929.000000	19.919102
1928.000000	20.026938
1927.000000	20.165020
1926.000000	20.328106
1925.000000	20.323349
1924.000000	20.432987
1923.000000	20.587823
1922.000000	20.736808
1921.000000	20.904670
1920.000000	20.987311
1919.000000	21.258816
1918.000000	21.406951
1917.000000	21.554575
1916.000000	21.625964
1915.000000	21.802462
1914.000000	22.114555
1913.000000	22.326032
1912.000000	22.486715
1911.000000	22.708830
1910.000000	22.916072
1909.000000	23.154216
1908.000000	23.424289
1907.000000	23.662586
1906.000000	23.831730
1905.000000	24.191106
1904.000000	24.583887
1903.000000	24.869158
1902.000000	25.163805
1901.000000	25.398041
1900.000000	25.764362
1899.000000	26.042557
1898.000000	26.538718
1897.000000	26.804033
1896.000000	27.130531
1895.000000	27.434955
1894.000000	27.731622
1893.000000	28.129886
1892.000000	28.521209
1891.000000	28.804978
1890.000000	29.116164
1889.000000	29.472724
1888.000000	29.778119
1887.000000	30.152146
1886.000000	30.489537
1885.000000	30.729278
1884.000000	31.024426
1883.000000	31.330735
1882.000000	31.600555
1881.000000	31.879397
1880.000000	32.180870
1879.000000	32.407367
1878.000000	32.674681
1877.000000	32.931973
1876.000000	33.113972
1875.000000	33.356974
1874.000000	33.545248
1873.000000	33.762702
1872.000000	33.960137
1871.000000	34.144572
1870.000000	34.296107
1869.000000	34.471993
1868.000000	34.604161
1867.000000	34.701430
1866.000000	34.795570
1865.000000	34.917242
1864.000000	34.976320
1863.000000	35.045031
1862.000000	35.128595
1861.000000	35.186817
1860.000000	35.253064
1859.000000	35.331177
1858.000000	35.343616
1857.000000	35.384105
1856.000000	35.424213
1855.000000	35.489861
1854.000000	35.536499
1853.000000	35.554353
1852.000000	35.534767
1851.000000	35.590950
1850.000000	35.601739
1849.000000	35.596566
1848.000000	35.632326
1847.000000	35.628555
1846.000000	35.625475
1845.000000	35.594384
1844.000000	35.581764
1843.000000	35.526768
1842.000000	35.535606
1841.000000	35.532430
1840.000000	35.506897
1839.000000	35.491731
1838.000000	35.470645
1837.000000	35.406593
1836.000000	35.380320
1835.000000	35.334834
1834.000000	35.292848
1833.000000	35.268231
1832.000000	35.239948
1831.000000	35.178008
1830.000000	35.149637
1829.000000	35.117578
1828.000000	35.086410
1827.000000	35.071898
1826.000000	35.047530
1825.000000	35.021810
1824.000000	34.995105
1823.000000	34.951110
1822.000000	34.887741
1821.000000	34.852281
1820.000000	34.822489
1819.000000	34.794181
1818.000000	34.778685
1817.000000	34.766015
1816.000000	34.726964
1815.000000	34.690080
1814.000000	34.649466
1813.000000	34.621933
1812.000000	34.616652
1811.000000	34.580958
1810.000000	34.560545
1809.000000	34.548945
1808.000000	34.494346
1807.000000	34.439521
1806.000000	34.418371
1805.000000	34.407794
1804.000000	34.392587
1803.000000	34.363402
1802.000000	34.320443
1801.000000	34.298621
1800.000000	34.292828
1799.000000	34.264894
1798.000000	34.250956
1797.000000	34.230834
1796.000000	34.201355
1795.000000	34.180126
1794.000000	34.175177
1793.000000	34.167997
1792.000000	34.159297
1791.000000	34.141239
1790.000000	34.141671
1789.000000	34.125465
1788.000000	34.102998
1787.000000	34.085542
1786.000000	34.086098
1785.000000	34.067796
1784.000000	34.047932
1783.000000	34.021925
1782.000000	33.996162
1781.000000	33.962944
1780.000000	33.939988
1779.000000	33.945787
1778.000000	33.910691
1777.000000	33.857448
1776.000000	33.821943
1775.000000	33.783033
1774.000000	33.758904
1773.000000	33.726367
1772.000000	33.684531
1771.000000	33.644947
1770.000000	33.611892
1769.000000	33.547091
1768.000000	33.500024
1767.000000	33.480570
1766.000000	33.430563
1765.000000	33.396604
1764.000000	33.360801
1763.000000	33.289513
1762.000000	33.251681
1761.000000	33.224547
1760.000000	33.139172
1759.000000	33.117830
1758.000000	33.083702
1757.000000	33.029194
1756.000000	32.999861
1755.000000	32.956138
1754.000000	32.936400
1753.000000	32.863082
1752.000000	32.830121
1751.000000	32.790577
1750.000000	32.768923
1749.000000	32.704812
1748.000000	32.653929
1747.000000	32.617594
1746.000000	32.576801
1745.000000	32.523184
1744.000000	32.465099
1743.000000	32.439127
1742.000000	32.417770
1741.000000	32.370035
1740.000000	32.331055
1739.000000	32.268600
1738.000000	32.256197
1737.000000	32.233454
1736.000000	32.209737
1735.000000	32.198335
1734.000000	32.204719
1733.000000	32.175990
1732.000000	32.184249
1731.000000	32.184083
1730.000000	32.202853
1729.000000	32.224990
1728.000000	32.276901
1727.000000	32.300443
1726.000000	32.325782
1725.000000	32.388435
1724.000000	32.472666
1723.000000	32.528112
1722.000000	32.618816
1721.000000	32.694117
1720.000000	32.764035
1719.000000	32.855352
1718.000000	32.888574
1717.000000	32.999302
1716.000000	33.076444
1715.000000	33.140882
1714.000000	33.224235
1713.000000	33.301393
1712.000000	33.354548
1711.000000	33.419099
1710.000000	33.455933
1709.000000	33.521012
1708.000000	33.592141
1707.000000	33.604362
1706.000000	33.643826
1705.000000	33.620751
1704.000000	33.698632
1703.000000	33.698356
1702.000000	33.722228
1701.000000	33.727406
1700.000000	33.740623
1699.000000	33.737969
1698.000000	33.780534
1697.000000	33.791540
1696.000000	33.823415
1695.000000	33.834459
1694.000000	33.857183
1693.000000	33.894800
1692.000000	33.929077
1691.000000	33.993745
1690.000000	34.064153
1689.000000	34.158001
1688.000000	34.215436
1687.000000	34.317371
1686.000000	34.399776
1685.000000	34.507225
1684.000000	34.636223
1683.000000	34.768797
1682.000000	34.905972
1681.000000	35.081336
1680.000000	35.224087
1679.000000	35.382637
1678.000000	35.532479
1677.000000	35.654108
1676.000000	35.847402
1675.000000	36.002461
1674.000000	36.179498
1673.000000	36.329579
1672.000000	36.481776
1671.000000	36.613335
1670.000000	36.752199
1669.000000	36.913772
1668.000000	37.025532
1667.000000	37.184010
1666.000000	37.272836
1665.000000	37.395194
1664.000000	37.475763
1663.000000	37.553371
1662.000000	37.617255
1661.000000	37.701045
1660.000000	37.774679
1659.000000	37.833159
1658.000000	37.868550
1657.000000	37.930550
1656.000000	37.970638
1655.000000	37.997614
1654.000000	38.039466
1653.000000	38.044373
1652.000000	38.064337
1651.000000	38.070954
1650.000000	38.093211
1649.000000	38.084956
1648.000000	38.071681
1647.000000	38.069611
1646.000000	38.045357
1645.000000	38.010000
1644.000000	37.998578
1643.000000	37.990269
1642.000000	37.955113
1641.000000	37.947290
1640.000000	37.917083
1639.000000	37.893710
1638.000000	37.869789
1637.000000	37.842303
1636.000000	37.804109
1635.000000	37.777254
1634.000000	37.726609
1633.000000	37.672593
1632.000000	37.634511
1631.000000	37.602892
1630.000000	37.578090
1629.000000	37.529368
1628.000000	37.484428
1627.000000	37.440236
1626.000000	37.389921
1625.000000	37.350122
1624.000000	37.313120
1623.000000	37.267891
1622.000000	37.228054
1621.000000	37.178838
1620.000000	37.133447
1619.000000	37.074100
1618.000000	37.013913
1617.000000	36.956001
1616.000000	36.913610
1615.000000	36.877698
1614.000000	36.821068
1613.000000	36.765030
1612.000000	36.712099
1611.000000	36.649044
1610.000000	36.607969
1609.000000	36.544586
1608.000000	36.481503
1607.000000	36.439967
1606.000000	36.370124
1605.000000	36.314068
1604.000000	36.260355
1603.000000	36.207292
1602.000000	36.165949
1601.000000	36.101194
1600.000000	36.025324
1599.000000	35.966769
1598.000000	35.916437
1597.000000	35.861038
1596.000000	35.810883
1595.000000	35.769038
1594.000000	35.713138
1593.000000	35.669125
1592.000000	35.628718
1591.000000	35.566774
1590.000000	35.516922
1589.000000	35.452971
1588.000000	35.394167
1587.000000	35.369457
1586.000000	35.331240
1585.000000	35.289819
1584.000000	35.253617
1583.000000	35.219308
1582.000000	35.178546
1581.000000	35.128336
1580.000000	35.086918
1579.000000	35.041802
1578.000000	35.014869
1577.000000	34.978664
1576.000000	34.927394
1575.000000	34.888871
1574.000000	34.841436
1573.000000	34.797858
1572.000000	34.766635
1571.000000	34.731853
1570.000000	34.704593
1569.000000	34.668115
1568.000000	34.628515
1567.000000	34.591297
1566.000000	34.561118
1565.000000	34.534787
1564.000000	34.496226
1563.000000	34.479055
1562.000000	34.450339
1561.000000	34.420323
1560.000000	34.389586
1559.000000	34.375221
1558.000000	34.362470
1557.000000	34.342015
1556.000000	34.328378
1555.000000	34.310423
1554.000000	34.291258
1553.000000	34.263912
1552.000000	34.231800
1551.000000	34.197945
1550.000000	34.172945
1549.000000	34.138199
1548.000000	34.104839
1547.000000	34.056373
1546.000000	34.007441
1545.000000	33.962861
1544.000000	33.897312
1543.000000	33.838208
1542.000000	33.785018
1541.000000	33.710544
1540.000000	33.655098
1539.000000	33.582225
1538.000000	33.510050
1537.000000	33.426333
1536.000000	33.366972
1535.000000	33.297202
1534.000000	33.219490
1533.000000	33.153583
1532.000000	33.073349
1531.000000	33.004108
1530.000000	32.943034
1529.000000	32.882084
1528.000000	32.824395
1527.000000	32.763865
1526.000000	32.714797
1525.000000	32.669798
1524.000000	32.599296
1523.000000	32.581467
1522.000000	32.524976
1521.000000	32.475925
1520.000000	32.444756
1519.000000	32.410582
1518.000000	32.390925
1517.000000	32.354326
1516.000000	32.332430
1515.000000	32.299682
1514.000000	32.268834
1513.000000	32.239054
1512.000000	32.216116
1511.000000	32.200986
1510.000000	32.179243
1509.000000	32.156608
1508.000000	32.154737
1507.000000	32.164876
1506.000000	32.171928
1505.000000	32.220264
1504.000000	32.268156
1503.000000	32.255662
1502.000000	32.234603
1501.000000	32.168504
1500.000000	32.146773
1499.000000	32.144961
1498.000000	32.138580
1497.000000	32.144875
1496.000000	32.161766
1495.000000	32.166911
1494.000000	32.166735
1493.000000	32.204133
1492.000000	32.215976
1491.000000	32.236245
1490.000000	32.230710
1489.000000	32.278477
1488.000000	32.327906
1487.000000	32.361205
1486.000000	32.387870
1485.000000	32.415573
1484.000000	32.463657
1483.000000	32.498611
1482.000000	32.539783
1481.000000	32.572716
1480.000000	32.604331
1479.000000	32.648799
1478.000000	32.684756
1477.000000	32.743493
1476.000000	32.759275
1475.000000	32.799225
1474.000000	32.855264
1473.000000	32.880155
1472.000000	32.922173
1471.000000	32.948045
1470.000000	32.978245
