PE UV       SUBTECH     SPECTRUM    ASCII       PEDS        4.00        
   -1
RTgVeauAl 22.Sample.asc
18/03/09
17:14:16.00
18/03/09
17:14:16.00
Administrator

200.000000
1
Lambda 750
750N8071901
PerkinElmer UV WinLab 6.0.4.0738 / 1.61.00 Lambda 900

0
0
3350/servo 860.8/2
0
0
UV/VIS
1
1
1
CommonBeamDepol,150mm sphere / downward view
0
0
0
0
Program
Program
3350/servo 860.8/2
3350/0.2 860.8/0.2
3350/0.2 860.8/0.2
0
1
 
 
 
0
 
860.8
319.2
860.8
Front
100
on
 
 
0
0
0
 
0
 
 
 
0
 
 
0
0
0
0
0
 
 
 
 
0
0


0
0
#HDR
-1
-1
#GR
nm
%R
1.0
0.0
2350.000000
-1.000000
2151
8
67.547021
9.541997
#DATA
2350.000000	19.525735
2349.000000	19.312642
2348.000000	19.287218
2347.000000	20.189184
2346.000000	19.393617
2345.000000	19.480314
2344.000000	19.539786
2343.000000	19.494984
2342.000000	19.561516
2341.000000	19.886813
2340.000000	19.711964
2339.000000	20.091640
2338.000000	20.256358
2337.000000	20.139128
2336.000000	20.156841
2335.000000	20.408535
2334.000000	20.353799
2333.000000	20.290869
2332.000000	20.369623
2331.000000	20.361269
2330.000000	20.248926
2329.000000	20.398343
2328.000000	20.558337
2327.000000	20.423984
2326.000000	20.254157
2325.000000	20.106117
2324.000000	19.902687
2323.000000	20.066806
2322.000000	19.948968
2321.000000	19.941627
2320.000000	20.088537
2319.000000	19.931388
2318.000000	19.927917
2317.000000	19.837202
2316.000000	20.010043
2315.000000	19.795968
2314.000000	19.907599
2313.000000	19.666638
2312.000000	19.458207
2311.000000	19.597841
2310.000000	19.271748
2309.000000	19.627678
2308.000000	19.361038
2307.000000	19.291922
2306.000000	19.064685
2305.000000	19.124526
2304.000000	18.984500
2303.000000	19.059025
2302.000000	18.991668
2301.000000	18.979927
2300.000000	18.935997
2299.000000	18.577664
2298.000000	18.523984
2297.000000	18.660317
2296.000000	18.503539
2295.000000	18.472516
2294.000000	18.378591
2293.000000	18.439222
2292.000000	18.227488
2291.000000	18.270508
2290.000000	18.520114
2289.000000	18.187766
2288.000000	18.042960
2287.000000	18.004442
2286.000000	17.965433
2285.000000	18.016262
2284.000000	18.041050
2283.000000	17.873169
2282.000000	17.986845
2281.000000	17.895577
2280.000000	17.801032
2279.000000	17.956615
2278.000000	17.966528
2277.000000	18.000533
2276.000000	17.976129
2275.000000	18.023948
2274.000000	18.241490
2273.000000	18.218274
2272.000000	18.270543
2271.000000	18.322449
2270.000000	18.307086
2269.000000	18.279549
2268.000000	18.284463
2267.000000	18.317519
2266.000000	18.473439
2265.000000	18.516388
2264.000000	18.617111
2263.000000	18.839616
2262.000000	19.014032
2261.000000	19.162947
2260.000000	19.181805
2259.000000	19.227375
2258.000000	19.403608
2257.000000	19.573970
2256.000000	19.671589
2255.000000	19.972875
2254.000000	20.253481
2253.000000	20.064919
2252.000000	20.192189
2251.000000	20.577475
2250.000000	20.829985
2249.000000	21.098979
2248.000000	21.227256
2247.000000	21.369816
2246.000000	21.535777
2245.000000	21.649700
2244.000000	21.790883
2243.000000	22.035952
2242.000000	22.283095
2241.000000	22.368581
2240.000000	22.505825
2239.000000	22.551748
2238.000000	22.583903
2237.000000	22.741189
2236.000000	22.883658
2235.000000	23.021199
2234.000000	23.085460
2233.000000	23.158814
2232.000000	23.187423
2231.000000	23.205783
2230.000000	23.237784
2229.000000	23.302239
2228.000000	23.428894
2227.000000	23.401751
2226.000000	23.367654
2225.000000	23.510458
2224.000000	23.484024
2223.000000	23.382235
2222.000000	23.426876
2221.000000	23.398103
2220.000000	23.416625
2219.000000	23.345925
2218.000000	23.200884
2217.000000	23.118514
2216.000000	23.140515
2215.000000	23.229628
2214.000000	23.146953
2213.000000	23.068913
2212.000000	23.050090
2211.000000	22.915854
2210.000000	22.776024
2209.000000	22.739862
2208.000000	22.639614
2207.000000	22.567724
2206.000000	22.505966
2205.000000	22.578003
2204.000000	22.490599
2203.000000	22.402325
2202.000000	22.312938
2201.000000	22.195203
2200.000000	22.250873
2199.000000	22.241176
2198.000000	22.136396
2197.000000	21.981295
2196.000000	21.940157
2195.000000	21.880218
2194.000000	21.652495
2193.000000	21.650415
2192.000000	21.600097
2191.000000	21.563921
2190.000000	21.505174
2189.000000	21.470224
2188.000000	21.367191
2187.000000	21.331330
2186.000000	21.280331
2185.000000	21.276544
2184.000000	21.276302
2183.000000	21.207652
2182.000000	21.173886
2181.000000	21.225886
2180.000000	21.155543
2179.000000	21.170737
2178.000000	21.034416
2177.000000	21.028591
2176.000000	21.092546
2175.000000	21.021500
2174.000000	21.058490
2173.000000	21.099543
2172.000000	21.099837
2171.000000	21.253707
2170.000000	21.291168
2169.000000	21.383014
2168.000000	21.512755
2167.000000	21.525925
2166.000000	21.579444
2165.000000	21.481873
2164.000000	21.514665
2163.000000	21.769396
2162.000000	21.890716
2161.000000	21.909381
2160.000000	22.192615
2159.000000	22.247163
2158.000000	22.350482
2157.000000	22.457228
2156.000000	22.510414
2155.000000	22.693465
2154.000000	22.877002
2153.000000	23.152561
2152.000000	23.409313
2151.000000	23.319815
2150.000000	23.478850
2149.000000	23.410373
2148.000000	23.528295
2147.000000	23.713022
2146.000000	24.041842
2145.000000	24.015780
2144.000000	24.051382
2143.000000	24.162455
2142.000000	24.498419
2141.000000	24.576183
2140.000000	24.625734
2139.000000	24.783598
2138.000000	24.927959
2137.000000	25.053675
2136.000000	25.214295
2135.000000	25.175036
2134.000000	25.382074
2133.000000	25.207143
2132.000000	25.376229
2131.000000	25.579361
2130.000000	25.882627
2129.000000	25.761334
2128.000000	25.948532
2127.000000	26.008946
2126.000000	25.806027
2125.000000	25.900215
2124.000000	26.022396
2123.000000	26.053197
2122.000000	26.116511
2121.000000	26.138545
2120.000000	26.071141
2119.000000	26.240866
2118.000000	26.460767
2117.000000	26.296218
2116.000000	26.327426
2115.000000	26.497165
2114.000000	26.411419
2113.000000	26.533666
2112.000000	26.610341
2111.000000	26.622598
2110.000000	26.580579
2109.000000	26.617102
2108.000000	26.653044
2107.000000	26.751180
2106.000000	26.662168
2105.000000	26.603367
2104.000000	26.742681
2103.000000	26.825320
2102.000000	26.634469
2101.000000	26.769340
2100.000000	26.764686
2099.000000	26.648646
2098.000000	26.793160
2097.000000	26.823021
2096.000000	26.752038
2095.000000	26.738446
2094.000000	26.668698
2093.000000	26.650363
2092.000000	26.687444
2091.000000	26.715637
2090.000000	26.650085
2089.000000	26.671773
2088.000000	26.662763
2087.000000	26.636131
2086.000000	26.640631
2085.000000	26.705668
2084.000000	26.623977
2083.000000	26.538943
2082.000000	26.494531
2081.000000	26.383071
2080.000000	26.357401
2079.000000	26.239968
2078.000000	26.161337
2077.000000	26.132930
2076.000000	26.059082
2075.000000	25.925251
2074.000000	25.830812
2073.000000	25.694873
2072.000000	25.526223
2071.000000	25.411436
2070.000000	25.234708
2069.000000	25.100713
2068.000000	25.003251
2067.000000	24.861027
2066.000000	24.720583
2065.000000	24.528150
2064.000000	24.433421
2063.000000	24.261435
2062.000000	24.092741
2061.000000	23.953372
2060.000000	23.835193
2059.000000	23.683598
2058.000000	23.574397
2057.000000	23.375151
2056.000000	23.234272
2055.000000	23.128802
2054.000000	23.000714
2053.000000	22.859697
2052.000000	22.726168
2051.000000	22.598846
2050.000000	22.473400
2049.000000	22.437271
2048.000000	22.290429
2047.000000	22.194878
2046.000000	22.151285
2045.000000	22.104980
2044.000000	22.065310
2043.000000	22.085402
2042.000000	22.083666
2041.000000	22.104460
2040.000000	22.151804
2039.000000	22.112674
2038.000000	22.145378
2037.000000	22.234746
2036.000000	22.325814
2035.000000	22.428544
2034.000000	22.485244
2033.000000	22.582817
2032.000000	22.709506
2031.000000	22.816862
2030.000000	22.889344
2029.000000	23.028838
2028.000000	23.186230
2027.000000	23.298994
2026.000000	23.452406
2025.000000	23.558204
2024.000000	23.589654
2023.000000	23.657485
2022.000000	23.749063
2021.000000	23.822608
2020.000000	23.897707
2019.000000	23.931467
2018.000000	23.983799
2017.000000	24.018117
2016.000000	24.046521
2015.000000	24.098718
2014.000000	24.085621
2013.000000	24.052969
2012.000000	24.024749
2011.000000	23.976429
2010.000000	23.961481
2009.000000	23.901950
2008.000000	23.802275
2007.000000	23.732479
2006.000000	23.673194
2005.000000	23.598787
2004.000000	23.538611
2003.000000	23.456356
2002.000000	23.388462
2001.000000	23.305364
2000.000000	23.205180
1999.000000	23.132021
1998.000000	23.038653
1997.000000	22.954169
1996.000000	22.848618
1995.000000	22.711768
1994.000000	22.604261
1993.000000	22.526177
1992.000000	22.431944
1991.000000	22.291413
1990.000000	22.209172
1989.000000	22.147485
1988.000000	22.011215
1987.000000	21.900027
1986.000000	21.848107
1985.000000	21.760200
1984.000000	21.650651
1983.000000	21.522931
1982.000000	21.407484
1981.000000	21.320468
1980.000000	21.213216
1979.000000	21.103386
1978.000000	21.025109
1977.000000	20.902179
1976.000000	20.823792
1975.000000	20.756865
1974.000000	20.659528
1973.000000	20.563919
1972.000000	20.498375
1971.000000	20.409935
1970.000000	20.327968
1969.000000	20.232902
1968.000000	20.190036
1967.000000	20.084529
1966.000000	19.981201
1965.000000	19.871420
1964.000000	19.793899
1963.000000	19.704379
1962.000000	19.618947
1961.000000	19.520855
1960.000000	19.474657
1959.000000	19.367650
1958.000000	19.325266
1957.000000	19.261864
1956.000000	19.212415
1955.000000	19.133871
1954.000000	19.096784
1953.000000	18.972453
1952.000000	18.968843
1951.000000	18.885334
1950.000000	18.857796
1949.000000	18.869265
1948.000000	18.807494
1947.000000	18.792426
1946.000000	18.767358
1945.000000	18.748598
1944.000000	18.784030
1943.000000	18.768963
1942.000000	18.764498
1941.000000	18.748984
1940.000000	18.803840
1939.000000	18.908530
1938.000000	18.889865
1937.000000	18.954903
1936.000000	19.030292
1935.000000	19.102102
1934.000000	19.129518
1933.000000	19.296941
1932.000000	19.456553
1931.000000	19.569990
1930.000000	19.708171
1929.000000	19.786760
1928.000000	19.973062
1927.000000	20.134558
1926.000000	20.459949
1925.000000	20.617385
1924.000000	20.832997
1923.000000	21.075475
1922.000000	21.177296
1921.000000	21.562819
1920.000000	21.782781
1919.000000	22.011816
1918.000000	22.330057
1917.000000	22.682585
1916.000000	22.849420
1915.000000	23.235600
1914.000000	23.669158
1913.000000	24.060209
1912.000000	24.342211
1911.000000	24.757430
1910.000000	25.223214
1909.000000	25.551954
1908.000000	26.034610
1907.000000	26.530763
1906.000000	26.979215
1905.000000	27.412961
1904.000000	28.037765
1903.000000	28.538197
1902.000000	29.151948
1901.000000	29.677884
1900.000000	30.238613
1899.000000	30.837326
1898.000000	31.524632
1897.000000	32.077850
1896.000000	32.659844
1895.000000	33.255510
1894.000000	33.822538
1893.000000	34.391678
1892.000000	35.022725
1891.000000	35.653256
1890.000000	36.148696
1889.000000	36.729129
1888.000000	37.256835
1887.000000	37.816575
1886.000000	38.355665
1885.000000	38.879054
1884.000000	39.450714
1883.000000	39.946069
1882.000000	40.388017
1881.000000	40.873996
1880.000000	41.296434
1879.000000	41.687621
1878.000000	42.146110
1877.000000	42.518563
1876.000000	42.945813
1875.000000	43.299702
1874.000000	43.639884
1873.000000	43.941012
1872.000000	44.290519
1871.000000	44.635043
1870.000000	44.862536
1869.000000	45.092194
1868.000000	45.316093
1867.000000	45.501274
1866.000000	45.694017
1865.000000	45.822097
1864.000000	45.983005
1863.000000	46.144675
1862.000000	46.243280
1861.000000	46.349968
1860.000000	46.444029
1859.000000	46.533141
1858.000000	46.603149
1857.000000	46.683833
1856.000000	46.738270
1855.000000	46.827260
1854.000000	46.898493
1853.000000	46.947044
1852.000000	46.929497
1851.000000	46.939372
1850.000000	46.967750
1849.000000	46.998373
1848.000000	47.035639
1847.000000	47.013341
1846.000000	46.996365
1845.000000	46.972745
1844.000000	46.951609
1843.000000	46.928207
1842.000000	46.897468
1841.000000	46.864113
1840.000000	46.808626
1839.000000	46.799148
1838.000000	46.778554
1837.000000	46.690593
1836.000000	46.614372
1835.000000	46.551088
1834.000000	46.479118
1833.000000	46.418778
1832.000000	46.393506
1831.000000	46.334289
1830.000000	46.293531
1829.000000	46.236306
1828.000000	46.167180
1827.000000	46.115945
1826.000000	46.076320
1825.000000	46.020033
1824.000000	45.964559
1823.000000	45.913107
1822.000000	45.850895
1821.000000	45.800226
1820.000000	45.749517
1819.000000	45.702437
1818.000000	45.676477
1817.000000	45.616496
1816.000000	45.537755
1815.000000	45.500965
1814.000000	45.458507
1813.000000	45.423461
1812.000000	45.376392
1811.000000	45.293403
1810.000000	45.247330
1809.000000	45.215174
1808.000000	45.156642
1807.000000	45.098358
1806.000000	45.061899
1805.000000	45.000005
1804.000000	44.939574
1803.000000	44.908277
1802.000000	44.872050
1801.000000	44.814937
1800.000000	44.758543
1799.000000	44.725828
1798.000000	44.693627
1797.000000	44.648179
1796.000000	44.619638
1795.000000	44.577174
1794.000000	44.558424
1793.000000	44.520544
1792.000000	44.458420
1791.000000	44.450719
1790.000000	44.426092
1789.000000	44.369905
1788.000000	44.345712
1787.000000	44.296030
1786.000000	44.256827
1785.000000	44.233488
1784.000000	44.185098
1783.000000	44.134322
1782.000000	44.094974
1781.000000	44.026323
1780.000000	43.963809
1779.000000	43.936940
1778.000000	43.872812
1777.000000	43.792914
1776.000000	43.723924
1775.000000	43.650613
1774.000000	43.553496
1773.000000	43.484686
1772.000000	43.420556
1771.000000	43.343538
1770.000000	43.295716
1769.000000	43.202919
1768.000000	43.091151
1767.000000	43.027028
1766.000000	42.964397
1765.000000	42.902466
1764.000000	42.824937
1763.000000	42.725003
1762.000000	42.653948
1761.000000	42.586995
1760.000000	42.509087
1759.000000	42.442122
1758.000000	42.390240
1757.000000	42.301751
1756.000000	42.234907
1755.000000	42.173453
1754.000000	42.104086
1753.000000	41.998939
1752.000000	41.941171
1751.000000	41.887089
1750.000000	41.813387
1749.000000	41.745746
1748.000000	41.634963
1747.000000	41.567722
1746.000000	41.485267
1745.000000	41.380078
1744.000000	41.285233
1743.000000	41.223511
1742.000000	41.126976
1741.000000	41.064314
1740.000000	40.988653
1739.000000	40.933423
1738.000000	40.839284
1737.000000	40.782665
1736.000000	40.726641
1735.000000	40.711682
1734.000000	40.677776
1733.000000	40.645050
1732.000000	40.636967
1731.000000	40.654329
1730.000000	40.658232
1729.000000	40.704962
1728.000000	40.771776
1727.000000	40.805070
1726.000000	40.885988
1725.000000	40.988744
1724.000000	41.084601
1723.000000	41.159357
1722.000000	41.322738
1721.000000	41.444337
1720.000000	41.590508
1719.000000	41.727350
1718.000000	41.863418
1717.000000	41.997713
1716.000000	42.134157
1715.000000	42.257427
1714.000000	42.377540
1713.000000	42.532442
1712.000000	42.646233
1711.000000	42.763220
1710.000000	42.841055
1709.000000	42.932359
1708.000000	43.047855
1707.000000	43.100554
1706.000000	43.175851
1705.000000	43.212775
1704.000000	43.297262
1703.000000	43.323118
1702.000000	43.344009
1701.000000	43.376788
1700.000000	43.427340
1699.000000	43.405417
1698.000000	43.489301
1697.000000	43.526986
1696.000000	43.563532
1695.000000	43.598881
1694.000000	43.662110
1693.000000	43.720431
1692.000000	43.790412
1691.000000	43.882008
1690.000000	44.003776
1689.000000	44.114216
1688.000000	44.253582
1687.000000	44.407043
1686.000000	44.627204
1685.000000	44.783443
1684.000000	44.977978
1683.000000	45.205992
1682.000000	45.418301
1681.000000	45.665779
1680.000000	45.911316
1679.000000	46.170293
1678.000000	46.416296
1677.000000	46.648716
1676.000000	46.932549
1675.000000	47.198934
1674.000000	47.446314
1673.000000	47.714852
1672.000000	47.971543
1671.000000	48.224420
1670.000000	48.451256
1669.000000	48.707238
1668.000000	48.920109
1667.000000	49.122569
1666.000000	49.292570
1665.000000	49.458916
1664.000000	49.613980
1663.000000	49.738695
1662.000000	49.856397
1661.000000	50.002023
1660.000000	50.133136
1659.000000	50.229193
1658.000000	50.288814
1657.000000	50.352206
1656.000000	50.416587
1655.000000	50.479214
1654.000000	50.514730
1653.000000	50.551374
1652.000000	50.588654
1651.000000	50.602909
1650.000000	50.614549
1649.000000	50.591972
1648.000000	50.599667
1647.000000	50.597589
1646.000000	50.579277
1645.000000	50.556777
1644.000000	50.531072
1643.000000	50.505436
1642.000000	50.467761
1641.000000	50.432682
1640.000000	50.394588
1639.000000	50.360905
1638.000000	50.321731
1637.000000	50.270789
1636.000000	50.219065
1635.000000	50.178104
1634.000000	50.097255
1633.000000	50.031642
1632.000000	49.992923
1631.000000	49.935543
1630.000000	49.871881
1629.000000	49.814362
1628.000000	49.722631
1627.000000	49.649226
1626.000000	49.597597
1625.000000	49.527580
1624.000000	49.455298
1623.000000	49.381143
1622.000000	49.296817
1621.000000	49.209801
1620.000000	49.137721
1619.000000	49.068810
1618.000000	49.004267
1617.000000	48.906112
1616.000000	48.818196
1615.000000	48.724308
1614.000000	48.631472
1613.000000	48.542949
1612.000000	48.450457
1611.000000	48.366776
1610.000000	48.296543
1609.000000	48.199117
1608.000000	48.097612
1607.000000	48.000546
1606.000000	47.891876
1605.000000	47.791463
1604.000000	47.713850
1603.000000	47.616655
1602.000000	47.517307
1601.000000	47.427828
1600.000000	47.325682
1599.000000	47.229686
1598.000000	47.136115
1597.000000	47.043671
1596.000000	46.957074
1595.000000	46.871231
1594.000000	46.783726
1593.000000	46.698271
1592.000000	46.613934
1591.000000	46.531267
1590.000000	46.449521
1589.000000	46.362978
1588.000000	46.278554
1587.000000	46.212845
1586.000000	46.137299
1585.000000	46.044323
1584.000000	45.983608
1583.000000	45.926106
1582.000000	45.852997
1581.000000	45.776661
1580.000000	45.706455
1579.000000	45.640555
1578.000000	45.576317
1577.000000	45.490931
1576.000000	45.416517
1575.000000	45.351378
1574.000000	45.277645
1573.000000	45.221185
1572.000000	45.158513
1571.000000	45.083449
1570.000000	45.021937
1569.000000	44.956847
1568.000000	44.896216
1567.000000	44.829370
1566.000000	44.772828
1565.000000	44.717990
1564.000000	44.686095
1563.000000	44.642909
1562.000000	44.591102
1561.000000	44.555332
1560.000000	44.517224
1559.000000	44.488481
1558.000000	44.450889
1557.000000	44.432609
1556.000000	44.399123
1555.000000	44.364578
1554.000000	44.327337
1553.000000	44.279362
1552.000000	44.234700
1551.000000	44.185821
1550.000000	44.141191
1549.000000	44.091217
1548.000000	44.040414
1547.000000	43.958545
1546.000000	43.878473
1545.000000	43.782338
1544.000000	43.686310
1543.000000	43.593658
1542.000000	43.488426
1541.000000	43.373419
1540.000000	43.251471
1539.000000	43.140686
1538.000000	43.010144
1537.000000	42.883305
1536.000000	42.759502
1535.000000	42.643386
1534.000000	42.504200
1533.000000	42.392084
1532.000000	42.255917
1531.000000	42.141225
1530.000000	42.016833
1529.000000	41.904786
1528.000000	41.808654
1527.000000	41.699391
1526.000000	41.605404
1525.000000	41.508698
1524.000000	41.406233
1523.000000	41.343233
1522.000000	41.266631
1521.000000	41.187823
1520.000000	41.115637
1519.000000	41.069051
1518.000000	41.021843
1517.000000	40.966120
1516.000000	40.900732
1515.000000	40.823318
1514.000000	40.784490
1513.000000	40.744603
1512.000000	40.708493
1511.000000	40.696772
1510.000000	40.653566
1509.000000	40.645117
1508.000000	40.677127
1507.000000	40.671177
1506.000000	40.646660
1505.000000	40.619821
1504.000000	40.599990
1503.000000	40.546692
1502.000000	40.516262
1501.000000	40.515961
1500.000000	40.486650
1499.000000	40.490245
1498.000000	40.482281
1497.000000	40.493021
1496.000000	40.480707
1495.000000	40.501027
1494.000000	40.515935
1493.000000	40.564001
1492.000000	40.567765
1491.000000	40.614041
1490.000000	40.653956
1489.000000	40.692847
1488.000000	40.736534
1487.000000	40.793322
1486.000000	40.826215
1485.000000	40.886574
1484.000000	40.954997
1483.000000	41.004394
1482.000000	41.064476
1481.000000	41.160927
1480.000000	41.224913
1479.000000	41.303544
1478.000000	41.354571
1477.000000	41.432441
1476.000000	41.495560
1475.000000	41.560663
1474.000000	41.638774
1473.000000	41.711783
1472.000000	41.760545
1471.000000	41.822059
1470.000000	41.910224
