PE UV       SUBTECH     SPECTRUM    ASCII       PEDS        4.00        
   -1
RTgVeauUK 32.Sample.asc
18/03/09
14:58:51.00
18/03/09
14:58:51.00
Administrator

200.000000
1
Lambda 750
750N8071901
PerkinElmer UV WinLab 6.0.4.0738 / 1.61.00 Lambda 900

0
0
3350/servo 860.8/2
0
0
UV/VIS
1
1
1
CommonBeamDepol,150mm sphere / downward view
0
0
0
0
Program
Program
3350/servo 860.8/2
3350/0.2 860.8/0.2
3350/0.2 860.8/0.2
0
1
 
 
 
0
 
860.8
319.2
860.8
Front
100
on
 
 
0
0
0
 
0
 
 
 
0
 
 
0
0
0
0
0
 
 
 
 
0
0


0
0
#HDR
-1
-1
#GR
nm
%R
1.0
0.0
2350.000000
-1.000000
2151
8
56.500204
11.989574
#DATA
2350.000000	23.397468
2349.000000	23.306020
2348.000000	23.463789
2347.000000	23.735231
2346.000000	23.613683
2345.000000	23.596081
2344.000000	23.410264
2343.000000	23.266422
2342.000000	23.501436
2341.000000	23.593301
2340.000000	23.481095
2339.000000	23.889186
2338.000000	23.868623
2337.000000	24.017631
2336.000000	24.002112
2335.000000	24.183393
2334.000000	24.133397
2333.000000	24.233318
2332.000000	24.231955
2331.000000	23.992187
2330.000000	24.111392
2329.000000	24.126980
2328.000000	24.005285
2327.000000	24.156794
2326.000000	24.040482
2325.000000	23.898482
2324.000000	23.967361
2323.000000	23.933472
2322.000000	23.736142
2321.000000	23.697408
2320.000000	23.920807
2319.000000	23.804373
2318.000000	24.052342
2317.000000	24.086030
2316.000000	23.873867
2315.000000	23.525327
2314.000000	23.720998
2313.000000	23.753200
2312.000000	23.640416
2311.000000	23.477757
2310.000000	23.561725
2309.000000	23.364436
2308.000000	23.364785
2307.000000	23.422413
2306.000000	23.293197
2305.000000	23.251336
2304.000000	23.311642
2303.000000	23.225086
2302.000000	23.354299
2301.000000	23.195962
2300.000000	23.058175
2299.000000	22.846611
2298.000000	22.798626
2297.000000	22.640985
2296.000000	22.841382
2295.000000	22.837723
2294.000000	22.764183
2293.000000	22.666387
2292.000000	22.546323
2291.000000	22.672218
2290.000000	22.556808
2289.000000	22.643845
2288.000000	22.655989
2287.000000	22.478558
2286.000000	22.547485
2285.000000	22.410198
2284.000000	22.249955
2283.000000	22.338337
2282.000000	22.243980
2281.000000	22.239169
2280.000000	22.349067
2279.000000	22.379239
2278.000000	22.289788
2277.000000	22.412520
2276.000000	22.355186
2275.000000	22.440583
2274.000000	22.623390
2273.000000	22.657009
2272.000000	22.539387
2271.000000	22.532352
2270.000000	22.525928
2269.000000	22.619197
2268.000000	22.707969
2267.000000	22.749929
2266.000000	22.856419
2265.000000	22.935328
2264.000000	22.862680
2263.000000	22.804028
2262.000000	22.889258
2261.000000	22.932095
2260.000000	23.122432
2259.000000	23.322881
2258.000000	23.421833
2257.000000	23.549525
2256.000000	23.459844
2255.000000	23.587919
2254.000000	23.820107
2253.000000	23.819195
2252.000000	23.972205
2251.000000	24.190082
2250.000000	24.305490
2249.000000	24.372976
2248.000000	24.539661
2247.000000	24.758623
2246.000000	24.836031
2245.000000	24.826710
2244.000000	24.935067
2243.000000	25.164686
2242.000000	25.304801
2241.000000	25.409240
2240.000000	25.468785
2239.000000	25.547785
2238.000000	25.545180
2237.000000	25.658763
2236.000000	25.757106
2235.000000	25.754290
2234.000000	25.824455
2233.000000	25.947831
2232.000000	26.058701
2231.000000	26.111605
2230.000000	26.134222
2229.000000	26.127085
2228.000000	26.264113
2227.000000	26.220593
2226.000000	26.121269
2225.000000	26.111404
2224.000000	26.206066
2223.000000	26.114718
2222.000000	26.114772
2221.000000	26.158073
2220.000000	26.164690
2219.000000	26.141578
2218.000000	26.152386
2217.000000	26.084882
2216.000000	26.042023
2215.000000	26.062061
2214.000000	26.038355
2213.000000	25.980591
2212.000000	25.890701
2211.000000	25.721107
2210.000000	25.622661
2209.000000	25.767308
2208.000000	25.712079
2207.000000	25.632233
2206.000000	25.601810
2205.000000	25.537437
2204.000000	25.619743
2203.000000	25.520594
2202.000000	25.455517
2201.000000	25.497918
2200.000000	25.507206
2199.000000	25.452705
2198.000000	25.494649
2197.000000	25.380605
2196.000000	25.251599
2195.000000	25.140273
2194.000000	25.159458
2193.000000	25.123816
2192.000000	24.980188
2191.000000	24.976796
2190.000000	25.042988
2189.000000	25.010334
2188.000000	25.022358
2187.000000	24.980525
2186.000000	24.957725
2185.000000	24.772679
2184.000000	24.907999
2183.000000	24.862160
2182.000000	24.911783
2181.000000	24.724632
2180.000000	24.658855
2179.000000	24.669801
2178.000000	24.702294
2177.000000	24.727290
2176.000000	24.708831
2175.000000	24.738354
2174.000000	24.799123
2173.000000	24.801839
2172.000000	24.769846
2171.000000	24.794986
2170.000000	24.910784
2169.000000	24.952295
2168.000000	25.154589
2167.000000	25.220318
2166.000000	25.184188
2165.000000	25.173390
2164.000000	25.235335
2163.000000	25.178076
2162.000000	25.353480
2161.000000	25.509352
2160.000000	25.647271
2159.000000	25.634342
2158.000000	25.635050
2157.000000	25.811887
2156.000000	26.010222
2155.000000	26.084528
2154.000000	26.120400
2153.000000	26.287986
2152.000000	26.267594
2151.000000	26.531582
2150.000000	26.590401
2149.000000	26.638953
2148.000000	26.747623
2147.000000	26.815236
2146.000000	26.970201
2145.000000	26.940320
2144.000000	27.206282
2143.000000	27.116918
2142.000000	27.347495
2141.000000	27.451065
2140.000000	27.568472
2139.000000	27.533669
2138.000000	27.705728
2137.000000	27.548052
2136.000000	27.788845
2135.000000	27.688375
2134.000000	27.920664
2133.000000	27.791229
2132.000000	28.012216
2131.000000	28.279068
2130.000000	28.204302
2129.000000	28.298581
2128.000000	28.065448
2127.000000	28.307635
2126.000000	28.241030
2125.000000	28.382523
2124.000000	28.439342
2123.000000	28.425596
2122.000000	28.436613
2121.000000	28.556724
2120.000000	28.349669
2119.000000	28.473776
2118.000000	28.547219
2117.000000	28.650323
2116.000000	28.607911
2115.000000	28.632200
2114.000000	28.669065
2113.000000	28.617939
2112.000000	28.664390
2111.000000	28.584886
2110.000000	28.713912
2109.000000	28.942625
2108.000000	28.790433
2107.000000	28.750471
2106.000000	28.816521
2105.000000	28.740921
2104.000000	28.729704
2103.000000	28.787694
2102.000000	28.711703
2101.000000	28.735821
2100.000000	28.817835
2099.000000	28.669418
2098.000000	28.816989
2097.000000	28.845641
2096.000000	28.851916
2095.000000	28.819548
2094.000000	28.824847
2093.000000	28.772046
2092.000000	28.735606
2091.000000	28.734460
2090.000000	28.678473
2089.000000	28.819539
2088.000000	28.726677
2087.000000	28.727550
2086.000000	28.723367
2085.000000	28.690944
2084.000000	28.720372
2083.000000	28.643634
2082.000000	28.608283
2081.000000	28.542529
2080.000000	28.460587
2079.000000	28.443043
2078.000000	28.311425
2077.000000	28.278011
2076.000000	28.225725
2075.000000	28.145349
2074.000000	28.147447
2073.000000	28.119387
2072.000000	27.947692
2071.000000	27.871948
2070.000000	27.827102
2069.000000	27.732518
2068.000000	27.694271
2067.000000	27.511812
2066.000000	27.465725
2065.000000	27.353557
2064.000000	27.237859
2063.000000	27.154831
2062.000000	27.075544
2061.000000	26.964697
2060.000000	26.877641
2059.000000	26.777091
2058.000000	26.700869
2057.000000	26.572598
2056.000000	26.498094
2055.000000	26.411383
2054.000000	26.337059
2053.000000	26.240668
2052.000000	26.166384
2051.000000	26.062657
2050.000000	25.950371
2049.000000	25.894771
2048.000000	25.810667
2047.000000	25.802757
2046.000000	25.747187
2045.000000	25.728762
2044.000000	25.694484
2043.000000	25.635300
2042.000000	25.646988
2041.000000	25.704122
2040.000000	25.717332
2039.000000	25.672226
2038.000000	25.662888
2037.000000	25.699758
2036.000000	25.758172
2035.000000	25.815311
2034.000000	25.888103
2033.000000	25.899743
2032.000000	25.984129
2031.000000	26.040675
2030.000000	26.103563
2029.000000	26.199392
2028.000000	26.270141
2027.000000	26.363468
2026.000000	26.435903
2025.000000	26.443008
2024.000000	26.482726
2023.000000	26.555060
2022.000000	26.626627
2021.000000	26.655700
2020.000000	26.652152
2019.000000	26.662875
2018.000000	26.671582
2017.000000	26.720176
2016.000000	26.713271
2015.000000	26.686175
2014.000000	26.703369
2013.000000	26.689990
2012.000000	26.656376
2011.000000	26.665515
2010.000000	26.629144
2009.000000	26.558890
2008.000000	26.531895
2007.000000	26.487339
2006.000000	26.432074
2005.000000	26.398989
2004.000000	26.325617
2003.000000	26.260675
2002.000000	26.191980
2001.000000	26.110303
2000.000000	26.034493
1999.000000	25.988633
1998.000000	25.926585
1997.000000	25.854359
1996.000000	25.829228
1995.000000	25.774909
1994.000000	25.684150
1993.000000	25.601294
1992.000000	25.535637
1991.000000	25.473488
1990.000000	25.415295
1989.000000	25.365658
1988.000000	25.286949
1987.000000	25.229411
1986.000000	25.177208
1985.000000	25.103348
1984.000000	25.023017
1983.000000	24.952329
1982.000000	24.897219
1981.000000	24.864754
1980.000000	24.772238
1979.000000	24.695482
1978.000000	24.655944
1977.000000	24.578178
1976.000000	24.548384
1975.000000	24.458916
1974.000000	24.349839
1973.000000	24.351549
1972.000000	24.301207
1971.000000	24.228337
1970.000000	24.188551
1969.000000	24.153574
1968.000000	24.078644
1967.000000	24.039039
1966.000000	23.996240
1965.000000	23.948447
1964.000000	23.861496
1963.000000	23.844245
1962.000000	23.771198
1961.000000	23.704293
1960.000000	23.658021
1959.000000	23.601936
1958.000000	23.617116
1957.000000	23.558316
1956.000000	23.467607
1955.000000	23.437341
1954.000000	23.423583
1953.000000	23.384757
1952.000000	23.383219
1951.000000	23.365425
1950.000000	23.325818
1949.000000	23.323370
1948.000000	23.329490
1947.000000	23.295961
1946.000000	23.291451
1945.000000	23.327971
1944.000000	23.342956
1943.000000	23.300332
1942.000000	23.363758
1941.000000	23.374429
1940.000000	23.360756
1939.000000	23.401914
1938.000000	23.451332
1937.000000	23.538234
1936.000000	23.617182
1935.000000	23.672617
1934.000000	23.728979
1933.000000	23.812585
1932.000000	23.829594
1931.000000	24.030138
1930.000000	24.130730
1929.000000	24.228895
1928.000000	24.361635
1927.000000	24.467846
1926.000000	24.558092
1925.000000	24.684393
1924.000000	24.879563
1923.000000	25.013888
1922.000000	25.141589
1921.000000	25.422372
1920.000000	25.579564
1919.000000	25.801444
1918.000000	25.964788
1917.000000	26.171445
1916.000000	26.278346
1915.000000	26.538551
1914.000000	26.890965
1913.000000	27.144310
1912.000000	27.320807
1911.000000	27.535303
1910.000000	27.879590
1909.000000	28.169585
1908.000000	28.479983
1907.000000	28.727494
1906.000000	28.994969
1905.000000	29.415231
1904.000000	29.778696
1903.000000	30.059260
1902.000000	30.452397
1901.000000	30.780260
1900.000000	31.139821
1899.000000	31.590549
1898.000000	31.942499
1897.000000	32.302193
1896.000000	32.704404
1895.000000	33.091042
1894.000000	33.449623
1893.000000	33.831835
1892.000000	34.248206
1891.000000	34.655509
1890.000000	35.006519
1889.000000	35.367309
1888.000000	35.723563
1887.000000	36.042331
1886.000000	36.386332
1885.000000	36.704320
1884.000000	37.037422
1883.000000	37.354576
1882.000000	37.662237
1881.000000	37.995615
1880.000000	38.286478
1879.000000	38.539847
1878.000000	38.845123
1877.000000	39.140782
1876.000000	39.352962
1875.000000	39.617181
1874.000000	39.826928
1873.000000	40.057549
1872.000000	40.208469
1871.000000	40.391248
1870.000000	40.573231
1869.000000	40.717338
1868.000000	40.891558
1867.000000	41.004010
1866.000000	41.102009
1865.000000	41.215892
1864.000000	41.266906
1863.000000	41.359205
1862.000000	41.469818
1861.000000	41.541806
1860.000000	41.627676
1859.000000	41.652625
1858.000000	41.695311
1857.000000	41.735848
1856.000000	41.822060
1855.000000	41.863670
1854.000000	41.850813
1853.000000	41.915300
1852.000000	41.918106
1851.000000	41.917410
1850.000000	41.962525
1849.000000	41.980743
1848.000000	41.992393
1847.000000	41.972337
1846.000000	41.962887
1845.000000	41.981414
1844.000000	41.965753
1843.000000	41.922872
1842.000000	41.911268
1841.000000	41.906999
1840.000000	41.851959
1839.000000	41.839502
1838.000000	41.830953
1837.000000	41.783585
1836.000000	41.719477
1835.000000	41.674636
1834.000000	41.630043
1833.000000	41.594212
1832.000000	41.583232
1831.000000	41.526894
1830.000000	41.490847
1829.000000	41.467776
1828.000000	41.431085
1827.000000	41.379335
1826.000000	41.327598
1825.000000	41.289834
1824.000000	41.293931
1823.000000	41.278514
1822.000000	41.222324
1821.000000	41.188821
1820.000000	41.166462
1819.000000	41.110327
1818.000000	41.078066
1817.000000	41.058283
1816.000000	41.009417
1815.000000	40.960743
1814.000000	40.939103
1813.000000	40.916480
1812.000000	40.880883
1811.000000	40.861072
1810.000000	40.844998
1809.000000	40.816320
1808.000000	40.785196
1807.000000	40.753839
1806.000000	40.718814
1805.000000	40.685945
1804.000000	40.681655
1803.000000	40.659839
1802.000000	40.613976
1801.000000	40.594570
1800.000000	40.584478
1799.000000	40.552623
1798.000000	40.516923
1797.000000	40.499410
1796.000000	40.488906
1795.000000	40.467687
1794.000000	40.450097
1793.000000	40.421198
1792.000000	40.399810
1791.000000	40.407445
1790.000000	40.409907
1789.000000	40.364282
1788.000000	40.366046
1787.000000	40.350884
1786.000000	40.327993
1785.000000	40.308480
1784.000000	40.278564
1783.000000	40.279363
1782.000000	40.266798
1781.000000	40.226291
1780.000000	40.205281
1779.000000	40.189739
1778.000000	40.141331
1777.000000	40.099654
1776.000000	40.084759
1775.000000	40.047349
1774.000000	40.002287
1773.000000	39.951030
1772.000000	39.911546
1771.000000	39.890581
1770.000000	39.846494
1769.000000	39.776289
1768.000000	39.714734
1767.000000	39.676855
1766.000000	39.620602
1765.000000	39.600859
1764.000000	39.576351
1763.000000	39.506098
1762.000000	39.464356
1761.000000	39.423124
1760.000000	39.355120
1759.000000	39.292564
1758.000000	39.268926
1757.000000	39.224497
1756.000000	39.196813
1755.000000	39.150049
1754.000000	39.114487
1753.000000	39.058323
1752.000000	39.017138
1751.000000	38.983245
1750.000000	38.939643
1749.000000	38.873782
1748.000000	38.826347
1747.000000	38.807507
1746.000000	38.726148
1745.000000	38.674148
1744.000000	38.613355
1743.000000	38.595353
1742.000000	38.564802
1741.000000	38.507733
1740.000000	38.458813
1739.000000	38.418143
1738.000000	38.380309
1737.000000	38.355442
1736.000000	38.340079
1735.000000	38.334551
1734.000000	38.334166
1733.000000	38.312724
1732.000000	38.299802
1731.000000	38.339026
1730.000000	38.313215
1729.000000	38.356167
1728.000000	38.401558
1727.000000	38.445372
1726.000000	38.491932
1725.000000	38.516278
1724.000000	38.584649
1723.000000	38.668937
1722.000000	38.746751
1721.000000	38.835773
1720.000000	38.908291
1719.000000	39.005062
1718.000000	39.075788
1717.000000	39.163082
1716.000000	39.233196
1715.000000	39.302055
1714.000000	39.426431
1713.000000	39.484162
1712.000000	39.549915
1711.000000	39.616878
1710.000000	39.689915
1709.000000	39.696598
1708.000000	39.764574
1707.000000	39.822307
1706.000000	39.814898
1705.000000	39.875873
1704.000000	39.921833
1703.000000	39.913427
1702.000000	39.912668
1701.000000	39.916140
1700.000000	39.933327
1699.000000	39.928726
1698.000000	39.964634
1697.000000	39.993970
1696.000000	40.045143
1695.000000	40.054979
1694.000000	40.074682
1693.000000	40.111538
1692.000000	40.156772
1691.000000	40.210161
1690.000000	40.307114
1689.000000	40.370883
1688.000000	40.476364
1687.000000	40.571867
1686.000000	40.661151
1685.000000	40.754974
1684.000000	40.899058
1683.000000	41.035363
1682.000000	41.173329
1681.000000	41.321186
1680.000000	41.445268
1679.000000	41.608966
1678.000000	41.788316
1677.000000	41.930730
1676.000000	42.132421
1675.000000	42.294944
1674.000000	42.446597
1673.000000	42.628988
1672.000000	42.751349
1671.000000	42.919272
1670.000000	43.093099
1669.000000	43.258616
1668.000000	43.385553
1667.000000	43.531729
1666.000000	43.621705
1665.000000	43.723966
1664.000000	43.837990
1663.000000	43.896166
1662.000000	43.977529
1661.000000	44.074727
1660.000000	44.129821
1659.000000	44.219516
1658.000000	44.252587
1657.000000	44.311009
1656.000000	44.335154
1655.000000	44.389356
1654.000000	44.415323
1653.000000	44.419036
1652.000000	44.444894
1651.000000	44.440838
1650.000000	44.450962
1649.000000	44.469581
1648.000000	44.443119
1647.000000	44.448850
1646.000000	44.427768
1645.000000	44.411347
1644.000000	44.401271
1643.000000	44.374489
1642.000000	44.356390
1641.000000	44.317313
1640.000000	44.288224
1639.000000	44.282840
1638.000000	44.255590
1637.000000	44.225580
1636.000000	44.160242
1635.000000	44.137634
1634.000000	44.098962
1633.000000	44.058198
1632.000000	44.023091
1631.000000	43.966735
1630.000000	43.936832
1629.000000	43.909437
1628.000000	43.854102
1627.000000	43.807748
1626.000000	43.778221
1625.000000	43.739542
1624.000000	43.683429
1623.000000	43.639759
1622.000000	43.592694
1621.000000	43.535309
1620.000000	43.488704
1619.000000	43.427583
1618.000000	43.372935
1617.000000	43.323388
1616.000000	43.281306
1615.000000	43.227548
1614.000000	43.165447
1613.000000	43.114568
1612.000000	43.060288
1611.000000	42.997867
1610.000000	42.941854
1609.000000	42.895546
1608.000000	42.843351
1607.000000	42.774183
1606.000000	42.703797
1605.000000	42.649415
1604.000000	42.590889
1603.000000	42.538379
1602.000000	42.483471
1601.000000	42.410170
1600.000000	42.339142
1599.000000	42.288835
1598.000000	42.241186
1597.000000	42.189313
1596.000000	42.134613
1595.000000	42.071862
1594.000000	42.015492
1593.000000	41.973891
1592.000000	41.928483
1591.000000	41.872358
1590.000000	41.820540
1589.000000	41.767211
1588.000000	41.711085
1587.000000	41.672201
1586.000000	41.636400
1585.000000	41.589569
1584.000000	41.541740
1583.000000	41.498206
1582.000000	41.464270
1581.000000	41.424002
1580.000000	41.378195
1579.000000	41.329263
1578.000000	41.292425
1577.000000	41.242523
1576.000000	41.192124
1575.000000	41.157380
1574.000000	41.101019
1573.000000	41.063417
1572.000000	41.032345
1571.000000	40.988253
1570.000000	40.952224
1569.000000	40.909955
1568.000000	40.874132
1567.000000	40.839509
1566.000000	40.795505
1565.000000	40.756660
1564.000000	40.727039
1563.000000	40.699175
1562.000000	40.687240
1561.000000	40.655751
1560.000000	40.628982
1559.000000	40.607954
1558.000000	40.585085
1557.000000	40.574809
1556.000000	40.550598
1555.000000	40.530391
1554.000000	40.506923
1553.000000	40.488910
1552.000000	40.458593
1551.000000	40.426261
1550.000000	40.401280
1549.000000	40.359088
1548.000000	40.324817
1547.000000	40.274782
1546.000000	40.223643
1545.000000	40.168752
1544.000000	40.117645
1543.000000	40.048757
1542.000000	39.993190
1541.000000	39.918105
1540.000000	39.845254
1539.000000	39.767510
1538.000000	39.686293
1537.000000	39.614917
1536.000000	39.542996
1535.000000	39.457649
1534.000000	39.385289
1533.000000	39.319116
1532.000000	39.234390
1531.000000	39.173549
1530.000000	39.089185
1529.000000	39.004011
1528.000000	38.952167
1527.000000	38.892235
1526.000000	38.826490
1525.000000	38.771361
1524.000000	38.725347
1523.000000	38.683709
1522.000000	38.634595
1521.000000	38.581447
1520.000000	38.546592
1519.000000	38.504376
1518.000000	38.476936
1517.000000	38.434410
1516.000000	38.402111
1515.000000	38.362477
1514.000000	38.343391
1513.000000	38.320293
1512.000000	38.301302
1511.000000	38.292030
1510.000000	38.266287
1509.000000	38.266705
1508.000000	38.267290
1507.000000	38.305593
1506.000000	38.316270
1505.000000	38.286903
1504.000000	38.267246
1503.000000	38.248816
1502.000000	38.221449
1501.000000	38.216724
1500.000000	38.189528
1499.000000	38.207285
1498.000000	38.200846
1497.000000	38.203144
1496.000000	38.205116
1495.000000	38.218808
1494.000000	38.229629
1493.000000	38.254705
1492.000000	38.267749
1491.000000	38.288048
1490.000000	38.322484
1489.000000	38.350689
1488.000000	38.379972
1487.000000	38.416144
1486.000000	38.461531
1485.000000	38.483074
1484.000000	38.536232
1483.000000	38.577504
1482.000000	38.607869
1481.000000	38.668768
1480.000000	38.702338
1479.000000	38.736591
1478.000000	38.768541
1477.000000	38.811689
1476.000000	38.852066
1475.000000	38.908332
1474.000000	38.953675
1473.000000	39.006953
1472.000000	39.034341
1471.000000	39.069472
1470.000000	39.099853
