PE UV       SUBTECH     SPECTRUM    ASCII       PEDS        4.00        
   -1
RTgVeauUK 22.Sample.asc
18/03/09
14:48:11.00
18/03/09
14:48:11.00
Administrator

200.000000
1
Lambda 750
750N8071901
PerkinElmer UV WinLab 6.0.4.0738 / 1.61.00 Lambda 900

0
0
3350/servo 860.8/2
0
0
UV/VIS
1
1
1
CommonBeamDepol,150mm sphere / downward view
0
0
0
0
Program
Program
3350/servo 860.8/2
3350/0.2 860.8/0.2
3350/0.2 860.8/0.2
0
1
 
 
 
0
 
860.8
319.2
860.8
Front
100
on
 
 
0
0
0
 
0
 
 
 
0
 
 
0
0
0
0
0
 
 
 
 
0
0


0
0
#HDR
-1
-1
#GR
nm
%R
1.0
0.0
2350.000000
-1.000000
2151
8
47.723733
12.519551
#DATA
2350.000000	19.863301
2349.000000	19.970410
2348.000000	20.086901
2347.000000	20.407929
2346.000000	20.322433
2345.000000	20.292871
2344.000000	19.994479
2343.000000	19.819477
2342.000000	19.960376
2341.000000	20.189834
2340.000000	20.319888
2339.000000	20.368978
2338.000000	20.422705
2337.000000	20.602719
2336.000000	20.683944
2335.000000	20.683822
2334.000000	20.432725
2333.000000	20.820762
2332.000000	20.730796
2331.000000	20.786778
2330.000000	20.664072
2329.000000	20.875989
2328.000000	20.592326
2327.000000	20.672005
2326.000000	20.514507
2325.000000	20.446673
2324.000000	20.492205
2323.000000	20.727714
2322.000000	20.451847
2321.000000	20.472618
2320.000000	20.484982
2319.000000	20.217794
2318.000000	20.700282
2317.000000	20.365942
2316.000000	20.318500
2315.000000	20.268602
2314.000000	20.221802
2313.000000	20.313400
2312.000000	20.272523
2311.000000	19.888535
2310.000000	20.099270
2309.000000	20.294624
2308.000000	20.209398
2307.000000	19.858332
2306.000000	20.130292
2305.000000	20.009361
2304.000000	19.888903
2303.000000	19.848346
2302.000000	20.069659
2301.000000	20.089150
2300.000000	20.029090
2299.000000	19.900138
2298.000000	19.757242
2297.000000	19.763556
2296.000000	19.775001
2295.000000	19.698220
2294.000000	19.567160
2293.000000	19.398558
2292.000000	19.330069
2291.000000	19.347320
2290.000000	19.367937
2289.000000	19.213293
2288.000000	19.392740
2287.000000	19.458444
2286.000000	19.347413
2285.000000	19.303476
2284.000000	19.373952
2283.000000	19.356552
2282.000000	19.342937
2281.000000	19.279300
2280.000000	19.322431
2279.000000	19.337172
2278.000000	19.337716
2277.000000	19.380098
2276.000000	19.437059
2275.000000	19.496699
2274.000000	19.393682
2273.000000	19.420726
2272.000000	19.520862
2271.000000	19.409048
2270.000000	19.359573
2269.000000	19.421939
2268.000000	19.434353
2267.000000	19.400210
2266.000000	19.540257
2265.000000	19.633387
2264.000000	19.670025
2263.000000	19.873845
2262.000000	19.830644
2261.000000	19.812682
2260.000000	19.948270
2259.000000	20.010449
2258.000000	20.075497
2257.000000	20.122893
2256.000000	20.176139
2255.000000	20.351274
2254.000000	20.518690
2253.000000	20.567065
2252.000000	20.565694
2251.000000	20.685299
2250.000000	20.657109
2249.000000	20.815619
2248.000000	21.099848
2247.000000	21.177601
2246.000000	21.191204
2245.000000	21.311029
2244.000000	21.415447
2243.000000	21.530289
2242.000000	21.644667
2241.000000	21.673752
2240.000000	21.778625
2239.000000	21.839786
2238.000000	21.826266
2237.000000	21.913227
2236.000000	22.061474
2235.000000	21.987868
2234.000000	21.895707
2233.000000	21.932450
2232.000000	22.120521
2231.000000	22.350524
2230.000000	22.259627
2229.000000	22.222995
2228.000000	22.350834
2227.000000	22.361960
2226.000000	22.348429
2225.000000	22.293747
2224.000000	22.181269
2223.000000	22.164343
2222.000000	22.160498
2221.000000	22.056332
2220.000000	22.111692
2219.000000	22.050496
2218.000000	22.135303
2217.000000	22.230854
2216.000000	22.166181
2215.000000	22.148297
2214.000000	22.110641
2213.000000	22.083351
2212.000000	22.059334
2211.000000	21.994519
2210.000000	21.957168
2209.000000	21.967709
2208.000000	21.927283
2207.000000	22.013880
2206.000000	21.959682
2205.000000	21.741788
2204.000000	21.785320
2203.000000	21.688661
2202.000000	21.684180
2201.000000	21.737487
2200.000000	21.681272
2199.000000	21.760915
2198.000000	21.733466
2197.000000	21.429328
2196.000000	21.441297
2195.000000	21.445517
2194.000000	21.497976
2193.000000	21.375806
2192.000000	21.530944
2191.000000	21.520842
2190.000000	21.482395
2189.000000	21.460343
2188.000000	21.418309
2187.000000	21.326493
2186.000000	21.269044
2185.000000	21.225178
2184.000000	21.251218
2183.000000	21.153957
2182.000000	21.255752
2181.000000	21.312521
2180.000000	21.238538
2179.000000	21.134740
2178.000000	21.122372
2177.000000	21.310459
2176.000000	21.265811
2175.000000	21.174406
2174.000000	21.450926
2173.000000	21.312692
2172.000000	21.239035
2171.000000	21.406644
2170.000000	21.461860
2169.000000	21.543471
2168.000000	21.601365
2167.000000	21.509045
2166.000000	21.484331
2165.000000	21.591219
2164.000000	21.589293
2163.000000	21.544464
2162.000000	21.857162
2161.000000	21.833676
2160.000000	21.951665
2159.000000	22.081402
2158.000000	22.002836
2157.000000	21.999597
2156.000000	22.161567
2155.000000	22.292006
2154.000000	22.334179
2153.000000	22.472520
2152.000000	22.476033
2151.000000	22.501872
2150.000000	22.511051
2149.000000	22.825696
2148.000000	22.666146
2147.000000	22.687715
2146.000000	23.026935
2145.000000	23.036280
2144.000000	23.205680
2143.000000	23.058448
2142.000000	23.230823
2141.000000	23.255280
2140.000000	23.249820
2139.000000	23.302698
2138.000000	23.409445
2137.000000	23.529111
2136.000000	23.603006
2135.000000	23.753969
2134.000000	23.830670
2133.000000	23.487865
2132.000000	23.740643
2131.000000	23.898251
2130.000000	23.972733
2129.000000	23.977143
2128.000000	23.877244
2127.000000	24.062184
2126.000000	23.970637
2125.000000	23.880669
2124.000000	24.054068
2123.000000	23.859574
2122.000000	24.185053
2121.000000	24.208501
2120.000000	24.162997
2119.000000	24.239331
2118.000000	24.098265
2117.000000	24.024134
2116.000000	24.267026
2115.000000	24.243104
2114.000000	24.187950
2113.000000	24.179072
2112.000000	24.172698
2111.000000	24.181953
2110.000000	24.332132
2109.000000	24.276985
2108.000000	24.358225
2107.000000	24.374107
2106.000000	24.485860
2105.000000	24.393672
2104.000000	24.449985
2103.000000	24.404673
2102.000000	24.347148
2101.000000	24.465938
2100.000000	24.362805
2099.000000	24.355052
2098.000000	24.368491
2097.000000	24.394911
2096.000000	24.439554
2095.000000	24.383843
2094.000000	24.366539
2093.000000	24.379972
2092.000000	24.406594
2091.000000	24.357741
2090.000000	24.358070
2089.000000	24.412679
2088.000000	24.267724
2087.000000	24.216686
2086.000000	24.318482
2085.000000	24.348183
2084.000000	24.253426
2083.000000	24.215691
2082.000000	24.171895
2081.000000	24.029982
2080.000000	24.027821
2079.000000	24.002303
2078.000000	23.897333
2077.000000	23.947757
2076.000000	23.952811
2075.000000	23.883631
2074.000000	23.885462
2073.000000	23.797690
2072.000000	23.709919
2071.000000	23.619026
2070.000000	23.601198
2069.000000	23.572953
2068.000000	23.488034
2067.000000	23.388728
2066.000000	23.305638
2065.000000	23.193798
2064.000000	23.192224
2063.000000	23.108571
2062.000000	23.039970
2061.000000	22.990231
2060.000000	22.874702
2059.000000	22.804939
2058.000000	22.744415
2057.000000	22.678704
2056.000000	22.666046
2055.000000	22.492894
2054.000000	22.345040
2053.000000	22.375217
2052.000000	22.310566
2051.000000	22.205387
2050.000000	22.142030
2049.000000	22.132456
2048.000000	22.051099
2047.000000	21.969461
2046.000000	21.962691
2045.000000	22.005908
2044.000000	21.997356
2043.000000	21.945982
2042.000000	21.929352
2041.000000	21.951999
2040.000000	21.936247
2039.000000	21.946855
2038.000000	21.965769
2037.000000	21.973096
2036.000000	22.043392
2035.000000	22.048346
2034.000000	22.073523
2033.000000	22.180340
2032.000000	22.242294
2031.000000	22.245958
2030.000000	22.274036
2029.000000	22.364163
2028.000000	22.382666
2027.000000	22.379390
2026.000000	22.469246
2025.000000	22.571598
2024.000000	22.612174
2023.000000	22.628587
2022.000000	22.662996
2021.000000	22.653321
2020.000000	22.672062
2019.000000	22.698944
2018.000000	22.689198
2017.000000	22.682139
2016.000000	22.701527
2015.000000	22.705496
2014.000000	22.707376
2013.000000	22.714320
2012.000000	22.672088
2011.000000	22.654057
2010.000000	22.607035
2009.000000	22.577269
2008.000000	22.555202
2007.000000	22.488918
2006.000000	22.453524
2005.000000	22.452262
2004.000000	22.386626
2003.000000	22.324682
2002.000000	22.282784
2001.000000	22.281481
2000.000000	22.246709
1999.000000	22.193331
1998.000000	22.147857
1997.000000	22.112749
1996.000000	22.054375
1995.000000	21.998326
1994.000000	21.953074
1993.000000	21.892241
1992.000000	21.826173
1991.000000	21.761641
1990.000000	21.680197
1989.000000	21.627227
1988.000000	21.583624
1987.000000	21.522811
1986.000000	21.484434
1985.000000	21.472535
1984.000000	21.437981
1983.000000	21.402552
1982.000000	21.331227
1981.000000	21.297898
1980.000000	21.216250
1979.000000	21.193123
1978.000000	21.110105
1977.000000	21.063007
1976.000000	20.998673
1975.000000	21.001058
1974.000000	20.954639
1973.000000	20.939292
1972.000000	20.871301
1971.000000	20.806414
1970.000000	20.780917
1969.000000	20.718207
1968.000000	20.654759
1967.000000	20.668823
1966.000000	20.654253
1965.000000	20.640876
1964.000000	20.548619
1963.000000	20.520028
1962.000000	20.471632
1961.000000	20.409854
1960.000000	20.371872
1959.000000	20.322914
1958.000000	20.322961
1957.000000	20.278500
1956.000000	20.257332
1955.000000	20.259138
1954.000000	20.266856
1953.000000	20.220408
1952.000000	20.200209
1951.000000	20.211249
1950.000000	20.178507
1949.000000	20.143209
1948.000000	20.136666
1947.000000	20.164109
1946.000000	20.116713
1945.000000	20.137619
1944.000000	20.169463
1943.000000	20.182188
1942.000000	20.279096
1941.000000	20.165448
1940.000000	20.222780
1939.000000	20.305218
1938.000000	20.401841
1937.000000	20.358021
1936.000000	20.463361
1935.000000	20.438263
1934.000000	20.468427
1933.000000	20.611733
1932.000000	20.615635
1931.000000	20.668059
1930.000000	20.808486
1929.000000	20.828752
1928.000000	21.024047
1927.000000	21.123669
1926.000000	21.153464
1925.000000	21.232874
1924.000000	21.427016
1923.000000	21.583995
1922.000000	21.733877
1921.000000	21.797260
1920.000000	21.946916
1919.000000	22.103961
1918.000000	22.286585
1917.000000	22.403307
1916.000000	22.483019
1915.000000	22.711709
1914.000000	22.922933
1913.000000	23.170013
1912.000000	23.340437
1911.000000	23.561884
1910.000000	23.732161
1909.000000	23.966581
1908.000000	24.115054
1907.000000	24.431841
1906.000000	24.677197
1905.000000	24.902051
1904.000000	25.190263
1903.000000	25.417253
1902.000000	25.713455
1901.000000	26.021729
1900.000000	26.339702
1899.000000	26.609669
1898.000000	26.968099
1897.000000	27.267264
1896.000000	27.536323
1895.000000	27.807232
1894.000000	28.108983
1893.000000	28.412080
1892.000000	28.730677
1891.000000	29.044130
1890.000000	29.325430
1889.000000	29.578971
1888.000000	29.875274
1887.000000	30.167995
1886.000000	30.446129
1885.000000	30.723727
1884.000000	30.960644
1883.000000	31.281386
1882.000000	31.480649
1881.000000	31.718584
1880.000000	31.941323
1879.000000	32.174860
1878.000000	32.425759
1877.000000	32.658799
1876.000000	32.822823
1875.000000	33.073990
1874.000000	33.250247
1873.000000	33.410475
1872.000000	33.606779
1871.000000	33.792912
1870.000000	33.905355
1869.000000	34.015985
1868.000000	34.120383
1867.000000	34.233774
1866.000000	34.296086
1865.000000	34.372846
1864.000000	34.436508
1863.000000	34.530020
1862.000000	34.571626
1861.000000	34.647580
1860.000000	34.724267
1859.000000	34.746536
1858.000000	34.767546
1857.000000	34.799534
1856.000000	34.861176
1855.000000	34.870446
1854.000000	34.894815
1853.000000	34.923520
1852.000000	34.913308
1851.000000	34.960320
1850.000000	34.991933
1849.000000	34.999728
1848.000000	35.024431
1847.000000	35.005904
1846.000000	34.983538
1845.000000	34.979942
1844.000000	34.955634
1843.000000	34.969030
1842.000000	34.944715
1841.000000	34.938036
1840.000000	34.864843
1839.000000	34.877508
1838.000000	34.873093
1837.000000	34.824327
1836.000000	34.791480
1835.000000	34.719515
1834.000000	34.711036
1833.000000	34.685502
1832.000000	34.636797
1831.000000	34.627533
1830.000000	34.602969
1829.000000	34.560435
1828.000000	34.503712
1827.000000	34.477108
1826.000000	34.455971
1825.000000	34.424351
1824.000000	34.420988
1823.000000	34.402500
1822.000000	34.360490
1821.000000	34.331427
1820.000000	34.303044
1819.000000	34.271776
1818.000000	34.246190
1817.000000	34.201709
1816.000000	34.158496
1815.000000	34.145913
1814.000000	34.133157
1813.000000	34.121685
1812.000000	34.097986
1811.000000	34.057397
1810.000000	34.034987
1809.000000	34.020022
1808.000000	33.989719
1807.000000	33.956122
1806.000000	33.932446
1805.000000	33.918744
1804.000000	33.892411
1803.000000	33.870369
1802.000000	33.859531
1801.000000	33.838909
1800.000000	33.825828
1799.000000	33.820359
1798.000000	33.799716
1797.000000	33.774581
1796.000000	33.773532
1795.000000	33.761367
1794.000000	33.765235
1793.000000	33.735284
1792.000000	33.723058
1791.000000	33.724383
1790.000000	33.703547
1789.000000	33.674008
1788.000000	33.682748
1787.000000	33.661488
1786.000000	33.647964
1785.000000	33.647997
1784.000000	33.621521
1783.000000	33.573490
1782.000000	33.581257
1781.000000	33.575704
1780.000000	33.550798
1779.000000	33.554547
1778.000000	33.524616
1777.000000	33.477697
1776.000000	33.448451
1775.000000	33.410864
1774.000000	33.370881
1773.000000	33.349225
1772.000000	33.311906
1771.000000	33.292332
1770.000000	33.282300
1769.000000	33.218407
1768.000000	33.154093
1767.000000	33.110218
1766.000000	33.073188
1765.000000	33.048667
1764.000000	33.015099
1763.000000	32.958990
1762.000000	32.935668
1761.000000	32.920054
1760.000000	32.860682
1759.000000	32.831313
1758.000000	32.829381
1757.000000	32.761766
1756.000000	32.724729
1755.000000	32.711232
1754.000000	32.671621
1753.000000	32.609386
1752.000000	32.596834
1751.000000	32.581591
1750.000000	32.533873
1749.000000	32.482070
1748.000000	32.419692
1747.000000	32.374156
1746.000000	32.339984
1745.000000	32.301038
1744.000000	32.266909
1743.000000	32.263498
1742.000000	32.213010
1741.000000	32.173469
1740.000000	32.162304
1739.000000	32.114052
1738.000000	32.080014
1737.000000	32.052232
1736.000000	32.026226
1735.000000	32.012536
1734.000000	32.038265
1733.000000	32.015011
1732.000000	32.022123
1731.000000	32.021841
1730.000000	32.055214
1729.000000	32.070144
1728.000000	32.115992
1727.000000	32.131257
1726.000000	32.191379
1725.000000	32.237776
1724.000000	32.277000
1723.000000	32.337732
1722.000000	32.421721
1721.000000	32.464149
1720.000000	32.550611
1719.000000	32.614236
1718.000000	32.670460
1717.000000	32.744654
1716.000000	32.813281
1715.000000	32.905934
1714.000000	32.946415
1713.000000	32.977502
1712.000000	33.053426
1711.000000	33.129122
1710.000000	33.169788
1709.000000	33.189767
1708.000000	33.236664
1707.000000	33.244463
1706.000000	33.292422
1705.000000	33.321360
1704.000000	33.342205
1703.000000	33.360929
1702.000000	33.380288
1701.000000	33.367601
1700.000000	33.381863
1699.000000	33.386455
1698.000000	33.392277
1697.000000	33.437237
1696.000000	33.493490
1695.000000	33.478420
1694.000000	33.516043
1693.000000	33.540679
1692.000000	33.561070
1691.000000	33.624527
1690.000000	33.664981
1689.000000	33.743930
1688.000000	33.817792
1687.000000	33.892634
1686.000000	33.985608
1685.000000	34.095719
1684.000000	34.197195
1683.000000	34.309407
1682.000000	34.430498
1681.000000	34.568743
1680.000000	34.682146
1679.000000	34.831582
1678.000000	34.958155
1677.000000	35.062071
1676.000000	35.214358
1675.000000	35.362801
1674.000000	35.497442
1673.000000	35.660839
1672.000000	35.788765
1671.000000	35.931139
1670.000000	36.040576
1669.000000	36.173679
1668.000000	36.279649
1667.000000	36.401037
1666.000000	36.449018
1665.000000	36.555935
1664.000000	36.639799
1663.000000	36.707530
1662.000000	36.773633
1661.000000	36.836692
1660.000000	36.905678
1659.000000	36.962600
1658.000000	37.008832
1657.000000	37.061310
1656.000000	37.076197
1655.000000	37.116528
1654.000000	37.129019
1653.000000	37.129359
1652.000000	37.170740
1651.000000	37.184186
1650.000000	37.181147
1649.000000	37.168807
1648.000000	37.168641
1647.000000	37.186856
1646.000000	37.163319
1645.000000	37.119803
1644.000000	37.110341
1643.000000	37.107501
1642.000000	37.076905
1641.000000	37.052306
1640.000000	37.023977
1639.000000	37.000243
1638.000000	36.986026
1637.000000	36.944256
1636.000000	36.912279
1635.000000	36.904176
1634.000000	36.870620
1633.000000	36.827851
1632.000000	36.803081
1631.000000	36.770759
1630.000000	36.734141
1629.000000	36.707017
1628.000000	36.668703
1627.000000	36.631925
1626.000000	36.592596
1625.000000	36.558763
1624.000000	36.502361
1623.000000	36.464823
1622.000000	36.429933
1621.000000	36.372110
1620.000000	36.351790
1619.000000	36.308564
1618.000000	36.252755
1617.000000	36.211678
1616.000000	36.183811
1615.000000	36.123283
1614.000000	36.061797
1613.000000	36.017449
1612.000000	35.985067
1611.000000	35.931545
1610.000000	35.893869
1609.000000	35.844574
1608.000000	35.802859
1607.000000	35.764518
1606.000000	35.692856
1605.000000	35.630841
1604.000000	35.586964
1603.000000	35.539537
1602.000000	35.485786
1601.000000	35.431978
1600.000000	35.391001
1599.000000	35.353952
1598.000000	35.311066
1597.000000	35.261623
1596.000000	35.213913
1595.000000	35.170305
1594.000000	35.118978
1593.000000	35.076492
1592.000000	35.039195
1591.000000	34.992712
1590.000000	34.951162
1589.000000	34.906056
1588.000000	34.857507
1587.000000	34.834145
1586.000000	34.797209
1585.000000	34.752180
1584.000000	34.724730
1583.000000	34.691635
1582.000000	34.653354
1581.000000	34.623280
1580.000000	34.584036
1579.000000	34.549756
1578.000000	34.521102
1577.000000	34.489279
1576.000000	34.450863
1575.000000	34.409788
1574.000000	34.374694
1573.000000	34.342622
1572.000000	34.308689
1571.000000	34.274709
1570.000000	34.244025
1569.000000	34.205963
1568.000000	34.178877
1567.000000	34.145508
1566.000000	34.112030
1565.000000	34.082840
1564.000000	34.081020
1563.000000	34.062217
1562.000000	34.026536
1561.000000	34.005868
1560.000000	33.991748
1559.000000	33.965250
1558.000000	33.936136
1557.000000	33.933516
1556.000000	33.918158
1555.000000	33.906107
1554.000000	33.882466
1553.000000	33.858424
1552.000000	33.836942
1551.000000	33.816846
1550.000000	33.785587
1549.000000	33.760015
1548.000000	33.723903
1547.000000	33.690138
1546.000000	33.646221
1545.000000	33.601250
1544.000000	33.554196
1543.000000	33.498953
1542.000000	33.452418
1541.000000	33.384017
1540.000000	33.332491
1539.000000	33.281029
1538.000000	33.221538
1537.000000	33.153092
1536.000000	33.088264
1535.000000	33.025663
1534.000000	32.962814
1533.000000	32.911839
1532.000000	32.835453
1531.000000	32.771232
1530.000000	32.722998
1529.000000	32.654152
1528.000000	32.603002
1527.000000	32.560748
1526.000000	32.514817
1525.000000	32.474072
1524.000000	32.416637
1523.000000	32.396027
1522.000000	32.350653
1521.000000	32.321135
1520.000000	32.275628
1519.000000	32.251155
1518.000000	32.232083
1517.000000	32.203054
1516.000000	32.175212
1515.000000	32.149453
1514.000000	32.117364
1513.000000	32.095562
1512.000000	32.090490
1511.000000	32.086071
1510.000000	32.059990
1509.000000	32.051204
1508.000000	32.048235
1507.000000	32.071587
1506.000000	32.101595
1505.000000	32.124162
1504.000000	32.129984
1503.000000	32.102551
1502.000000	32.078166
1501.000000	32.062178
1500.000000	32.016606
1499.000000	32.010753
1498.000000	32.020334
1497.000000	32.009766
1496.000000	32.008154
1495.000000	32.035849
1494.000000	32.042335
1493.000000	32.052962
1492.000000	32.072610
1491.000000	32.095505
1490.000000	32.124927
1489.000000	32.136525
1488.000000	32.179876
1487.000000	32.201575
1486.000000	32.229255
1485.000000	32.286048
1484.000000	32.303808
1483.000000	32.343856
1482.000000	32.356966
1481.000000	32.399077
1480.000000	32.434477
1479.000000	32.473272
1478.000000	32.500371
1477.000000	32.550302
1476.000000	32.573476
1475.000000	32.616466
1474.000000	32.646193
1473.000000	32.690062
1472.000000	32.707672
1471.000000	32.721658
1470.000000	32.752305
