PE UV       SUBTECH     SPECTRUM    ASCII       PEDS        4.00        
   -1
Empty Chamber.Sample.asc
18/03/15
08:54:11.00
18/03/15
08:54:11.00
Administrator

200.000000
1
Lambda 750
750N8071901
PerkinElmer UV WinLab 6.0.4.0738 / 1.61.00 Lambda 900

0
0
3350/servo 860.8/2
0
0
UV/VIS
1
1
1
CommonBeamDepol,150mm sphere / downward view
0
0
0
0
Program
Program
3350/servo 860.8/2
3350/0.2 860.8/0.2
3350/0.2 860.8/0.2
0
1
 
 
 
0
 
860.8
319.2
860.8
Front
100
on
 
 
0
0
0
 
0
 
 
 
0
 
 
0
0
0
0
0
 
 
 
 
0
0


0
0
#HDR
-1
-1
#GR
nm
%T
1.0
0.0
2350.000000
-1.000000
2151
8
100.642562
98.814826
#DATA
2350.000000	99.843733
2349.000000	100.068889
2348.000000	99.806314
2347.000000	99.814826
2346.000000	99.912365
2345.000000	99.848628
2344.000000	99.941314
2343.000000	100.044763
2342.000000	100.147414
2341.000000	100.279904
2340.000000	100.206743
2339.000000	99.961942
2338.000000	100.177473
2337.000000	99.531639
2336.000000	99.758801
2335.000000	99.720834
2334.000000	100.315986
2333.000000	100.444171
2332.000000	100.008557
2331.000000	99.897711
2330.000000	100.077029
2329.000000	100.045351
2328.000000	99.878567
2327.000000	100.197740
2326.000000	100.246155
2325.000000	100.034163
2324.000000	100.151934
2323.000000	99.744237
2322.000000	99.848310
2321.000000	99.935893
2320.000000	100.048373
2319.000000	100.021687
2318.000000	100.077945
2317.000000	100.311190
2316.000000	100.105276
2315.000000	100.020713
2314.000000	100.019440
2313.000000	99.756871
2312.000000	100.080547
2311.000000	100.223369
2310.000000	100.096064
2309.000000	100.177175
2308.000000	100.017082
2307.000000	99.722572
2306.000000	100.002424
2305.000000	100.072408
2304.000000	99.968581
2303.000000	99.994135
2302.000000	100.009103
2301.000000	99.627031
2300.000000	99.922064
2299.000000	100.220680
2298.000000	99.990001
2297.000000	99.953681
2296.000000	100.134730
2295.000000	100.128388
2294.000000	100.236167
2293.000000	100.109247
2292.000000	100.111479
2291.000000	99.974357
2290.000000	100.046943
2289.000000	99.952683
2288.000000	100.173201
2287.000000	100.249208
2286.000000	100.032460
2285.000000	100.113605
2284.000000	100.118948
2283.000000	100.113656
2282.000000	100.019707
2281.000000	99.950670
2280.000000	99.960881
2279.000000	99.900600
2278.000000	99.859012
2277.000000	99.889099
2276.000000	99.899627
2275.000000	99.977880
2274.000000	100.151460
2273.000000	99.959624
2272.000000	99.963363
2271.000000	99.995249
2270.000000	100.178282
2269.000000	100.146034
2268.000000	99.924221
2267.000000	99.990703
2266.000000	99.962894
2265.000000	99.925054
2264.000000	100.069714
2263.000000	99.940076
2262.000000	99.952316
2261.000000	99.974248
2260.000000	99.960844
2259.000000	100.036053
2258.000000	100.282157
2257.000000	100.085050
2256.000000	99.890954
2255.000000	100.070635
2254.000000	100.015377
2253.000000	99.951280
2252.000000	100.107102
2251.000000	100.064810
2250.000000	99.966136
2249.000000	99.844288
2248.000000	99.857951
2247.000000	99.782281
2246.000000	99.786571
2245.000000	99.922417
2244.000000	100.059042
2243.000000	100.211567
2242.000000	99.941800
2241.000000	99.886803
2240.000000	100.028240
2239.000000	99.923457
2238.000000	100.009402
2237.000000	99.978265
2236.000000	99.956412
2235.000000	99.945676
2234.000000	99.989683
2233.000000	100.070686
2232.000000	99.885224
2231.000000	99.728618
2230.000000	99.681748
2229.000000	99.781025
2228.000000	100.014747
2227.000000	99.988479
2226.000000	99.903663
2225.000000	99.975228
2224.000000	100.013246
2223.000000	100.065268
2222.000000	100.091178
2221.000000	100.047614
2220.000000	100.055267
2219.000000	99.972005
2218.000000	99.933783
2217.000000	99.875008
2216.000000	100.012331
2215.000000	100.076716
2214.000000	100.043361
2213.000000	100.078556
2212.000000	99.970792
2211.000000	99.951085
2210.000000	100.021750
2209.000000	99.969765
2208.000000	99.955307
2207.000000	100.056135
2206.000000	100.064926
2205.000000	100.021633
2204.000000	100.049950
2203.000000	100.070277
2202.000000	100.163417
2201.000000	100.161751
2200.000000	100.083470
2199.000000	100.034849
2198.000000	100.067165
2197.000000	99.960114
2196.000000	100.111940
2195.000000	100.083496
2194.000000	99.790851
2193.000000	99.930830
2192.000000	100.121093
2191.000000	100.166872
2190.000000	100.030412
2189.000000	99.960552
2188.000000	99.961289
2187.000000	99.954009
2186.000000	99.969851
2185.000000	100.196373
2184.000000	100.112165
2183.000000	100.137590
2182.000000	99.780992
2181.000000	100.035606
2180.000000	100.099600
2179.000000	99.873138
2178.000000	99.817365
2177.000000	99.956311
2176.000000	100.031781
2175.000000	100.030960
2174.000000	100.067290
2173.000000	99.811415
2172.000000	99.849850
2171.000000	99.929916
2170.000000	99.875194
2169.000000	100.066993
2168.000000	100.166422
2167.000000	99.793649
2166.000000	100.058207
2165.000000	100.109441
2164.000000	99.807798
2163.000000	100.130035
2162.000000	99.941583
2161.000000	100.068453
2160.000000	100.121024
2159.000000	100.044364
2158.000000	100.013781
2157.000000	99.839539
2156.000000	99.844406
2155.000000	99.765251
2154.000000	100.031390
2153.000000	100.066632
2152.000000	99.913331
2151.000000	100.064130
2150.000000	100.154676
2149.000000	100.028976
2148.000000	100.003217
2147.000000	100.137876
2146.000000	99.985825
2145.000000	100.039831
2144.000000	100.020840
2143.000000	100.110395
2142.000000	99.737634
2141.000000	99.722964
2140.000000	99.958777
2139.000000	100.240200
2138.000000	100.105262
2137.000000	99.816437
2136.000000	100.124426
2135.000000	100.124648
2134.000000	99.967015
2133.000000	100.074813
2132.000000	100.032854
2131.000000	99.921243
2130.000000	100.085358
2129.000000	100.003118
2128.000000	99.890903
2127.000000	99.975639
2126.000000	99.878388
2125.000000	100.038744
2124.000000	100.097793
2123.000000	100.021543
2122.000000	99.804261
2121.000000	99.954424
2120.000000	99.919065
2119.000000	99.798375
2118.000000	99.704132
2117.000000	99.914364
2116.000000	100.048555
2115.000000	100.271316
2114.000000	100.061460
2113.000000	100.052180
2112.000000	100.259044
2111.000000	99.964942
2110.000000	99.978751
2109.000000	100.116682
2108.000000	100.022473
2107.000000	99.957464
2106.000000	100.112796
2105.000000	100.030250
2104.000000	99.853509
2103.000000	99.938766
2102.000000	100.008970
2101.000000	100.149793
2100.000000	100.177420
2099.000000	99.977834
2098.000000	99.975621
2097.000000	100.132725
2096.000000	100.026026
2095.000000	100.065689
2094.000000	100.102773
2093.000000	99.955722
2092.000000	99.903249
2091.000000	100.046799
2090.000000	100.024815
2089.000000	99.980529
2088.000000	99.947279
2087.000000	99.822153
2086.000000	100.010794
2085.000000	100.144857
2084.000000	99.894131
2083.000000	99.933214
2082.000000	99.991827
2081.000000	100.005249
2080.000000	100.072304
2079.000000	100.021410
2078.000000	100.052744
2077.000000	99.975977
2076.000000	100.025647
2075.000000	100.024021
2074.000000	99.991725
2073.000000	99.987791
2072.000000	99.973662
2071.000000	100.004745
2070.000000	99.986774
2069.000000	99.863289
2068.000000	99.963959
2067.000000	100.144288
2066.000000	99.989191
2065.000000	99.904547
2064.000000	99.996667
2063.000000	100.001212
2062.000000	99.968595
2061.000000	99.997374
2060.000000	99.937390
2059.000000	99.895711
2058.000000	99.991317
2057.000000	100.027070
2056.000000	100.007476
2055.000000	100.074500
2054.000000	99.956453
2053.000000	99.963020
2052.000000	99.952100
2051.000000	99.917873
2050.000000	100.023750
2049.000000	100.072885
2048.000000	100.037090
2047.000000	100.019912
2046.000000	100.002628
2045.000000	100.034560
2044.000000	100.022337
2043.000000	100.062675
2042.000000	100.020011
2041.000000	100.004145
2040.000000	100.015571
2039.000000	100.003740
2038.000000	100.023657
2037.000000	99.998079
2036.000000	100.044811
2035.000000	100.075477
2034.000000	100.085625
2033.000000	100.047759
2032.000000	99.983513
2031.000000	99.974101
2030.000000	99.980578
2029.000000	100.031164
2028.000000	100.055755
2027.000000	100.039358
2026.000000	100.000000
2025.000000	99.983308
2024.000000	99.985526
2023.000000	100.050008
2022.000000	100.005567
2021.000000	100.018930
2020.000000	100.096908
2019.000000	100.033812
2018.000000	100.008199
2017.000000	100.022978
2016.000000	99.988462
2015.000000	99.964486
2014.000000	99.986239
2013.000000	99.992816
2012.000000	100.017106
2011.000000	100.020453
2010.000000	99.996153
2009.000000	99.980264
2008.000000	100.021569
2007.000000	100.002025
2006.000000	99.989573
2005.000000	100.046396
2004.000000	100.089781
2003.000000	100.036978
2002.000000	100.054819
2001.000000	100.038904
2000.000000	99.965769
1999.000000	99.969920
1998.000000	99.958685
1997.000000	99.976604
1996.000000	99.967792
1995.000000	99.978722
1994.000000	100.011552
1993.000000	100.051598
1992.000000	100.016520
1991.000000	100.018648
1990.000000	100.026759
1989.000000	100.060121
1988.000000	100.032844
1987.000000	100.031534
1986.000000	99.985707
1985.000000	99.933003
1984.000000	99.977393
1983.000000	99.943655
1982.000000	100.000000
1981.000000	100.015209
1980.000000	99.982872
1979.000000	99.964430
1978.000000	100.018652
1977.000000	99.997567
1976.000000	100.007198
1975.000000	100.049989
1974.000000	99.994424
1973.000000	99.993005
1972.000000	100.028698
1971.000000	100.000101
1970.000000	99.990067
1969.000000	99.981856
1968.000000	99.992499
1967.000000	99.992196
1966.000000	100.049476
1965.000000	100.013176
1964.000000	99.999088
1963.000000	100.001622
1962.000000	99.986418
1961.000000	100.010645
1960.000000	100.048865
1959.000000	100.007601
1958.000000	100.046425
1957.000000	99.999189
1956.000000	100.028991
1955.000000	100.016619
1954.000000	99.999189
1953.000000	99.988246
1952.000000	100.028774
1951.000000	100.013877
1950.000000	99.994530
1949.000000	100.012763
1948.000000	100.029177
1947.000000	99.929020
1946.000000	99.953228
1945.000000	100.090651
1944.000000	100.107355
1943.000000	100.005163
1942.000000	100.052360
1941.000000	99.949720
1940.000000	99.939414
1939.000000	99.982501
1938.000000	99.984526
1937.000000	100.000101
1936.000000	100.075829
1935.000000	99.969661
1934.000000	100.030465
1933.000000	99.971275
1932.000000	99.997573
1931.000000	100.110069
1930.000000	100.025692
1929.000000	100.078104
1928.000000	99.975733
1927.000000	99.995046
1926.000000	99.994135
1925.000000	99.936489
1924.000000	99.916807
1923.000000	99.995653
1922.000000	100.088008
1921.000000	100.074659
1920.000000	99.947729
1919.000000	100.017001
1918.000000	99.957325
1917.000000	99.976539
1916.000000	100.045399
1915.000000	99.962690
1914.000000	100.050474
1913.000000	100.038945
1912.000000	100.053019
1911.000000	99.950838
1910.000000	100.051625
1909.000000	99.922160
1908.000000	100.001113
1907.000000	100.036033
1906.000000	100.106696
1905.000000	100.055339
1904.000000	100.066132
1903.000000	100.024185
1902.000000	100.037255
1901.000000	99.966820
1900.000000	99.983806
1899.000000	99.954175
1898.000000	99.968226
1897.000000	99.974906
1896.000000	99.967331
1895.000000	100.023884
1894.000000	100.011133
1893.000000	100.039175
1892.000000	100.008100
1891.000000	100.017712
1890.000000	100.000202
1889.000000	100.001113
1888.000000	99.952152
1887.000000	99.983711
1886.000000	99.907986
1885.000000	99.986646
1884.000000	99.954925
1883.000000	100.030829
1882.000000	99.966749
1881.000000	100.002830
1880.000000	100.009099
1879.000000	99.957368
1878.000000	100.037083
1877.000000	100.030018
1876.000000	100.020411
1875.000000	100.045165
1874.000000	100.015254
1873.000000	100.000404
1872.000000	100.003534
1871.000000	99.997172
1870.000000	100.017172
1869.000000	100.053649
1868.000000	100.023947
1867.000000	99.985351
1866.000000	99.971112
1865.000000	100.021524
1864.000000	99.999798
1863.000000	100.029207
1862.000000	100.051654
1861.000000	100.056926
1860.000000	100.017894
1859.000000	100.027601
1858.000000	99.984229
1857.000000	99.992924
1856.000000	99.981304
1855.000000	99.965236
1854.000000	99.965235
1853.000000	99.993431
1852.000000	100.005963
1851.000000	99.995856
1850.000000	100.016070
1849.000000	100.017182
1848.000000	100.011519
1847.000000	100.012634
1846.000000	100.060263
1845.000000	100.073098
1844.000000	100.023651
1843.000000	100.000606
1842.000000	100.000909
1841.000000	99.972218
1840.000000	100.006266
1839.000000	99.987366
1838.000000	100.024368
1837.000000	100.028415
1836.000000	99.990700
1835.000000	99.963912
1834.000000	99.970270
1833.000000	99.994033
1832.000000	100.020537
1831.000000	100.035421
1830.000000	100.053237
1829.000000	100.013156
1828.000000	99.999089
1827.000000	100.014881
1826.000000	100.008301
1825.000000	100.006984
1824.000000	99.996153
1823.000000	100.001620
1822.000000	100.008507
1821.000000	100.014585
1820.000000	99.980355
1819.000000	99.982275
1818.000000	100.012564
1817.000000	99.996453
1816.000000	99.987132
1815.000000	100.000811
1814.000000	99.974766
1813.000000	99.953491
1812.000000	99.954803
1811.000000	99.984897
1810.000000	99.993918
1809.000000	99.983682
1808.000000	100.037112
1807.000000	100.039954
1806.000000	100.007402
1805.000000	99.996451
1804.000000	100.007808
1803.000000	100.020081
1802.000000	100.025664
1801.000000	100.024854
1800.000000	100.018359
1799.000000	100.015112
1798.000000	100.000406
1797.000000	100.000913
1796.000000	100.008115
1795.000000	99.981846
1794.000000	99.984076
1793.000000	100.001927
1792.000000	99.980120
1791.000000	100.002638
1790.000000	100.002536
1789.000000	99.981233
1788.000000	99.988029
1787.000000	99.991072
1786.000000	99.991782
1785.000000	100.016539
1784.000000	99.990768
1783.000000	99.993305
1782.000000	99.992595
1781.000000	100.006390
1780.000000	99.996348
1779.000000	100.000609
1778.000000	100.026992
1777.000000	99.998377
1776.000000	99.985596
1775.000000	99.989246
1774.000000	100.005884
1773.000000	100.031350
1772.000000	100.010655
1771.000000	100.008828
1770.000000	100.014205
1769.000000	100.016537
1768.000000	99.977685
1767.000000	99.977683
1766.000000	100.002739
1765.000000	100.000609
1764.000000	99.980727
1763.000000	99.989856
1762.000000	99.998681
1761.000000	99.986203
1760.000000	99.970789
1759.000000	99.996145
1758.000000	100.025871
1757.000000	99.986610
1756.000000	99.997971
1755.000000	100.031656
1754.000000	100.011768
1753.000000	100.002840
1752.000000	99.972818
1751.000000	99.994523
1750.000000	100.017955
1749.000000	99.985088
1748.000000	99.962982
1747.000000	99.996957
1746.000000	100.024751
1745.000000	99.985195
1744.000000	99.988540
1743.000000	99.998073
1742.000000	100.014100
1741.000000	99.984687
1740.000000	99.986108
1739.000000	100.000304
1738.000000	99.975565
1737.000000	99.982053
1736.000000	99.966444
1735.000000	100.009329
1734.000000	100.030220
1733.000000	100.001014
1732.000000	99.979921
1731.000000	99.974041
1730.000000	99.996349
1729.000000	99.997262
1728.000000	100.009333
1727.000000	100.027089
1726.000000	100.009938
1725.000000	100.006796
1724.000000	100.000609
1723.000000	99.996754
1722.000000	100.012679
1721.000000	100.004259
1720.000000	99.996450
1719.000000	99.992495
1718.000000	100.047873
1717.000000	99.997363
1716.000000	100.015516
1715.000000	100.030830
1714.000000	100.034887
1713.000000	99.981547
1712.000000	99.972119
1711.000000	99.969480
1710.000000	100.018255
1709.000000	100.000406
1708.000000	99.978914
1707.000000	99.979012
1706.000000	99.986009
1705.000000	100.012372
1704.000000	99.993917
1703.000000	99.980230
1702.000000	100.056500
1701.000000	99.973739
1700.000000	100.012474
1699.000000	100.019165
1698.000000	100.006794
1697.000000	100.003549
1696.000000	100.003347
1695.000000	100.003042
1694.000000	100.003650
1693.000000	100.019672
1692.000000	99.969991
1691.000000	100.005780
1690.000000	99.994829
1689.000000	100.016024
1688.000000	100.023226
1687.000000	99.993409
1686.000000	99.982763
1685.000000	99.995337
1684.000000	99.969483
1683.000000	99.968272
1682.000000	100.012065
1681.000000	100.005375
1680.000000	99.971207
1679.000000	99.984591
1678.000000	100.005374
1677.000000	99.980537
1676.000000	99.992194
1675.000000	100.004360
1674.000000	100.031039
1673.000000	99.983474
1672.000000	99.974145
1671.000000	99.988745
1670.000000	99.986820
1669.000000	99.991892
1668.000000	99.995338
1667.000000	99.996453
1666.000000	99.985710
1665.000000	100.025438
1664.000000	99.990068
1663.000000	99.993819
1662.000000	100.029494
1661.000000	100.005777
1660.000000	99.995440
1659.000000	100.009425
1658.000000	100.032534
1657.000000	100.008208
1656.000000	99.983282
1655.000000	100.007601
1654.000000	100.014897
1653.000000	100.018646
1652.000000	100.018139
1651.000000	100.008411
1650.000000	100.039121
1649.000000	99.981557
1648.000000	99.977508
1647.000000	100.009424
1646.000000	99.987942
1645.000000	99.957246
1644.000000	100.010945
1643.000000	100.000912
1642.000000	100.011452
1641.000000	100.003445
1640.000000	99.989868
1639.000000	100.008207
1638.000000	99.993718
1637.000000	100.014389
1636.000000	99.998379
1635.000000	100.001824
1634.000000	99.991793
1633.000000	100.027262
1632.000000	100.023005
1631.000000	99.995339
1630.000000	99.973859
1629.000000	99.985915
1628.000000	99.983888
1627.000000	99.980649
1626.000000	100.002837
1625.000000	99.998987
1624.000000	100.007600
1623.000000	100.008310
1622.000000	100.002533
1621.000000	100.002027
1620.000000	100.016113
1619.000000	100.009931
1618.000000	100.001216
1617.000000	100.005066
1616.000000	99.995846
1615.000000	99.986727
1614.000000	99.982572
1613.000000	99.997568
1612.000000	99.997568
1611.000000	99.998176
1610.000000	99.995947
1609.000000	100.001722
1608.000000	100.004559
1607.000000	100.006687
1606.000000	100.009018
1605.000000	100.006789
1604.000000	100.009524
1603.000000	100.014997
1602.000000	100.013680
1601.000000	100.003344
1600.000000	99.994529
1599.000000	99.992199
1598.000000	99.991592
1597.000000	100.000709
1596.000000	99.999899
1595.000000	99.995035
1594.000000	99.993820
1593.000000	99.993819
1592.000000	100.010031
1591.000000	100.009726
1590.000000	100.008004
1589.000000	100.001418
1588.000000	99.981258
1587.000000	99.983486
1586.000000	100.000608
1585.000000	100.008512
1584.000000	99.998480
1583.000000	99.992097
1582.000000	99.998075
1581.000000	100.000709
1580.000000	99.995543
1579.000000	99.991998
1578.000000	99.998379
1577.000000	100.004154
1576.000000	100.001519
1575.000000	100.012563
1574.000000	100.010232
1573.000000	100.003444
1572.000000	99.996353
1571.000000	99.987743
1570.000000	99.979235
1569.000000	99.999493
1568.000000	100.003242
1567.000000	99.995644
1566.000000	100.001216
1565.000000	100.007293
1564.000000	99.991999
1563.000000	99.995037
1562.000000	100.003849
1561.000000	100.000101
1560.000000	99.993315
1559.000000	99.997974
1558.000000	100.000304
1557.000000	100.013168
1556.000000	100.025932
1555.000000	100.022690
1554.000000	100.003545
1553.000000	99.998481
1552.000000	99.992608
1551.000000	99.985925
1550.000000	99.990887
1549.000000	99.987545
1548.000000	99.981875
1547.000000	99.982482
1546.000000	100.021168
1545.000000	100.009823
1544.000000	100.004557
1543.000000	100.008101
1542.000000	100.008608
1541.000000	100.009722
1540.000000	99.999696
1539.000000	100.017417
1538.000000	100.004557
1537.000000	99.987142
1536.000000	99.978131
1535.000000	99.980662
1534.000000	100.008000
1533.000000	100.000608
1532.000000	100.000912
1531.000000	100.001722
1530.000000	100.010939
1529.000000	100.010432
1528.000000	99.997265
1527.000000	100.010027
1526.000000	100.014182
1525.000000	100.014281
1524.000000	99.994734
1523.000000	99.998380
1522.000000	100.001418
1521.000000	99.990074
1520.000000	99.985619
1519.000000	100.005368
1518.000000	100.014992
1517.000000	99.990580
1516.000000	100.006685
1515.000000	99.993518
1514.000000	100.005875
1513.000000	100.002431
1512.000000	99.998480
1511.000000	99.992910
1510.000000	100.016714
1509.000000	99.981160
1508.000000	99.984907
1507.000000	100.001925
1506.000000	99.995340
1505.000000	99.986529
1504.000000	99.985617
1503.000000	99.987643
1502.000000	100.011652
1501.000000	100.001216
1500.000000	99.981161
1499.000000	99.989567
1498.000000	100.010534
1497.000000	100.010028
1496.000000	99.998481
1495.000000	100.012967
1494.000000	100.019552
1493.000000	100.008205
1492.000000	100.021979
1491.000000	100.010736
