PE UV       SUBTECH     SPECTRUM    ASCII       PEDS        4.00        
   -1
RDms1556141.Sample.asc
18/03/15
10:41:44.00
18/03/15
10:41:44.00
Administrator

200.000000
1
Lambda 750
750N8071901
PerkinElmer UV WinLab 6.0.4.0738 / 1.61.00 Lambda 900

0
0
3350/servo 860.8/2
0
0
UV/VIS
1
1
1
CommonBeamDepol,150mm sphere / downward view
0
0
0
0
Program
Program
3350/servo 860.8/2
3350/0.2 860.8/0.2
3350/0.2 860.8/0.2
0
1
 
 
 
0
 
860.8
319.2
860.8
Front
100
on
 
 
0
0
0
 
0
 
 
 
0
 
 
0
0
0
0
0
 
 
 
 
0
0


0
0
#HDR
-1
-1
#GR
nm
%R
1.0
0.0
2350.000000
-1.000000
2151
8
62.971635
8.532111
#DATA
2350.000000	31.281866
2349.000000	30.913114
2348.000000	31.079356
2347.000000	31.452509
2346.000000	31.482974
2345.000000	30.939746
2344.000000	30.845525
2343.000000	30.777371
2342.000000	31.021973
2341.000000	31.389359
2340.000000	31.487014
2339.000000	31.703912
2338.000000	31.807622
2337.000000	31.841092
2336.000000	32.018280
2335.000000	31.920598
2334.000000	31.933329
2333.000000	32.314951
2332.000000	32.300514
2331.000000	32.091319
2330.000000	32.033719
2329.000000	31.755699
2328.000000	31.737321
2327.000000	31.794472
2326.000000	31.680594
2325.000000	31.743723
2324.000000	31.808302
2323.000000	31.686616
2322.000000	31.410345
2321.000000	31.425075
2320.000000	31.493794
2319.000000	31.531624
2318.000000	31.343513
2317.000000	31.357948
2316.000000	31.228327
2315.000000	31.231624
2314.000000	31.391149
2313.000000	30.912496
2312.000000	31.188674
2311.000000	31.167948
2310.000000	31.086842
2309.000000	31.031006
2308.000000	30.938002
2307.000000	30.795926
2306.000000	30.625379
2305.000000	30.694526
2304.000000	30.782317
2303.000000	30.587217
2302.000000	30.653866
2301.000000	30.247281
2300.000000	30.242815
2299.000000	30.250920
2298.000000	30.157254
2297.000000	30.349242
2296.000000	30.309828
2295.000000	30.448316
2294.000000	30.404691
2293.000000	30.214251
2292.000000	30.099330
2291.000000	29.836976
2290.000000	30.028055
2289.000000	30.171977
2288.000000	30.119198
2287.000000	30.030974
2286.000000	30.071604
2285.000000	29.911228
2284.000000	29.804382
2283.000000	29.950032
2282.000000	29.989217
2281.000000	30.009472
2280.000000	29.997655
2279.000000	30.032982
2278.000000	30.067404
2277.000000	29.944499
2276.000000	30.142248
2275.000000	30.316730
2274.000000	30.268940
2273.000000	30.255518
2272.000000	30.406066
2271.000000	30.464112
2270.000000	30.618135
2269.000000	30.603579
2268.000000	30.508550
2267.000000	30.621636
2266.000000	30.804525
2265.000000	30.880938
2264.000000	30.946780
2263.000000	31.085779
2262.000000	31.197921
2261.000000	31.384875
2260.000000	31.722644
2259.000000	31.876692
2258.000000	31.953371
2257.000000	32.140350
2256.000000	32.331703
2255.000000	32.413665
2254.000000	32.522987
2253.000000	32.774732
2252.000000	33.099914
2251.000000	33.093439
2250.000000	33.245624
2249.000000	33.394729
2248.000000	33.510003
2247.000000	33.713231
2246.000000	33.938672
2245.000000	34.152329
2244.000000	34.245823
2243.000000	34.536865
2242.000000	34.660041
2241.000000	34.783294
2240.000000	34.982221
2239.000000	35.054480
2238.000000	35.165295
2237.000000	35.185372
2236.000000	35.432121
2235.000000	35.604257
2234.000000	35.543390
2233.000000	35.501591
2232.000000	35.578681
2231.000000	35.733468
2230.000000	35.725792
2229.000000	35.718178
2228.000000	35.810202
2227.000000	35.846427
2226.000000	35.802861
2225.000000	35.765939
2224.000000	35.732775
2223.000000	35.660221
2222.000000	35.638280
2221.000000	35.557638
2220.000000	35.630282
2219.000000	35.600283
2218.000000	35.637555
2217.000000	35.678401
2216.000000	35.767132
2215.000000	35.562031
2214.000000	35.497630
2213.000000	35.456534
2212.000000	35.429673
2211.000000	35.387305
2210.000000	35.286792
2209.000000	35.131623
2208.000000	35.117779
2207.000000	35.040634
2206.000000	34.982848
2205.000000	35.017160
2204.000000	34.975864
2203.000000	34.904464
2202.000000	34.796366
2201.000000	34.751520
2200.000000	34.672869
2199.000000	34.633310
2198.000000	34.592038
2197.000000	34.631261
2196.000000	34.407335
2195.000000	34.251756
2194.000000	34.257805
2193.000000	34.111282
2192.000000	34.101332
2191.000000	34.078546
2190.000000	34.044155
2189.000000	33.858601
2188.000000	33.949343
2187.000000	33.878464
2186.000000	33.738272
2185.000000	33.802166
2184.000000	33.876055
2183.000000	33.821521
2182.000000	33.786896
2181.000000	33.592060
2180.000000	33.651036
2179.000000	33.772845
2178.000000	33.667828
2177.000000	33.688028
2176.000000	33.730442
2175.000000	33.695872
2174.000000	33.675097
2173.000000	33.687156
2172.000000	33.872706
2171.000000	33.919414
2170.000000	33.968404
2169.000000	34.041884
2168.000000	34.185959
2167.000000	34.211664
2166.000000	34.236956
2165.000000	34.338425
2164.000000	34.316290
2163.000000	34.411758
2162.000000	34.645142
2161.000000	34.657792
2160.000000	34.803963
2159.000000	34.888718
2158.000000	34.954165
2157.000000	34.996456
2156.000000	35.219308
2155.000000	35.404623
2154.000000	35.721989
2153.000000	35.602299
2152.000000	35.930110
2151.000000	35.980300
2150.000000	36.194551
2149.000000	36.143067
2148.000000	36.194279
2147.000000	36.437058
2146.000000	36.530500
2145.000000	36.712918
2144.000000	36.577164
2143.000000	36.751199
2142.000000	36.903399
2141.000000	37.041846
2140.000000	37.126405
2139.000000	37.376821
2138.000000	37.622516
2137.000000	37.468833
2136.000000	37.558617
2135.000000	37.602830
2134.000000	37.836484
2133.000000	37.891132
2132.000000	38.067493
2131.000000	38.092574
2130.000000	38.200632
2129.000000	38.114758
2128.000000	38.044733
2127.000000	38.123927
2126.000000	38.263519
2125.000000	38.303915
2124.000000	38.332951
2123.000000	38.389352
2122.000000	38.359891
2121.000000	38.437594
2120.000000	38.538865
2119.000000	38.347502
2118.000000	38.401167
2117.000000	38.592134
2116.000000	38.674751
2115.000000	38.710093
2114.000000	38.662720
2113.000000	38.760503
2112.000000	38.622742
2111.000000	38.676374
2110.000000	38.667592
2109.000000	38.715065
2108.000000	38.817662
2107.000000	38.837948
2106.000000	38.850506
2105.000000	38.797440
2104.000000	38.841384
2103.000000	38.818692
2102.000000	38.733040
2101.000000	38.802319
2100.000000	38.864973
2099.000000	38.850183
2098.000000	38.811890
2097.000000	38.864744
2096.000000	38.883402
2095.000000	38.779637
2094.000000	38.915435
2093.000000	38.812772
2092.000000	38.805719
2091.000000	38.761448
2090.000000	38.740324
2089.000000	38.738403
2088.000000	38.701408
2087.000000	38.654685
2086.000000	38.731340
2085.000000	38.661767
2084.000000	38.418555
2083.000000	38.445373
2082.000000	38.388323
2081.000000	38.307851
2080.000000	38.266252
2079.000000	38.150113
2078.000000	38.148776
2077.000000	38.088350
2076.000000	38.025995
2075.000000	37.855048
2074.000000	37.771875
2073.000000	37.621497
2072.000000	37.519337
2071.000000	37.375592
2070.000000	37.202772
2069.000000	37.078870
2068.000000	37.057531
2067.000000	36.945017
2066.000000	36.831859
2065.000000	36.666404
2064.000000	36.566092
2063.000000	36.408327
2062.000000	36.272442
2061.000000	36.124263
2060.000000	35.947485
2059.000000	35.841997
2058.000000	35.770489
2057.000000	35.682721
2056.000000	35.627312
2055.000000	35.479198
2054.000000	35.320275
2053.000000	35.172445
2052.000000	35.056919
2051.000000	34.909327
2050.000000	34.822709
2049.000000	34.787259
2048.000000	34.679551
2047.000000	34.641901
2046.000000	34.595619
2045.000000	34.580506
2044.000000	34.616660
2043.000000	34.593635
2042.000000	34.545330
2041.000000	34.579802
2040.000000	34.681752
2039.000000	34.643789
2038.000000	34.624515
2037.000000	34.726349
2036.000000	34.765180
2035.000000	34.790034
2034.000000	34.919618
2033.000000	35.003390
2032.000000	35.078841
2031.000000	35.141492
2030.000000	35.198324
2029.000000	35.284196
2028.000000	35.388271
2027.000000	35.496319
2026.000000	35.557682
2025.000000	35.603196
2024.000000	35.643602
2023.000000	35.708769
2022.000000	35.771679
2021.000000	35.779534
2020.000000	35.800279
2019.000000	35.779820
2018.000000	35.789808
2017.000000	35.812959
2016.000000	35.744510
2015.000000	35.693493
2014.000000	35.708222
2013.000000	35.640655
2012.000000	35.592827
2011.000000	35.563593
2010.000000	35.454090
2009.000000	35.351255
2008.000000	35.298115
2007.000000	35.252233
2006.000000	35.153311
2005.000000	35.089246
2004.000000	35.009140
2003.000000	34.912528
2002.000000	34.845949
2001.000000	34.733410
2000.000000	34.635437
1999.000000	34.536827
1998.000000	34.440298
1997.000000	34.328449
1996.000000	34.236100
1995.000000	34.118927
1994.000000	34.024883
1993.000000	33.949564
1992.000000	33.830718
1991.000000	33.722601
1990.000000	33.627920
1989.000000	33.537759
1988.000000	33.456127
1987.000000	33.386296
1986.000000	33.220609
1985.000000	33.124707
1984.000000	33.033735
1983.000000	32.920305
1982.000000	32.843814
1981.000000	32.807191
1980.000000	32.684412
1979.000000	32.553360
1978.000000	32.439054
1977.000000	32.347626
1976.000000	32.289719
1975.000000	32.181192
1974.000000	32.057747
1973.000000	31.989218
1972.000000	31.934135
1971.000000	31.790642
1970.000000	31.703255
1969.000000	31.667128
1968.000000	31.574268
1967.000000	31.476159
1966.000000	31.408010
1965.000000	31.327797
1964.000000	31.241436
1963.000000	31.161519
1962.000000	31.058696
1961.000000	30.966815
1960.000000	30.907590
1959.000000	30.868762
1958.000000	30.794291
1957.000000	30.660946
1956.000000	30.653853
1955.000000	30.591054
1954.000000	30.569814
1953.000000	30.480295
1952.000000	30.427034
1951.000000	30.378390
1950.000000	30.417918
1949.000000	30.381650
1948.000000	30.315316
1947.000000	30.299990
1946.000000	30.267054
1945.000000	30.321250
1944.000000	30.241183
1943.000000	30.226649
1942.000000	30.336095
1941.000000	30.289226
1940.000000	30.351751
1939.000000	30.396064
1938.000000	30.453678
1937.000000	30.579243
1936.000000	30.669447
1935.000000	30.769106
1934.000000	30.899945
1933.000000	30.936619
1932.000000	31.052619
1931.000000	31.213049
1930.000000	31.366994
1929.000000	31.470413
1928.000000	31.632350
1927.000000	31.784877
1926.000000	32.073125
1925.000000	32.185040
1924.000000	32.409721
1923.000000	32.598389
1922.000000	32.950280
1921.000000	33.253717
1920.000000	33.430529
1919.000000	33.760709
1918.000000	33.956336
1917.000000	34.277936
1916.000000	34.475747
1915.000000	34.896256
1914.000000	35.210145
1913.000000	35.609762
1912.000000	35.897483
1911.000000	36.288698
1910.000000	36.621254
1909.000000	37.009922
1908.000000	37.390939
1907.000000	37.913147
1906.000000	38.349517
1905.000000	38.769640
1904.000000	39.220671
1903.000000	39.678651
1902.000000	40.155194
1901.000000	40.606397
1900.000000	41.077152
1899.000000	41.499814
1898.000000	42.066448
1897.000000	42.502077
1896.000000	42.971346
1895.000000	43.511720
1894.000000	43.899998
1893.000000	44.368670
1892.000000	44.843417
1891.000000	45.250725
1890.000000	45.667997
1889.000000	46.145843
1888.000000	46.506706
1887.000000	46.913611
1886.000000	47.265710
1885.000000	47.682117
1884.000000	48.062568
1883.000000	48.441440
1882.000000	48.701815
1881.000000	49.085107
1880.000000	49.375785
1879.000000	49.712788
1878.000000	49.924976
1877.000000	50.265004
1876.000000	50.496384
1875.000000	50.770781
1874.000000	50.940562
1873.000000	51.125576
1872.000000	51.307660
1871.000000	51.524450
1870.000000	51.674051
1869.000000	51.850752
1868.000000	51.940575
1867.000000	52.009909
1866.000000	52.107227
1865.000000	52.235753
1864.000000	52.351216
1863.000000	52.427084
1862.000000	52.503520
1861.000000	52.577292
1860.000000	52.602262
1859.000000	52.664384
1858.000000	52.751360
1857.000000	52.785524
1856.000000	52.803823
1855.000000	52.846621
1854.000000	52.911286
1853.000000	52.919984
1852.000000	52.946295
1851.000000	53.005593
1850.000000	53.003852
1849.000000	53.008541
1848.000000	53.009226
1847.000000	53.007420
1846.000000	53.003516
1845.000000	53.032575
1844.000000	52.994264
1843.000000	52.947162
1842.000000	52.971516
1841.000000	52.907457
1840.000000	52.893528
1839.000000	52.872288
1838.000000	52.859317
1837.000000	52.785620
1836.000000	52.725672
1835.000000	52.661294
1834.000000	52.618545
1833.000000	52.612572
1832.000000	52.604727
1831.000000	52.590784
1830.000000	52.578368
1829.000000	52.516491
1828.000000	52.454899
1827.000000	52.440891
1826.000000	52.431247
1825.000000	52.390404
1824.000000	52.354628
1823.000000	52.322787
1822.000000	52.302714
1821.000000	52.267260
1820.000000	52.231743
1819.000000	52.221069
1818.000000	52.212020
1817.000000	52.187558
1816.000000	52.138949
1815.000000	52.095299
1814.000000	52.057926
1813.000000	52.021753
1812.000000	52.025845
1811.000000	52.010764
1810.000000	51.962554
1809.000000	51.950055
1808.000000	51.937587
1807.000000	51.900444
1806.000000	51.883148
1805.000000	51.859839
1804.000000	51.822548
1803.000000	51.822828
1802.000000	51.820105
1801.000000	51.772978
1800.000000	51.741847
1799.000000	51.732441
1798.000000	51.691536
1797.000000	51.698751
1796.000000	51.691997
1795.000000	51.660216
1794.000000	51.655393
1793.000000	51.644917
1792.000000	51.604180
1791.000000	51.583191
1790.000000	51.575816
1789.000000	51.565967
1788.000000	51.566233
1787.000000	51.547286
1786.000000	51.554860
1785.000000	51.546517
1784.000000	51.499689
1783.000000	51.459746
1782.000000	51.442488
1781.000000	51.407522
1780.000000	51.388254
1779.000000	51.371895
1778.000000	51.336651
1777.000000	51.274473
1776.000000	51.232083
1775.000000	51.197851
1774.000000	51.137515
1773.000000	51.121613
1772.000000	51.062450
1771.000000	51.008458
1770.000000	50.970612
1769.000000	50.899837
1768.000000	50.842154
1767.000000	50.827639
1766.000000	50.779528
1765.000000	50.739151
1764.000000	50.690747
1763.000000	50.658313
1762.000000	50.609884
1761.000000	50.546718
1760.000000	50.490047
1759.000000	50.479122
1758.000000	50.439458
1757.000000	50.399212
1756.000000	50.386167
1755.000000	50.356433
1754.000000	50.299573
1753.000000	50.250984
1752.000000	50.212282
1751.000000	50.162834
1750.000000	50.135016
1749.000000	50.121779
1748.000000	50.039300
1747.000000	49.986207
1746.000000	49.956128
1745.000000	49.884650
1744.000000	49.823847
1743.000000	49.793453
1742.000000	49.746511
1741.000000	49.716199
1740.000000	49.649502
1739.000000	49.660737
1738.000000	49.604676
1737.000000	49.566990
1736.000000	49.524177
1735.000000	49.535522
1734.000000	49.536199
1733.000000	49.531934
1732.000000	49.537883
1731.000000	49.503120
1730.000000	49.539530
1729.000000	49.573605
1728.000000	49.615635
1727.000000	49.650785
1726.000000	49.701397
1725.000000	49.795059
1724.000000	49.871145
1723.000000	49.924694
1722.000000	50.002891
1721.000000	50.060694
1720.000000	50.178240
1719.000000	50.277840
1718.000000	50.360062
1717.000000	50.416826
1716.000000	50.532021
1715.000000	50.588302
1714.000000	50.684957
1713.000000	50.763459
1712.000000	50.837386
1711.000000	50.918545
1710.000000	50.975319
1709.000000	50.987813
1708.000000	51.042830
1707.000000	51.124750
1706.000000	51.154350
1705.000000	51.208438
1704.000000	51.229357
1703.000000	51.203048
1702.000000	51.274392
1701.000000	51.294725
1700.000000	51.337255
1699.000000	51.325415
1698.000000	51.380153
1697.000000	51.392359
1696.000000	51.471028
1695.000000	51.517837
1694.000000	51.525341
1693.000000	51.554871
1692.000000	51.630749
1691.000000	51.722750
1690.000000	51.784052
1689.000000	51.862767
1688.000000	51.955386
1687.000000	52.030358
1686.000000	52.121832
1685.000000	52.239431
1684.000000	52.378394
1683.000000	52.488155
1682.000000	52.638014
1681.000000	52.780099
1680.000000	52.880186
1679.000000	53.012645
1678.000000	53.154664
1677.000000	53.287601
1676.000000	53.433313
1675.000000	53.590056
1674.000000	53.735099
1673.000000	53.858843
1672.000000	53.961631
1671.000000	54.106798
1670.000000	54.227447
1669.000000	54.370729
1668.000000	54.476228
1667.000000	54.579589
1666.000000	54.652582
1665.000000	54.720050
1664.000000	54.796554
1663.000000	54.836425
1662.000000	54.930668
1661.000000	54.967063
1660.000000	55.019972
1659.000000	55.087037
1658.000000	55.141347
1657.000000	55.173064
1656.000000	55.200228
1655.000000	55.244010
1654.000000	55.251909
1653.000000	55.270553
1652.000000	55.282833
1651.000000	55.303745
1650.000000	55.310301
1649.000000	55.256848
1648.000000	55.230271
1647.000000	55.244446
1646.000000	55.227625
1645.000000	55.227616
1644.000000	55.241681
1643.000000	55.197198
1642.000000	55.186231
1641.000000	55.172173
1640.000000	55.162051
1639.000000	55.144896
1638.000000	55.106193
1637.000000	55.088251
1636.000000	55.054762
1635.000000	55.038267
1634.000000	54.987193
1633.000000	54.939162
1632.000000	54.922154
1631.000000	54.887645
1630.000000	54.859418
1629.000000	54.833980
1628.000000	54.796948
1627.000000	54.751479
1626.000000	54.724114
1625.000000	54.674934
1624.000000	54.652669
1623.000000	54.643470
1622.000000	54.585517
1621.000000	54.519386
1620.000000	54.508263
1619.000000	54.476785
1618.000000	54.415929
1617.000000	54.372735
1616.000000	54.326406
1615.000000	54.277270
1614.000000	54.234465
1613.000000	54.200186
1612.000000	54.144608
1611.000000	54.103036
1610.000000	54.067033
1609.000000	54.014201
1608.000000	53.961691
1607.000000	53.923640
1606.000000	53.877713
1605.000000	53.815305
1604.000000	53.756398
1603.000000	53.711894
1602.000000	53.677034
1601.000000	53.623105
1600.000000	53.570600
1599.000000	53.520232
1598.000000	53.474788
1597.000000	53.426598
1596.000000	53.385702
1595.000000	53.348052
1594.000000	53.291287
1593.000000	53.262908
1592.000000	53.229709
1591.000000	53.171110
1590.000000	53.133425
1589.000000	53.090811
1588.000000	53.033520
1587.000000	53.006489
1586.000000	52.992336
1585.000000	52.950833
1584.000000	52.901311
1583.000000	52.860075
1582.000000	52.817862
1581.000000	52.781039
1580.000000	52.754120
1579.000000	52.719617
1578.000000	52.706322
1577.000000	52.672556
1576.000000	52.594125
1575.000000	52.582491
1574.000000	52.546867
1573.000000	52.491179
1572.000000	52.440905
1571.000000	52.395023
1570.000000	52.362517
1569.000000	52.333721
1568.000000	52.314774
1567.000000	52.289606
1566.000000	52.255269
1565.000000	52.231675
1564.000000	52.208869
1563.000000	52.182487
1562.000000	52.147621
1561.000000	52.130133
1560.000000	52.103998
1559.000000	52.059907
1558.000000	52.042120
1557.000000	52.023726
1556.000000	52.014721
1555.000000	52.003505
1554.000000	51.963203
1553.000000	51.927504
1552.000000	51.880302
1551.000000	51.849853
1550.000000	51.825381
1549.000000	51.785412
1548.000000	51.758862
1547.000000	51.693806
1546.000000	51.634103
1545.000000	51.572241
1544.000000	51.525303
1543.000000	51.482280
1542.000000	51.408193
1541.000000	51.325809
1540.000000	51.252560
1539.000000	51.193246
1538.000000	51.132761
1537.000000	51.031165
1536.000000	50.953458
1535.000000	50.883639
1534.000000	50.833681
1533.000000	50.767053
1532.000000	50.687289
1531.000000	50.615502
1530.000000	50.572659
1529.000000	50.501057
1528.000000	50.422947
1527.000000	50.374697
1526.000000	50.343307
1525.000000	50.283134
1524.000000	50.208569
1523.000000	50.162085
1522.000000	50.126479
1521.000000	50.108176
1520.000000	50.065778
1519.000000	50.049020
1518.000000	50.023703
1517.000000	49.972955
1516.000000	49.934467
1515.000000	49.907131
1514.000000	49.886609
1513.000000	49.879948
1512.000000	49.851182
1511.000000	49.830552
1510.000000	49.805707
1509.000000	49.787341
1508.000000	49.776752
1507.000000	49.785593
1506.000000	49.753574
1505.000000	49.721463
1504.000000	49.734269
1503.000000	49.732654
1502.000000	49.727649
1501.000000	49.715996
1500.000000	49.706832
1499.000000	49.688638
1498.000000	49.714404
1497.000000	49.731825
1496.000000	49.714078
1495.000000	49.726731
1494.000000	49.730023
1493.000000	49.749901
1492.000000	49.757271
1491.000000	49.749126
1490.000000	49.809270
1489.000000	49.806307
1488.000000	49.836385
1487.000000	49.867313
1486.000000	49.879816
1485.000000	49.900813
1484.000000	49.919489
1483.000000	49.974532
1482.000000	49.973725
1481.000000	50.011541
1480.000000	50.047936
1479.000000	50.060789
1478.000000	50.111431
1477.000000	50.108513
1476.000000	50.137669
1475.000000	50.170569
1474.000000	50.196402
1473.000000	50.233066
1472.000000	50.239779
1471.000000	50.272801
1470.000000	50.311891
