PE UV       SUBTECH     SPECTRUM    ASCII       PEDS        4.00        
   -1
RDms499181.Sample.asc
18/03/15
15:40:33.00
18/03/15
15:40:33.00
Administrator

200.000000
1
Lambda 750
750N8071901
PerkinElmer UV WinLab 6.0.4.0738 / 1.61.00 Lambda 900

0
0
3350/servo 860.8/2
0
0
UV/VIS
1
1
1
CommonBeamDepol,150mm sphere / downward view
0
0
0
0
Program
Program
3350/servo 860.8/2
3350/0.2 860.8/0.2
3350/0.2 860.8/0.2
0
1
 
 
 
0
 
860.8
319.2
860.8
Front
100
on
 
 
0
0
0
 
0
 
 
 
0
 
 
0
0
0
0
0
 
 
 
 
0
0


0
0
#HDR
-1
-1
#GR
nm
%R
1.0
0.0
2350.000000
-1.000000
2151
8
56.096057
7.254621
#DATA
2350.000000	25.024426
2349.000000	24.964473
2348.000000	25.084530
2347.000000	25.151863
2346.000000	25.115948
2345.000000	24.653622
2344.000000	24.948712
2343.000000	24.666720
2342.000000	24.713844
2341.000000	25.286520
2340.000000	25.270547
2339.000000	25.067510
2338.000000	25.386057
2337.000000	25.856446
2336.000000	25.680281
2335.000000	25.806828
2334.000000	25.831031
2333.000000	25.882090
2332.000000	25.694483
2331.000000	26.015346
2330.000000	25.767911
2329.000000	25.386539
2328.000000	25.427437
2327.000000	25.583044
2326.000000	25.760428
2325.000000	25.560880
2324.000000	25.345083
2323.000000	25.255839
2322.000000	25.326401
2321.000000	24.919715
2320.000000	25.176676
2319.000000	25.298974
2318.000000	24.961911
2317.000000	24.895621
2316.000000	24.711453
2315.000000	24.564984
2314.000000	24.850884
2313.000000	24.669996
2312.000000	24.579148
2311.000000	24.839799
2310.000000	24.646483
2309.000000	24.333899
2308.000000	24.493794
2307.000000	24.357880
2306.000000	24.268977
2305.000000	24.210239
2304.000000	24.399962
2303.000000	24.551134
2302.000000	24.459798
2301.000000	24.353810
2300.000000	24.334638
2299.000000	24.273838
2298.000000	24.256886
2297.000000	24.299276
2296.000000	24.494890
2295.000000	24.371532
2294.000000	24.356436
2293.000000	24.519249
2292.000000	24.339548
2291.000000	24.265693
2290.000000	24.154794
2289.000000	24.041494
2288.000000	24.333006
2287.000000	24.432197
2286.000000	24.322969
2285.000000	24.111297
2284.000000	24.215253
2283.000000	24.109041
2282.000000	24.148668
2281.000000	24.087618
2280.000000	24.203768
2279.000000	24.195023
2278.000000	24.049843
2277.000000	24.254930
2276.000000	24.315493
2275.000000	24.399780
2274.000000	24.497298
2273.000000	24.726858
2272.000000	24.633452
2271.000000	24.627982
2270.000000	24.645942
2269.000000	24.508892
2268.000000	24.640099
2267.000000	24.930630
2266.000000	25.059350
2265.000000	25.172270
2264.000000	25.258694
2263.000000	25.378084
2262.000000	25.474719
2261.000000	25.579594
2260.000000	25.778256
2259.000000	25.893355
2258.000000	26.059807
2257.000000	26.182537
2256.000000	26.419650
2255.000000	26.789296
2254.000000	26.844119
2253.000000	26.947177
2252.000000	27.229037
2251.000000	27.274814
2250.000000	27.477326
2249.000000	27.687215
2248.000000	27.746599
2247.000000	27.953572
2246.000000	28.265795
2245.000000	28.384240
2244.000000	28.577682
2243.000000	28.760215
2242.000000	28.765789
2241.000000	28.908290
2240.000000	28.963145
2239.000000	29.102359
2238.000000	29.313444
2237.000000	29.354285
2236.000000	29.430861
2235.000000	29.506804
2234.000000	29.603578
2233.000000	29.777606
2232.000000	29.807123
2231.000000	29.770941
2230.000000	29.842620
2229.000000	29.919070
2228.000000	29.971919
2227.000000	29.901751
2226.000000	29.866937
2225.000000	29.849304
2224.000000	29.778947
2223.000000	29.835463
2222.000000	29.845706
2221.000000	29.871675
2220.000000	29.977934
2219.000000	29.964121
2218.000000	29.829352
2217.000000	29.755190
2216.000000	29.806650
2215.000000	29.751750
2214.000000	29.747746
2213.000000	29.810718
2212.000000	29.704610
2211.000000	29.526259
2210.000000	29.433395
2209.000000	29.433190
2208.000000	29.317615
2207.000000	29.245723
2206.000000	29.261764
2205.000000	29.199011
2204.000000	29.210137
2203.000000	29.183233
2202.000000	29.115810
2201.000000	28.955270
2200.000000	28.755563
2199.000000	28.970436
2198.000000	28.950946
2197.000000	28.778922
2196.000000	28.696892
2195.000000	28.626794
2194.000000	28.506570
2193.000000	28.415413
2192.000000	28.432315
2191.000000	28.369022
2190.000000	28.320369
2189.000000	28.221066
2188.000000	28.195065
2187.000000	28.085861
2186.000000	27.968399
2185.000000	27.984242
2184.000000	28.153805
2183.000000	28.124565
2182.000000	28.100054
2181.000000	27.867197
2180.000000	27.958118
2179.000000	27.954451
2178.000000	28.017131
2177.000000	27.836277
2176.000000	27.810937
2175.000000	27.940929
2174.000000	27.950195
2173.000000	27.796948
2172.000000	28.002550
2171.000000	28.182702
2170.000000	28.168324
2169.000000	28.238347
2168.000000	28.465364
2167.000000	28.420070
2166.000000	28.425090
2165.000000	28.325308
2164.000000	28.378177
2163.000000	28.435384
2162.000000	28.828120
2161.000000	28.816967
2160.000000	29.033903
2159.000000	28.947681
2158.000000	28.984558
2157.000000	29.176331
2156.000000	29.183199
2155.000000	29.430420
2154.000000	29.716444
2153.000000	29.750558
2152.000000	29.750591
2151.000000	30.058452
2150.000000	29.910405
2149.000000	30.175448
2148.000000	30.022035
2147.000000	30.325317
2146.000000	30.433170
2145.000000	30.609890
2144.000000	30.816998
2143.000000	30.858822
2142.000000	30.951448
2141.000000	30.916218
2140.000000	31.241693
2139.000000	31.331397
2138.000000	31.513022
2137.000000	31.596108
2136.000000	31.529543
2135.000000	31.589633
2134.000000	31.681215
2133.000000	31.544838
2132.000000	31.897482
2131.000000	31.954349
2130.000000	31.925291
2129.000000	31.954454
2128.000000	32.140099
2127.000000	32.085605
2126.000000	32.038884
2125.000000	31.965784
2124.000000	32.141490
2123.000000	32.258769
2122.000000	32.338417
2121.000000	32.237005
2120.000000	32.400603
2119.000000	32.358295
2118.000000	32.214962
2117.000000	32.344735
2116.000000	32.395443
2115.000000	32.667686
2114.000000	32.469910
2113.000000	32.467823
2112.000000	32.501381
2111.000000	32.527198
2110.000000	32.378165
2109.000000	32.596666
2108.000000	32.600818
2107.000000	32.690022
2106.000000	32.622821
2105.000000	32.597598
2104.000000	32.581448
2103.000000	32.603966
2102.000000	32.635088
2101.000000	32.590285
2100.000000	32.828339
2099.000000	32.695867
2098.000000	32.672880
2097.000000	32.696826
2096.000000	32.603071
2095.000000	32.531308
2094.000000	32.648518
2093.000000	32.570815
2092.000000	32.745431
2091.000000	32.657240
2090.000000	32.481888
2089.000000	32.707751
2088.000000	32.681527
2087.000000	32.529630
2086.000000	32.613503
2085.000000	32.628163
2084.000000	32.438956
2083.000000	32.398292
2082.000000	32.314465
2081.000000	32.304047
2080.000000	32.191073
2079.000000	32.171697
2078.000000	32.080114
2077.000000	31.978448
2076.000000	31.950034
2075.000000	31.791655
2074.000000	31.771821
2073.000000	31.702380
2072.000000	31.554012
2071.000000	31.509712
2070.000000	31.437889
2069.000000	31.241071
2068.000000	31.067014
2067.000000	31.082191
2066.000000	30.964244
2065.000000	30.789916
2064.000000	30.693683
2063.000000	30.517555
2062.000000	30.436065
2061.000000	30.329938
2060.000000	30.118635
2059.000000	29.967370
2058.000000	29.918206
2057.000000	29.827569
2056.000000	29.727095
2055.000000	29.608185
2054.000000	29.494538
2053.000000	29.417167
2052.000000	29.293680
2051.000000	29.175623
2050.000000	29.122717
2049.000000	29.029144
2048.000000	28.977613
2047.000000	28.994205
2046.000000	28.913968
2045.000000	28.859749
2044.000000	28.839619
2043.000000	28.822604
2042.000000	28.851110
2041.000000	28.910034
2040.000000	28.953802
2039.000000	28.954210
2038.000000	28.944719
2037.000000	29.019512
2036.000000	29.107522
2035.000000	29.198634
2034.000000	29.242373
2033.000000	29.279968
2032.000000	29.383806
2031.000000	29.470674
2030.000000	29.549538
2029.000000	29.649757
2028.000000	29.769675
2027.000000	29.836516
2026.000000	29.917188
2025.000000	30.010986
2024.000000	30.024726
2023.000000	30.033497
2022.000000	30.098467
2021.000000	30.110986
2020.000000	30.141757
2019.000000	30.194440
2018.000000	30.151603
2017.000000	30.143103
2016.000000	30.092735
2015.000000	30.054324
2014.000000	30.066652
2013.000000	30.016331
2012.000000	29.951869
2011.000000	29.969685
2010.000000	29.943356
2009.000000	29.807597
2008.000000	29.710300
2007.000000	29.652766
2006.000000	29.583031
2005.000000	29.482961
2004.000000	29.406048
2003.000000	29.369625
2002.000000	29.269575
2001.000000	29.102641
2000.000000	29.014626
1999.000000	28.943512
1998.000000	28.851737
1997.000000	28.771588
1996.000000	28.696339
1995.000000	28.558300
1994.000000	28.461311
1993.000000	28.341347
1992.000000	28.190880
1991.000000	28.119515
1990.000000	28.022794
1989.000000	27.926013
1988.000000	27.834506
1987.000000	27.743787
1986.000000	27.651486
1985.000000	27.526469
1984.000000	27.436688
1983.000000	27.323296
1982.000000	27.274709
1981.000000	27.164621
1980.000000	27.037094
1979.000000	26.957213
1978.000000	26.830905
1977.000000	26.717893
1976.000000	26.587014
1975.000000	26.535608
1974.000000	26.465728
1973.000000	26.373270
1972.000000	26.280148
1971.000000	26.158919
1970.000000	26.090975
1969.000000	25.997995
1968.000000	25.887837
1967.000000	25.850207
1966.000000	25.821938
1965.000000	25.654179
1964.000000	25.552119
1963.000000	25.463865
1962.000000	25.401903
1961.000000	25.308947
1960.000000	25.235099
1959.000000	25.147587
1958.000000	25.051519
1957.000000	24.995059
1956.000000	24.962951
1955.000000	24.905480
1954.000000	24.866306
1953.000000	24.788335
1952.000000	24.727132
1951.000000	24.693774
1950.000000	24.597049
1949.000000	24.627178
1948.000000	24.642478
1947.000000	24.551514
1946.000000	24.526690
1945.000000	24.507622
1944.000000	24.500447
1943.000000	24.477922
1942.000000	24.546941
1941.000000	24.556207
1940.000000	24.576683
1939.000000	24.584475
1938.000000	24.682027
1937.000000	24.715579
1936.000000	24.826500
1935.000000	24.939145
1934.000000	24.996432
1933.000000	25.034364
1932.000000	25.137353
1931.000000	25.228738
1930.000000	25.459579
1929.000000	25.596249
1928.000000	25.733760
1927.000000	25.819886
1926.000000	26.020991
1925.000000	26.268380
1924.000000	26.455318
1923.000000	26.686655
1922.000000	26.890679
1921.000000	27.177385
1920.000000	27.426095
1919.000000	27.656694
1918.000000	27.906179
1917.000000	28.251023
1916.000000	28.403860
1915.000000	28.794073
1914.000000	29.167522
1913.000000	29.507590
1912.000000	29.759693
1911.000000	30.099588
1910.000000	30.578328
1909.000000	30.958093
1908.000000	31.314494
1907.000000	31.838218
1906.000000	32.179285
1905.000000	32.589718
1904.000000	33.157048
1903.000000	33.659580
1902.000000	34.079743
1901.000000	34.531607
1900.000000	35.066207
1899.000000	35.477655
1898.000000	35.979486
1897.000000	36.426796
1896.000000	36.879309
1895.000000	37.464338
1894.000000	37.853132
1893.000000	38.365178
1892.000000	38.821167
1891.000000	39.271585
1890.000000	39.696422
1889.000000	40.147136
1888.000000	40.489228
1887.000000	40.972630
1886.000000	41.298332
1885.000000	41.717148
1884.000000	42.050262
1883.000000	42.398541
1882.000000	42.716113
1881.000000	43.116187
1880.000000	43.333000
1879.000000	43.668701
1878.000000	44.000820
1877.000000	44.282408
1876.000000	44.510472
1875.000000	44.759228
1874.000000	45.021401
1873.000000	45.237420
1872.000000	45.483225
1871.000000	45.696027
1870.000000	45.934218
1869.000000	46.068441
1868.000000	46.196603
1867.000000	46.308820
1866.000000	46.441020
1865.000000	46.559692
1864.000000	46.603126
1863.000000	46.735018
1862.000000	46.795658
1861.000000	46.870535
1860.000000	46.922697
1859.000000	46.956578
1858.000000	46.977796
1857.000000	46.975420
1856.000000	46.993348
1855.000000	47.076473
1854.000000	47.134089
1853.000000	47.138227
1852.000000	47.139308
1851.000000	47.155612
1850.000000	47.128146
1849.000000	47.119411
1848.000000	47.124050
1847.000000	47.136000
1846.000000	47.141481
1845.000000	47.145167
1844.000000	47.096298
1843.000000	47.050009
1842.000000	47.038991
1841.000000	47.023238
1840.000000	46.977414
1839.000000	46.980250
1838.000000	46.976476
1837.000000	46.898069
1836.000000	46.821852
1835.000000	46.793438
1834.000000	46.755007
1833.000000	46.727851
1832.000000	46.716232
1831.000000	46.667301
1830.000000	46.613456
1829.000000	46.564695
1828.000000	46.524260
1827.000000	46.483627
1826.000000	46.437855
1825.000000	46.393872
1824.000000	46.356502
1823.000000	46.323101
1822.000000	46.285396
1821.000000	46.261813
1820.000000	46.207586
1819.000000	46.164419
1818.000000	46.179349
1817.000000	46.135965
1816.000000	46.069930
1815.000000	46.026866
1814.000000	45.990454
1813.000000	45.958420
1812.000000	45.918212
1811.000000	45.904378
1810.000000	45.883578
1809.000000	45.867731
1808.000000	45.834166
1807.000000	45.766211
1806.000000	45.743678
1805.000000	45.690251
1804.000000	45.655015
1803.000000	45.663438
1802.000000	45.616450
1801.000000	45.580667
1800.000000	45.582876
1799.000000	45.536792
1798.000000	45.484471
1797.000000	45.463692
1796.000000	45.430985
1795.000000	45.405044
1794.000000	45.403612
1793.000000	45.370089
1792.000000	45.320532
1791.000000	45.319109
1790.000000	45.285234
1789.000000	45.236363
1788.000000	45.200155
1787.000000	45.170546
1786.000000	45.135741
1785.000000	45.116926
1784.000000	45.069785
1783.000000	45.041124
1782.000000	44.995263
1781.000000	44.939676
1780.000000	44.884920
1779.000000	44.873055
1778.000000	44.847664
1777.000000	44.769755
1776.000000	44.701887
1775.000000	44.628592
1774.000000	44.565622
1773.000000	44.520989
1772.000000	44.475767
1771.000000	44.427736
1770.000000	44.363126
1769.000000	44.302557
1768.000000	44.274115
1767.000000	44.228233
1766.000000	44.151030
1765.000000	44.106116
1764.000000	44.043367
1763.000000	43.980839
1762.000000	43.934587
1761.000000	43.937912
1760.000000	43.887923
1759.000000	43.837052
1758.000000	43.786150
1757.000000	43.742094
1756.000000	43.706738
1755.000000	43.660093
1754.000000	43.586633
1753.000000	43.565648
1752.000000	43.507304
1751.000000	43.447843
1750.000000	43.402657
1749.000000	43.352475
1748.000000	43.260471
1747.000000	43.169376
1746.000000	43.098133
1745.000000	43.012628
1744.000000	42.908733
1743.000000	42.848855
1742.000000	42.785645
1741.000000	42.718571
1740.000000	42.615196
1739.000000	42.592818
1738.000000	42.479418
1737.000000	42.471536
1736.000000	42.435652
1735.000000	42.421167
1734.000000	42.422150
1733.000000	42.402725
1732.000000	42.383234
1731.000000	42.392365
1730.000000	42.391703
1729.000000	42.441157
1728.000000	42.495805
1727.000000	42.580136
1726.000000	42.601139
1725.000000	42.718647
1724.000000	42.766704
1723.000000	42.905927
1722.000000	42.988006
1721.000000	43.106090
1720.000000	43.235037
1719.000000	43.328949
1718.000000	43.458642
1717.000000	43.564676
1716.000000	43.683599
1715.000000	43.801987
1714.000000	43.911858
1713.000000	43.967251
1712.000000	44.060737
1711.000000	44.157269
1710.000000	44.239967
1709.000000	44.308795
1708.000000	44.398702
1707.000000	44.493259
1706.000000	44.493266
1705.000000	44.576935
1704.000000	44.599955
1703.000000	44.652692
1702.000000	44.702148
1701.000000	44.696944
1700.000000	44.769579
1699.000000	44.785547
1698.000000	44.858588
1697.000000	44.905263
1696.000000	44.998382
1695.000000	45.034275
1694.000000	45.063100
1693.000000	45.104187
1692.000000	45.151751
1691.000000	45.269841
1690.000000	45.387667
1689.000000	45.440771
1688.000000	45.577295
1687.000000	45.718544
1686.000000	45.803435
1685.000000	45.924907
1684.000000	46.052874
1683.000000	46.186876
1682.000000	46.351795
1681.000000	46.552511
1680.000000	46.671499
1679.000000	46.826473
1678.000000	47.019530
1677.000000	47.152557
1676.000000	47.314000
1675.000000	47.512198
1674.000000	47.666007
1673.000000	47.780506
1672.000000	47.939465
1671.000000	48.058869
1670.000000	48.222824
1669.000000	48.331237
1668.000000	48.443866
1667.000000	48.569645
1666.000000	48.650826
1665.000000	48.761674
1664.000000	48.829592
1663.000000	48.875321
1662.000000	48.963797
1661.000000	49.039241
1660.000000	49.101897
1659.000000	49.152025
1658.000000	49.206607
1657.000000	49.244835
1656.000000	49.272728
1655.000000	49.313412
1654.000000	49.336532
1653.000000	49.354944
1652.000000	49.368362
1651.000000	49.359675
1650.000000	49.347107
1649.000000	49.349114
1648.000000	49.313346
1647.000000	49.308337
1646.000000	49.331366
1645.000000	49.299368
1644.000000	49.296620
1643.000000	49.276840
1642.000000	49.265118
1641.000000	49.204951
1640.000000	49.187136
1639.000000	49.143471
1638.000000	49.110213
1637.000000	49.103099
1636.000000	49.047676
1635.000000	49.012795
1634.000000	48.987181
1633.000000	48.971548
1632.000000	48.916395
1631.000000	48.867842
1630.000000	48.815668
1629.000000	48.780396
1628.000000	48.731085
1627.000000	48.668240
1626.000000	48.640685
1625.000000	48.606831
1624.000000	48.567529
1623.000000	48.543519
1622.000000	48.485681
1621.000000	48.404911
1620.000000	48.372497
1619.000000	48.325975
1618.000000	48.244156
1617.000000	48.194056
1616.000000	48.142193
1615.000000	48.085307
1614.000000	48.043999
1613.000000	47.982972
1612.000000	47.911510
1611.000000	47.857951
1610.000000	47.792093
1609.000000	47.726421
1608.000000	47.680508
1607.000000	47.618642
1606.000000	47.538122
1605.000000	47.479515
1604.000000	47.403836
1603.000000	47.337457
1602.000000	47.296793
1601.000000	47.225498
1600.000000	47.152710
1599.000000	47.101391
1598.000000	47.046220
1597.000000	47.000853
1596.000000	46.945310
1595.000000	46.864722
1594.000000	46.799593
1593.000000	46.767286
1592.000000	46.718614
1591.000000	46.654833
1590.000000	46.603358
1589.000000	46.551839
1588.000000	46.483045
1587.000000	46.440226
1586.000000	46.402143
1585.000000	46.363532
1584.000000	46.314483
1583.000000	46.262520
1582.000000	46.211513
1581.000000	46.170366
1580.000000	46.151080
1579.000000	46.093185
1578.000000	46.041013
1577.000000	45.997447
1576.000000	45.950001
1575.000000	45.913737
1574.000000	45.858087
1573.000000	45.808358
1572.000000	45.764506
1571.000000	45.730105
1570.000000	45.689915
1569.000000	45.651967
1568.000000	45.613422
1567.000000	45.565737
1566.000000	45.528107
1565.000000	45.486461
1564.000000	45.467712
1563.000000	45.446839
1562.000000	45.431626
1561.000000	45.414940
1560.000000	45.365127
1559.000000	45.334064
1558.000000	45.321917
1557.000000	45.292693
1556.000000	45.272107
1555.000000	45.266506
1554.000000	45.229543
1553.000000	45.190887
1552.000000	45.119355
1551.000000	45.098720
1550.000000	45.071576
1549.000000	45.025321
1548.000000	44.997312
1547.000000	44.939543
1546.000000	44.875279
1545.000000	44.798389
1544.000000	44.722403
1543.000000	44.668805
1542.000000	44.605664
1541.000000	44.532349
1540.000000	44.445873
1539.000000	44.377950
1538.000000	44.295185
1537.000000	44.210999
1536.000000	44.134528
1535.000000	44.040714
1534.000000	43.965762
1533.000000	43.906566
1532.000000	43.810654
1531.000000	43.731642
1530.000000	43.660136
1529.000000	43.594224
1528.000000	43.519169
1527.000000	43.470022
1526.000000	43.423180
1525.000000	43.346119
1524.000000	43.287562
1523.000000	43.200178
1522.000000	43.164944
1521.000000	43.131736
1520.000000	43.095341
1519.000000	43.053814
1518.000000	43.029506
1517.000000	42.991949
1516.000000	42.937507
1515.000000	42.889724
1514.000000	42.853815
1513.000000	42.840470
1512.000000	42.812858
1511.000000	42.777548
1510.000000	42.752616
1509.000000	42.731441
1508.000000	42.696334
1507.000000	42.708946
1506.000000	42.673433
1505.000000	42.641664
1504.000000	42.627535
1503.000000	42.619394
1502.000000	42.610541
1501.000000	42.586055
1500.000000	42.595959
1499.000000	42.563260
1498.000000	42.563219
1497.000000	42.574099
1496.000000	42.560051
1495.000000	42.590234
1494.000000	42.593013
1493.000000	42.598318
1492.000000	42.589751
1491.000000	42.596126
1490.000000	42.638616
1489.000000	42.634737
1488.000000	42.679761
1487.000000	42.698483
1486.000000	42.709501
1485.000000	42.728756
1484.000000	42.734358
1483.000000	42.778115
1482.000000	42.786557
1481.000000	42.818122
1480.000000	42.859399
1479.000000	42.862175
1478.000000	42.912500
1477.000000	42.910850
1476.000000	42.955507
1475.000000	42.981682
1474.000000	43.001219
1473.000000	43.038285
1472.000000	43.068569
1471.000000	43.087848
1470.000000	43.122858
