PE UV       SUBTECH     SPECTRUM    ASCII       PEDS        4.00        
   -1
RDms499171.Sample.asc
18/03/15
14:47:21.00
18/03/15
14:47:21.00
Administrator

200.000000
1
Lambda 750
750N8071901
PerkinElmer UV WinLab 6.0.4.0738 / 1.61.00 Lambda 900

0
0
3350/servo 860.8/2
0
0
UV/VIS
1
1
1
CommonBeamDepol,150mm sphere / downward view
0
0
0
0
Program
Program
3350/servo 860.8/2
3350/0.2 860.8/0.2
3350/0.2 860.8/0.2
0
1
 
 
 
0
 
860.8
319.2
860.8
Front
100
on
 
 
0
0
0
 
0
 
 
 
0
 
 
0
0
0
0
0
 
 
 
 
0
0


0
0
#HDR
-1
-1
#GR
nm
%R
1.0
0.0
2350.000000
-1.000000
2151
8
55.305556
6.258356
#DATA
2350.000000	29.267998
2349.000000	29.234998
2348.000000	28.980971
2347.000000	29.806171
2346.000000	29.821129
2345.000000	29.554333
2344.000000	29.285759
2343.000000	29.005073
2342.000000	29.303829
2341.000000	29.702863
2340.000000	29.793196
2339.000000	29.678063
2338.000000	29.976323
2337.000000	29.954050
2336.000000	30.082943
2335.000000	30.339195
2334.000000	30.194090
2333.000000	30.740036
2332.000000	30.612715
2331.000000	30.438936
2330.000000	30.435829
2329.000000	29.910125
2328.000000	30.186830
2327.000000	30.345964
2326.000000	29.940101
2325.000000	30.099062
2324.000000	30.100176
2323.000000	29.881050
2322.000000	29.719363
2321.000000	29.812415
2320.000000	29.522535
2319.000000	29.602720
2318.000000	29.671732
2317.000000	29.503743
2316.000000	29.468070
2315.000000	29.042753
2314.000000	29.217001
2313.000000	29.234894
2312.000000	28.919302
2311.000000	28.905765
2310.000000	28.773510
2309.000000	28.582146
2308.000000	28.589434
2307.000000	28.765153
2306.000000	28.578758
2305.000000	28.446133
2304.000000	28.598359
2303.000000	28.567673
2302.000000	28.789506
2301.000000	28.597968
2300.000000	28.487991
2299.000000	28.645576
2298.000000	28.411091
2297.000000	28.428528
2296.000000	28.537085
2295.000000	28.371770
2294.000000	28.503215
2293.000000	28.508322
2292.000000	28.392447
2291.000000	28.354935
2290.000000	28.395943
2289.000000	28.273630
2288.000000	28.324606
2287.000000	28.488557
2286.000000	28.362252
2285.000000	28.281539
2284.000000	28.173648
2283.000000	28.224992
2282.000000	28.085588
2281.000000	28.302928
2280.000000	28.504049
2279.000000	28.599251
2278.000000	28.579349
2277.000000	28.420978
2276.000000	28.399866
2275.000000	28.445216
2274.000000	28.681996
2273.000000	28.985901
2272.000000	28.952189
2271.000000	28.894865
2270.000000	28.863257
2269.000000	28.900754
2268.000000	28.821803
2267.000000	28.977965
2266.000000	29.218568
2265.000000	29.283195
2264.000000	29.469640
2263.000000	29.731890
2262.000000	29.708400
2261.000000	29.752408
2260.000000	29.951226
2259.000000	30.161180
2258.000000	30.354111
2257.000000	30.495015
2256.000000	30.734815
2255.000000	30.944097
2254.000000	30.943534
2253.000000	31.183837
2252.000000	31.491466
2251.000000	31.763372
2250.000000	31.865692
2249.000000	31.987668
2248.000000	32.210645
2247.000000	32.398030
2246.000000	32.640336
2245.000000	32.823019
2244.000000	32.985619
2243.000000	33.214043
2242.000000	33.300731
2241.000000	33.404014
2240.000000	33.489345
2239.000000	33.606541
2238.000000	33.870029
2237.000000	33.866627
2236.000000	33.897244
2235.000000	34.105943
2234.000000	34.171575
2233.000000	34.181503
2232.000000	34.251781
2231.000000	34.353035
2230.000000	34.359721
2229.000000	34.430362
2228.000000	34.593434
2227.000000	34.717298
2226.000000	34.743958
2225.000000	34.513674
2224.000000	34.464719
2223.000000	34.670370
2222.000000	34.639473
2221.000000	34.511245
2220.000000	34.436746
2219.000000	34.544040
2218.000000	34.568072
2217.000000	34.501943
2216.000000	34.524156
2215.000000	34.448188
2214.000000	34.424309
2213.000000	34.418019
2212.000000	34.289127
2211.000000	34.166848
2210.000000	34.127686
2209.000000	34.032749
2208.000000	33.999547
2207.000000	33.896500
2206.000000	33.847349
2205.000000	33.816410
2204.000000	33.731251
2203.000000	33.701368
2202.000000	33.645470
2201.000000	33.646355
2200.000000	33.623526
2199.000000	33.549261
2198.000000	33.501028
2197.000000	33.318052
2196.000000	33.204387
2195.000000	33.200879
2194.000000	33.153040
2193.000000	33.033494
2192.000000	33.062543
2191.000000	33.077517
2190.000000	33.015710
2189.000000	32.891569
2188.000000	32.665339
2187.000000	32.518210
2186.000000	32.622069
2185.000000	32.640478
2184.000000	32.848394
2183.000000	32.615090
2182.000000	32.541656
2181.000000	32.471618
2180.000000	32.457859
2179.000000	32.584701
2178.000000	32.502069
2177.000000	32.583585
2176.000000	32.487257
2175.000000	32.420985
2174.000000	32.593513
2173.000000	32.567320
2172.000000	32.570901
2171.000000	32.553582
2170.000000	32.645153
2169.000000	32.834090
2168.000000	32.960463
2167.000000	32.901157
2166.000000	32.909367
2165.000000	33.068061
2164.000000	33.073574
2163.000000	33.036427
2162.000000	33.192369
2161.000000	33.300818
2160.000000	33.424429
2159.000000	33.541907
2158.000000	33.581895
2157.000000	33.779929
2156.000000	33.907359
2155.000000	34.008274
2154.000000	34.289118
2153.000000	34.218207
2152.000000	34.366253
2151.000000	34.509025
2150.000000	34.724074
2149.000000	34.822027
2148.000000	34.789742
2147.000000	35.018040
2146.000000	35.012778
2145.000000	35.283823
2144.000000	35.420379
2143.000000	35.393276
2142.000000	35.415687
2141.000000	35.598927
2140.000000	35.798125
2139.000000	35.887559
2138.000000	35.940543
2137.000000	36.061982
2136.000000	36.106747
2135.000000	36.015400
2134.000000	36.306818
2133.000000	36.206342
2132.000000	36.438936
2131.000000	36.531799
2130.000000	36.626236
2129.000000	36.528772
2128.000000	36.514151
2127.000000	36.510285
2126.000000	36.618236
2125.000000	36.710073
2124.000000	36.782165
2123.000000	36.746651
2122.000000	36.809056
2121.000000	36.947988
2120.000000	36.837623
2119.000000	36.894296
2118.000000	36.834724
2117.000000	36.788051
2116.000000	37.144362
2115.000000	37.072422
2114.000000	37.147187
2113.000000	36.986871
2112.000000	36.999004
2111.000000	36.999125
2110.000000	37.019630
2109.000000	37.233091
2108.000000	37.034208
2107.000000	37.075537
2106.000000	37.133866
2105.000000	37.211457
2104.000000	37.181458
2103.000000	37.132245
2102.000000	37.298453
2101.000000	37.155198
2100.000000	37.157742
2099.000000	37.099694
2098.000000	37.198031
2097.000000	37.265284
2096.000000	37.183167
2095.000000	37.193312
2094.000000	37.236140
2093.000000	37.119195
2092.000000	37.147841
2091.000000	37.139428
2090.000000	37.183633
2089.000000	37.121634
2088.000000	37.096691
2087.000000	37.039558
2086.000000	37.070689
2085.000000	37.056635
2084.000000	36.996781
2083.000000	36.891332
2082.000000	36.831112
2081.000000	36.836149
2080.000000	36.740287
2079.000000	36.786971
2078.000000	36.656795
2077.000000	36.614900
2076.000000	36.511296
2075.000000	36.423956
2074.000000	36.319619
2073.000000	36.237144
2072.000000	36.193373
2071.000000	36.126139
2070.000000	36.041577
2069.000000	35.839091
2068.000000	35.693439
2067.000000	35.607901
2066.000000	35.498255
2065.000000	35.352468
2064.000000	35.258385
2063.000000	35.098784
2062.000000	35.003923
2061.000000	34.891084
2060.000000	34.799003
2059.000000	34.655139
2058.000000	34.540704
2057.000000	34.495064
2056.000000	34.355735
2055.000000	34.198654
2054.000000	34.021232
2053.000000	33.898367
2052.000000	33.856492
2051.000000	33.766627
2050.000000	33.652391
2049.000000	33.611496
2048.000000	33.540680
2047.000000	33.428107
2046.000000	33.380259
2045.000000	33.387464
2044.000000	33.358096
2043.000000	33.354899
2042.000000	33.324439
2041.000000	33.354395
2040.000000	33.392180
2039.000000	33.392702
2038.000000	33.399891
2037.000000	33.452297
2036.000000	33.567838
2035.000000	33.654028
2034.000000	33.736863
2033.000000	33.833187
2032.000000	33.940502
2031.000000	34.021978
2030.000000	34.062963
2029.000000	34.157227
2028.000000	34.222578
2027.000000	34.282384
2026.000000	34.364300
2025.000000	34.455316
2024.000000	34.503734
2023.000000	34.580254
2022.000000	34.618900
2021.000000	34.629993
2020.000000	34.667461
2019.000000	34.677585
2018.000000	34.681581
2017.000000	34.673360
2016.000000	34.619297
2015.000000	34.616128
2014.000000	34.609636
2013.000000	34.565409
2012.000000	34.547718
2011.000000	34.478063
2010.000000	34.386608
2009.000000	34.261814
2008.000000	34.205564
2007.000000	34.123875
2006.000000	34.026864
2005.000000	33.951031
2004.000000	33.878672
2003.000000	33.795985
2002.000000	33.712475
2001.000000	33.606709
2000.000000	33.482513
1999.000000	33.379010
1998.000000	33.220595
1997.000000	33.159468
1996.000000	33.106595
1995.000000	33.005079
1994.000000	32.845999
1993.000000	32.761199
1992.000000	32.652441
1991.000000	32.491355
1990.000000	32.422746
1989.000000	32.329354
1988.000000	32.193553
1987.000000	32.060234
1986.000000	31.952761
1985.000000	31.843152
1984.000000	31.733999
1983.000000	31.587177
1982.000000	31.513120
1981.000000	31.448488
1980.000000	31.323056
1979.000000	31.191059
1978.000000	31.085978
1977.000000	30.938850
1976.000000	30.809960
1975.000000	30.739732
1974.000000	30.631305
1973.000000	30.557580
1972.000000	30.422274
1971.000000	30.294952
1970.000000	30.231695
1969.000000	30.158643
1968.000000	30.069815
1967.000000	29.974601
1966.000000	29.872314
1965.000000	29.742788
1964.000000	29.620043
1963.000000	29.530910
1962.000000	29.432841
1961.000000	29.331802
1960.000000	29.299406
1959.000000	29.140380
1958.000000	29.101180
1957.000000	29.006123
1956.000000	28.902042
1955.000000	28.851141
1954.000000	28.799519
1953.000000	28.728712
1952.000000	28.686740
1951.000000	28.644604
1950.000000	28.606247
1949.000000	28.531998
1948.000000	28.452230
1947.000000	28.364795
1946.000000	28.363892
1945.000000	28.351030
1944.000000	28.356502
1943.000000	28.366728
1942.000000	28.361714
1941.000000	28.409244
1940.000000	28.422110
1939.000000	28.411394
1938.000000	28.479799
1937.000000	28.595582
1936.000000	28.692034
1935.000000	28.689766
1934.000000	28.787810
1933.000000	28.862222
1932.000000	28.974022
1931.000000	29.175856
1930.000000	29.339525
1929.000000	29.473913
1928.000000	29.526924
1927.000000	29.808477
1926.000000	30.008494
1925.000000	30.212753
1924.000000	30.417541
1923.000000	30.603314
1922.000000	30.954320
1921.000000	31.185211
1920.000000	31.408425
1919.000000	31.600928
1918.000000	31.984180
1917.000000	32.175459
1916.000000	32.478916
1915.000000	32.853432
1914.000000	33.279993
1913.000000	33.671702
1912.000000	33.993747
1911.000000	34.314948
1910.000000	34.677027
1909.000000	34.997397
1908.000000	35.406629
1907.000000	35.959797
1906.000000	36.322804
1905.000000	36.855145
1904.000000	37.226672
1903.000000	37.635257
1902.000000	38.150325
1901.000000	38.650523
1900.000000	39.123772
1899.000000	39.554438
1898.000000	40.095039
1897.000000	40.506968
1896.000000	40.896839
1895.000000	41.373468
1894.000000	41.886265
1893.000000	42.243604
1892.000000	42.730460
1891.000000	43.121144
1890.000000	43.515126
1889.000000	43.914305
1888.000000	44.280285
1887.000000	44.717981
1886.000000	45.116823
1885.000000	45.466814
1884.000000	45.795156
1883.000000	46.110500
1882.000000	46.333245
1881.000000	46.660723
1880.000000	46.932103
1879.000000	47.176570
1878.000000	47.493980
1877.000000	47.732914
1876.000000	47.872950
1875.000000	48.125665
1874.000000	48.306423
1873.000000	48.484943
1872.000000	48.633364
1871.000000	48.744523
1870.000000	48.859286
1869.000000	48.975610
1868.000000	49.125728
1867.000000	49.162193
1866.000000	49.290386
1865.000000	49.368164
1864.000000	49.421352
1863.000000	49.494189
1862.000000	49.553558
1861.000000	49.593378
1860.000000	49.639195
1859.000000	49.700834
1858.000000	49.804424
1857.000000	49.824777
1856.000000	49.862861
1855.000000	49.852757
1854.000000	49.897576
1853.000000	49.961648
1852.000000	49.951084
1851.000000	49.969376
1850.000000	50.008136
1849.000000	50.014806
1848.000000	49.952560
1847.000000	49.959117
1846.000000	50.037361
1845.000000	49.994793
1844.000000	49.930613
1843.000000	49.855049
1842.000000	49.849661
1841.000000	49.830982
1840.000000	49.795853
1839.000000	49.782546
1838.000000	49.743325
1837.000000	49.707655
1836.000000	49.670853
1835.000000	49.598226
1834.000000	49.549806
1833.000000	49.518869
1832.000000	49.506856
1831.000000	49.467675
1830.000000	49.407102
1829.000000	49.358176
1828.000000	49.347742
1827.000000	49.340680
1826.000000	49.308727
1825.000000	49.271689
1824.000000	49.238745
1823.000000	49.220168
1822.000000	49.156168
1821.000000	49.127299
1820.000000	49.103617
1819.000000	49.077226
1818.000000	49.076223
1817.000000	49.042947
1816.000000	48.995826
1815.000000	48.981889
1814.000000	48.942509
1813.000000	48.915713
1812.000000	48.912037
1811.000000	48.910287
1810.000000	48.885715
1809.000000	48.837487
1808.000000	48.833149
1807.000000	48.806354
1806.000000	48.762109
1805.000000	48.749293
1804.000000	48.737768
1803.000000	48.736084
1802.000000	48.705852
1801.000000	48.672258
1800.000000	48.666520
1799.000000	48.642528
1798.000000	48.593530
1797.000000	48.600035
1796.000000	48.603079
1795.000000	48.572437
1794.000000	48.570174
1793.000000	48.565478
1792.000000	48.544513
1791.000000	48.536419
1790.000000	48.511943
1789.000000	48.502509
1788.000000	48.501130
1787.000000	48.490456
1786.000000	48.498712
1785.000000	48.494881
1784.000000	48.467950
1783.000000	48.428161
1782.000000	48.382235
1781.000000	48.358770
1780.000000	48.339198
1779.000000	48.305962
1778.000000	48.279680
1777.000000	48.225336
1776.000000	48.174318
1775.000000	48.121504
1774.000000	48.085036
1773.000000	48.082148
1772.000000	48.022036
1771.000000	47.963349
1770.000000	47.912769
1769.000000	47.850162
1768.000000	47.811820
1767.000000	47.788228
1766.000000	47.732730
1765.000000	47.677961
1764.000000	47.655092
1763.000000	47.605493
1762.000000	47.563050
1761.000000	47.546921
1760.000000	47.464969
1759.000000	47.419255
1758.000000	47.429348
1757.000000	47.381613
1756.000000	47.357801
1755.000000	47.332787
1754.000000	47.291572
1753.000000	47.248405
1752.000000	47.239729
1751.000000	47.216202
1750.000000	47.160699
1749.000000	47.134975
1748.000000	47.072497
1747.000000	47.014695
1746.000000	46.981831
1745.000000	46.933413
1744.000000	46.863414
1743.000000	46.832628
1742.000000	46.753834
1741.000000	46.713593
1740.000000	46.651936
1739.000000	46.606969
1738.000000	46.532526
1737.000000	46.506874
1736.000000	46.459286
1735.000000	46.398509
1734.000000	46.418840
1733.000000	46.366124
1732.000000	46.366242
1731.000000	46.351178
1730.000000	46.388458
1729.000000	46.403301
1728.000000	46.454693
1727.000000	46.492931
1726.000000	46.484959
1725.000000	46.563072
1724.000000	46.649101
1723.000000	46.713037
1722.000000	46.793052
1721.000000	46.870433
1720.000000	46.964136
1719.000000	47.058060
1718.000000	47.122143
1717.000000	47.207352
1716.000000	47.301866
1715.000000	47.360804
1714.000000	47.456716
1713.000000	47.534827
1712.000000	47.586793
1711.000000	47.659480
1710.000000	47.723410
1709.000000	47.819125
1708.000000	47.852501
1707.000000	47.895188
1706.000000	47.962906
1705.000000	48.020112
1704.000000	48.037490
1703.000000	48.012020
1702.000000	48.082707
1701.000000	48.124298
1700.000000	48.125977
1699.000000	48.154803
1698.000000	48.213016
1697.000000	48.221050
1696.000000	48.285263
1695.000000	48.303081
1694.000000	48.336352
1693.000000	48.378203
1692.000000	48.371684
1691.000000	48.475811
1690.000000	48.547935
1689.000000	48.604154
1688.000000	48.674147
1687.000000	48.733257
1686.000000	48.813228
1685.000000	48.896656
1684.000000	49.019606
1683.000000	49.128649
1682.000000	49.237592
1681.000000	49.352791
1680.000000	49.445436
1679.000000	49.559021
1678.000000	49.692169
1677.000000	49.779313
1676.000000	49.881040
1675.000000	50.023016
1674.000000	50.141703
1673.000000	50.233396
1672.000000	50.351677
1671.000000	50.444054
1670.000000	50.577793
1669.000000	50.695508
1668.000000	50.788760
1667.000000	50.847227
1666.000000	50.921780
1665.000000	50.956375
1664.000000	51.014847
1663.000000	51.060846
1662.000000	51.134112
1661.000000	51.174599
1660.000000	51.203922
1659.000000	51.252757
1658.000000	51.299248
1657.000000	51.299448
1656.000000	51.337317
1655.000000	51.377330
1654.000000	51.368891
1653.000000	51.392918
1652.000000	51.406668
1651.000000	51.374846
1650.000000	51.376324
1649.000000	51.358420
1648.000000	51.335264
1647.000000	51.347909
1646.000000	51.345830
1645.000000	51.302737
1644.000000	51.304859
1643.000000	51.284746
1642.000000	51.292770
1641.000000	51.267356
1640.000000	51.220891
1639.000000	51.207813
1638.000000	51.199621
1637.000000	51.178405
1636.000000	51.121744
1635.000000	51.071410
1634.000000	51.065608
1633.000000	51.059463
1632.000000	51.020975
1631.000000	50.969017
1630.000000	50.937516
1629.000000	50.929181
1628.000000	50.871090
1627.000000	50.804020
1626.000000	50.795425
1625.000000	50.763503
1624.000000	50.738072
1623.000000	50.710202
1622.000000	50.678148
1621.000000	50.640792
1620.000000	50.606817
1619.000000	50.555475
1618.000000	50.510000
1617.000000	50.472193
1616.000000	50.432271
1615.000000	50.397934
1614.000000	50.365221
1613.000000	50.323598
1612.000000	50.277773
1611.000000	50.247226
1610.000000	50.220801
1609.000000	50.163535
1608.000000	50.113515
1607.000000	50.090022
1606.000000	50.033387
1605.000000	49.981407
1604.000000	49.923603
1603.000000	49.876127
1602.000000	49.850937
1601.000000	49.812446
1600.000000	49.758610
1599.000000	49.701143
1598.000000	49.668684
1597.000000	49.637087
1596.000000	49.591783
1595.000000	49.556417
1594.000000	49.526198
1593.000000	49.498914
1592.000000	49.459013
1591.000000	49.406101
1590.000000	49.369364
1589.000000	49.333833
1588.000000	49.285891
1587.000000	49.258623
1586.000000	49.250269
1585.000000	49.211662
1584.000000	49.171568
1583.000000	49.134652
1582.000000	49.095326
1581.000000	49.056306
1580.000000	49.012735
1579.000000	48.980954
1578.000000	48.955927
1577.000000	48.912337
1576.000000	48.876438
1575.000000	48.852288
1574.000000	48.803107
1573.000000	48.761831
1572.000000	48.741306
1571.000000	48.708082
1570.000000	48.674221
1569.000000	48.631597
1568.000000	48.594198
1567.000000	48.557601
1566.000000	48.538408
1565.000000	48.513517
1564.000000	48.479042
1563.000000	48.459355
1562.000000	48.441689
1561.000000	48.418063
1560.000000	48.386639
1559.000000	48.345936
1558.000000	48.332812
1557.000000	48.313570
1556.000000	48.286540
1555.000000	48.272624
1554.000000	48.226918
1553.000000	48.204160
1552.000000	48.185517
1551.000000	48.152274
1550.000000	48.114773
1549.000000	48.081124
1548.000000	48.021920
1547.000000	47.983179
1546.000000	47.953282
1545.000000	47.890615
1544.000000	47.841669
1543.000000	47.781010
1542.000000	47.719275
1541.000000	47.676758
1540.000000	47.610460
1539.000000	47.544347
1538.000000	47.474388
1537.000000	47.397537
1536.000000	47.337558
1535.000000	47.283272
1534.000000	47.215426
1533.000000	47.159591
1532.000000	47.076744
1531.000000	47.028736
1530.000000	46.973739
1529.000000	46.904626
1528.000000	46.844407
1527.000000	46.800516
1526.000000	46.769331
1525.000000	46.702001
1524.000000	46.655756
1523.000000	46.625078
1522.000000	46.583231
1521.000000	46.553359
1520.000000	46.520352
1519.000000	46.488522
1518.000000	46.487757
1517.000000	46.440669
1516.000000	46.408336
1515.000000	46.378527
1514.000000	46.345700
1513.000000	46.336959
1512.000000	46.313987
1511.000000	46.278223
1510.000000	46.272071
1509.000000	46.239335
1508.000000	46.226465
1507.000000	46.251221
1506.000000	46.225306
1505.000000	46.185058
1504.000000	46.185004
1503.000000	46.171112
1502.000000	46.155467
1501.000000	46.161257
1500.000000	46.138583
1499.000000	46.139876
1498.000000	46.142813
1497.000000	46.138730
1496.000000	46.120150
1495.000000	46.141058
1494.000000	46.144955
1493.000000	46.139517
1492.000000	46.149709
1491.000000	46.163865
1490.000000	46.179730
1489.000000	46.173884
1488.000000	46.194420
1487.000000	46.196247
1486.000000	46.220006
1485.000000	46.222129
1484.000000	46.240893
1483.000000	46.253847
1482.000000	46.255400
1481.000000	46.289749
1480.000000	46.299988
1479.000000	46.296122
1478.000000	46.332795
1477.000000	46.338409
1476.000000	46.343172
1475.000000	46.359346
1474.000000	46.377099
1473.000000	46.394459
1472.000000	46.413635
1471.000000	46.421191
1470.000000	46.439199
