PE UV       SUBTECH     SPECTRUM    ASCII       PEDS        4.00        
   -1
RDms1556131.Sample.asc
18/03/15
09:43:35.00
18/03/15
09:43:35.00
Administrator

200.000000
1
Lambda 750
750N8071901
PerkinElmer UV WinLab 6.0.4.0738 / 1.61.00 Lambda 900

0
0
3350/servo 860.8/2
0
0
UV/VIS
1
1
1
CommonBeamDepol,150mm sphere / downward view
0
0
0
0
Program
Program
3350/servo 860.8/2
3350/0.2 860.8/0.2
3350/0.2 860.8/0.2
0
1
 
 
 
0
 
860.8
319.2
860.8
Front
100
on
 
 
0
0
0
 
0
 
 
 
0
 
 
0
0
0
0
0
 
 
 
 
0
0


0
0
#HDR
-1
-1
#GR
nm
%R
1.0
0.0
2350.000000
-1.000000
2151
8
65.887697
8.602459
#DATA
2350.000000	32.316471
2349.000000	32.296941
2348.000000	31.985269
2347.000000	32.787976
2346.000000	32.848935
2345.000000	32.816237
2344.000000	32.634299
2343.000000	32.423126
2342.000000	32.653705
2341.000000	32.449176
2340.000000	32.784244
2339.000000	32.876639
2338.000000	32.977511
2337.000000	33.156733
2336.000000	33.462551
2335.000000	33.384054
2334.000000	33.572800
2333.000000	33.403043
2332.000000	33.564299
2331.000000	33.897288
2330.000000	33.447326
2329.000000	33.273336
2328.000000	33.272180
2327.000000	33.313472
2326.000000	33.498111
2325.000000	33.403950
2324.000000	33.045987
2323.000000	33.110099
2322.000000	33.015900
2321.000000	33.045813
2320.000000	33.227533
2319.000000	32.959516
2318.000000	32.856475
2317.000000	32.821421
2316.000000	32.775504
2315.000000	32.680397
2314.000000	32.752966
2313.000000	32.262463
2312.000000	32.282580
2311.000000	32.449861
2310.000000	32.241637
2309.000000	32.302918
2308.000000	32.133006
2307.000000	31.864781
2306.000000	31.873813
2305.000000	31.916696
2304.000000	32.113827
2303.000000	32.029676
2302.000000	32.137728
2301.000000	31.950148
2300.000000	31.960440
2299.000000	31.844634
2298.000000	31.765848
2297.000000	31.604907
2296.000000	31.980638
2295.000000	31.957529
2294.000000	31.688531
2293.000000	31.721126
2292.000000	31.695138
2291.000000	31.637130
2290.000000	31.490868
2289.000000	31.472248
2288.000000	31.469919
2287.000000	31.498284
2286.000000	31.630487
2285.000000	31.680903
2284.000000	31.600917
2283.000000	31.632136
2282.000000	31.476666
2281.000000	31.441869
2280.000000	31.535333
2279.000000	31.653593
2278.000000	31.619085
2277.000000	31.628614
2276.000000	31.691459
2275.000000	31.805942
2274.000000	31.903878
2273.000000	31.943127
2272.000000	32.065535
2271.000000	32.125556
2270.000000	32.135911
2269.000000	32.143670
2268.000000	32.310178
2267.000000	32.451340
2266.000000	32.576214
2265.000000	32.753182
2264.000000	32.830768
2263.000000	32.662385
2262.000000	32.904446
2261.000000	33.107929
2260.000000	33.350859
2259.000000	33.480509
2258.000000	33.660057
2257.000000	33.799725
2256.000000	33.814088
2255.000000	34.072064
2254.000000	34.224138
2253.000000	34.359664
2252.000000	34.725252
2251.000000	34.852302
2250.000000	34.938620
2249.000000	35.164512
2248.000000	35.323506
2247.000000	35.352688
2246.000000	35.502608
2245.000000	35.715296
2244.000000	36.012435
2243.000000	36.288083
2242.000000	36.312473
2241.000000	36.607276
2240.000000	36.818532
2239.000000	36.686950
2238.000000	36.802172
2237.000000	36.857232
2236.000000	36.929680
2235.000000	37.172778
2234.000000	37.280767
2233.000000	37.274617
2232.000000	37.319424
2231.000000	37.390634
2230.000000	37.459373
2229.000000	37.524572
2228.000000	37.591919
2227.000000	37.521475
2226.000000	37.464253
2225.000000	37.484429
2224.000000	37.498711
2223.000000	37.485302
2222.000000	37.427733
2221.000000	37.444602
2220.000000	37.502677
2219.000000	37.415938
2218.000000	37.310169
2217.000000	37.293693
2216.000000	37.279260
2215.000000	37.271609
2214.000000	37.259074
2213.000000	37.226823
2212.000000	37.102944
2211.000000	36.938244
2210.000000	36.978412
2209.000000	36.964328
2208.000000	36.859082
2207.000000	36.838155
2206.000000	36.855795
2205.000000	36.704660
2204.000000	36.646572
2203.000000	36.603138
2202.000000	36.523165
2201.000000	36.513495
2200.000000	36.484460
2199.000000	36.415648
2198.000000	36.389043
2197.000000	36.337979
2196.000000	36.159880
2195.000000	35.994962
2194.000000	35.949861
2193.000000	35.915661
2192.000000	35.821494
2191.000000	35.950017
2190.000000	35.913218
2189.000000	35.764918
2188.000000	35.582852
2187.000000	35.680672
2186.000000	35.655278
2185.000000	35.390102
2184.000000	35.516940
2183.000000	35.627536
2182.000000	35.536941
2181.000000	35.548293
2180.000000	35.483790
2179.000000	35.493646
2178.000000	35.505970
2177.000000	35.567578
2176.000000	35.472334
2175.000000	35.602556
2174.000000	35.683206
2173.000000	35.573106
2172.000000	35.754165
2171.000000	35.848333
2170.000000	35.864557
2169.000000	36.056520
2168.000000	36.011259
2167.000000	35.941309
2166.000000	36.151552
2165.000000	36.159321
2164.000000	36.326402
2163.000000	36.273311
2162.000000	36.427300
2161.000000	36.529369
2160.000000	36.774309
2159.000000	36.881572
2158.000000	36.880796
2157.000000	36.900370
2156.000000	37.065438
2155.000000	37.166895
2154.000000	37.453871
2153.000000	37.578441
2152.000000	37.730346
2151.000000	37.938644
2150.000000	37.835102
2149.000000	38.073314
2148.000000	38.056105
2147.000000	38.351725
2146.000000	38.413454
2145.000000	38.562153
2144.000000	38.655048
2143.000000	38.736104
2142.000000	38.785463
2141.000000	39.008814
2140.000000	39.241037
2139.000000	39.322151
2138.000000	39.407740
2137.000000	39.356484
2136.000000	39.429632
2135.000000	39.653037
2134.000000	39.690265
2133.000000	39.503422
2132.000000	39.818527
2131.000000	39.923473
2130.000000	39.949369
2129.000000	40.001549
2128.000000	39.991292
2127.000000	40.144251
2126.000000	40.074937
2125.000000	40.116735
2124.000000	40.053539
2123.000000	40.226644
2122.000000	40.371372
2121.000000	40.424004
2120.000000	40.313894
2119.000000	40.290842
2118.000000	40.238664
2117.000000	40.251178
2116.000000	40.637602
2115.000000	40.534654
2114.000000	40.532502
2113.000000	40.723213
2112.000000	40.527707
2111.000000	40.545436
2110.000000	40.526333
2109.000000	40.622520
2108.000000	40.675691
2107.000000	40.682608
2106.000000	40.650610
2105.000000	40.686221
2104.000000	40.631189
2103.000000	40.598198
2102.000000	40.680930
2101.000000	40.845762
2100.000000	40.701310
2099.000000	40.531655
2098.000000	40.628337
2097.000000	40.762759
2096.000000	40.730108
2095.000000	40.695012
2094.000000	40.670446
2093.000000	40.554964
2092.000000	40.647009
2091.000000	40.585993
2090.000000	40.476671
2089.000000	40.484910
2088.000000	40.444732
2087.000000	40.414527
2086.000000	40.397640
2085.000000	40.423769
2084.000000	40.283669
2083.000000	40.285627
2082.000000	40.156014
2081.000000	40.167289
2080.000000	40.114960
2079.000000	40.109088
2078.000000	40.001980
2077.000000	39.896703
2076.000000	39.799689
2075.000000	39.622843
2074.000000	39.514260
2073.000000	39.456773
2072.000000	39.309691
2071.000000	39.212270
2070.000000	39.106260
2069.000000	38.899696
2068.000000	38.788591
2067.000000	38.805999
2066.000000	38.628452
2065.000000	38.445192
2064.000000	38.411160
2063.000000	38.264313
2062.000000	38.032837
2061.000000	37.974941
2060.000000	37.871012
2059.000000	37.726170
2058.000000	37.597800
2057.000000	37.497740
2056.000000	37.426374
2055.000000	37.304085
2054.000000	37.146431
2053.000000	36.995054
2052.000000	36.951186
2051.000000	36.837533
2050.000000	36.780313
2049.000000	36.707035
2048.000000	36.641778
2047.000000	36.550981
2046.000000	36.495163
2045.000000	36.474355
2044.000000	36.477316
2043.000000	36.449010
2042.000000	36.458428
2041.000000	36.498538
2040.000000	36.506203
2039.000000	36.496311
2038.000000	36.535203
2037.000000	36.598592
2036.000000	36.642164
2035.000000	36.729177
2034.000000	36.813281
2033.000000	36.876726
2032.000000	36.975096
2031.000000	37.022491
2030.000000	37.120872
2029.000000	37.213641
2028.000000	37.286467
2027.000000	37.371554
2026.000000	37.445770
2025.000000	37.507865
2024.000000	37.551986
2023.000000	37.563307
2022.000000	37.567342
2021.000000	37.620967
2020.000000	37.672715
2019.000000	37.677349
2018.000000	37.689150
2017.000000	37.663366
2016.000000	37.587379
2015.000000	37.604683
2014.000000	37.578559
2013.000000	37.542041
2012.000000	37.522712
2011.000000	37.451652
2010.000000	37.347797
2009.000000	37.234902
2008.000000	37.188534
2007.000000	37.139207
2006.000000	37.053501
2005.000000	36.992990
2004.000000	36.899705
2003.000000	36.801058
2002.000000	36.771820
2001.000000	36.641132
2000.000000	36.515826
1999.000000	36.432055
1998.000000	36.366407
1997.000000	36.270200
1996.000000	36.188832
1995.000000	36.095645
1994.000000	35.970132
1993.000000	35.857660
1992.000000	35.742352
1991.000000	35.625362
1990.000000	35.498424
1989.000000	35.385495
1988.000000	35.333616
1987.000000	35.249962
1986.000000	35.085532
1985.000000	35.007612
1984.000000	34.987039
1983.000000	34.835226
1982.000000	34.694337
1981.000000	34.609398
1980.000000	34.522628
1979.000000	34.418303
1978.000000	34.325636
1977.000000	34.221129
1976.000000	34.113543
1975.000000	34.038989
1974.000000	33.924491
1973.000000	33.859409
1972.000000	33.764714
1971.000000	33.624700
1970.000000	33.570096
1969.000000	33.484567
1968.000000	33.421155
1967.000000	33.356679
1966.000000	33.276253
1965.000000	33.182617
1964.000000	33.077171
1963.000000	32.989910
1962.000000	32.867905
1961.000000	32.823845
1960.000000	32.761316
1959.000000	32.614069
1958.000000	32.586032
1957.000000	32.505415
1956.000000	32.506117
1955.000000	32.435949
1954.000000	32.373748
1953.000000	32.328743
1952.000000	32.280903
1951.000000	32.264720
1950.000000	32.169416
1949.000000	32.097497
1948.000000	32.148415
1947.000000	32.133119
1946.000000	32.134581
1945.000000	32.153011
1944.000000	32.118268
1943.000000	32.156929
1942.000000	32.193705
1941.000000	32.174063
1940.000000	32.251656
1939.000000	32.241652
1938.000000	32.350591
1937.000000	32.396056
1936.000000	32.476879
1935.000000	32.533831
1934.000000	32.677061
1933.000000	32.765940
1932.000000	32.860151
1931.000000	32.922057
1930.000000	33.153217
1929.000000	33.320316
1928.000000	33.449408
1927.000000	33.564021
1926.000000	33.784568
1925.000000	34.040014
1924.000000	34.213176
1923.000000	34.544234
1922.000000	34.747867
1921.000000	35.074270
1920.000000	35.147598
1919.000000	35.513083
1918.000000	35.760926
1917.000000	36.062984
1916.000000	36.274806
1915.000000	36.766587
1914.000000	37.037427
1913.000000	37.470740
1912.000000	37.787660
1911.000000	38.052247
1910.000000	38.473569
1909.000000	38.819557
1908.000000	39.247083
1907.000000	39.754149
1906.000000	40.169620
1905.000000	40.648423
1904.000000	41.108736
1903.000000	41.511259
1902.000000	42.037872
1901.000000	42.567328
1900.000000	42.955535
1899.000000	43.415653
1898.000000	43.988780
1897.000000	44.433943
1896.000000	44.825365
1895.000000	45.296565
1894.000000	45.784582
1893.000000	46.303429
1892.000000	46.777762
1891.000000	47.237699
1890.000000	47.663110
1889.000000	48.038131
1888.000000	48.434808
1887.000000	48.935623
1886.000000	49.286485
1885.000000	49.681534
1884.000000	49.986154
1883.000000	50.365040
1882.000000	50.622967
1881.000000	50.953104
1880.000000	51.308126
1879.000000	51.608611
1878.000000	51.858637
1877.000000	52.122557
1876.000000	52.400074
1875.000000	52.631728
1874.000000	52.865630
1873.000000	53.032082
1872.000000	53.284551
1871.000000	53.482004
1870.000000	53.598810
1869.000000	53.785968
1868.000000	54.009928
1867.000000	54.082150
1866.000000	54.121782
1865.000000	54.249745
1864.000000	54.351202
1863.000000	54.431935
1862.000000	54.516627
1861.000000	54.546144
1860.000000	54.593612
1859.000000	54.653093
1858.000000	54.693877
1857.000000	54.730312
1856.000000	54.758233
1855.000000	54.803421
1854.000000	54.849719
1853.000000	54.908546
1852.000000	54.944989
1851.000000	54.937226
1850.000000	54.928528
1849.000000	54.904779
1848.000000	54.924808
1847.000000	54.942425
1846.000000	54.982502
1845.000000	54.967409
1844.000000	54.918509
1843.000000	54.880680
1842.000000	54.849540
1841.000000	54.795552
1840.000000	54.757631
1839.000000	54.752512
1838.000000	54.763573
1837.000000	54.704318
1836.000000	54.664363
1835.000000	54.600970
1834.000000	54.579192
1833.000000	54.583314
1832.000000	54.537242
1831.000000	54.498754
1830.000000	54.477403
1829.000000	54.411803
1828.000000	54.390116
1827.000000	54.383724
1826.000000	54.331463
1825.000000	54.288638
1824.000000	54.273457
1823.000000	54.263785
1822.000000	54.246101
1821.000000	54.191426
1820.000000	54.127191
1819.000000	54.110676
1818.000000	54.103752
1817.000000	54.087579
1816.000000	54.036151
1815.000000	54.003332
1814.000000	53.982995
1813.000000	53.948766
1812.000000	53.924005
1811.000000	53.904256
1810.000000	53.883095
1809.000000	53.887593
1808.000000	53.873703
1807.000000	53.792978
1806.000000	53.760111
1805.000000	53.762159
1804.000000	53.733159
1803.000000	53.729578
1802.000000	53.711928
1801.000000	53.686404
1800.000000	53.661555
1799.000000	53.638318
1798.000000	53.618548
1797.000000	53.605568
1796.000000	53.607203
1795.000000	53.576920
1794.000000	53.563383
1793.000000	53.556024
1792.000000	53.525525
1791.000000	53.516134
1790.000000	53.492423
1789.000000	53.470102
1788.000000	53.451881
1787.000000	53.417665
1786.000000	53.425624
1785.000000	53.414433
1784.000000	53.369354
1783.000000	53.342402
1782.000000	53.304709
1781.000000	53.261564
1780.000000	53.242031
1779.000000	53.215086
1778.000000	53.196649
1777.000000	53.146994
1776.000000	53.075262
1775.000000	53.023490
1774.000000	52.976651
1773.000000	52.944805
1772.000000	52.881097
1771.000000	52.831768
1770.000000	52.792513
1769.000000	52.733801
1768.000000	52.681655
1767.000000	52.618744
1766.000000	52.586000
1765.000000	52.548760
1764.000000	52.521411
1763.000000	52.475966
1762.000000	52.442732
1761.000000	52.411890
1760.000000	52.339174
1759.000000	52.294874
1758.000000	52.241831
1757.000000	52.219530
1756.000000	52.196126
1755.000000	52.151181
1754.000000	52.102689
1753.000000	52.050321
1752.000000	52.010946
1751.000000	51.957305
1750.000000	51.909098
1749.000000	51.881461
1748.000000	51.802972
1747.000000	51.748628
1746.000000	51.709300
1745.000000	51.625903
1744.000000	51.571691
1743.000000	51.534877
1742.000000	51.489593
1741.000000	51.423875
1740.000000	51.371015
1739.000000	51.338794
1738.000000	51.305917
1737.000000	51.276722
1736.000000	51.232921
1735.000000	51.250556
1734.000000	51.279142
1733.000000	51.206627
1732.000000	51.207264
1731.000000	51.218268
1730.000000	51.265581
1729.000000	51.276853
1728.000000	51.341067
1727.000000	51.372106
1726.000000	51.429939
1725.000000	51.487126
1724.000000	51.552401
1723.000000	51.660749
1722.000000	51.766806
1721.000000	51.833038
1720.000000	51.934781
1719.000000	52.045185
1718.000000	52.120814
1717.000000	52.182797
1716.000000	52.282334
1715.000000	52.387791
1714.000000	52.438827
1713.000000	52.568590
1712.000000	52.604114
1711.000000	52.695912
1710.000000	52.759534
1709.000000	52.800071
1708.000000	52.853971
1707.000000	52.916156
1706.000000	52.987258
1705.000000	53.022719
1704.000000	53.058741
1703.000000	53.089540
1702.000000	53.151972
1701.000000	53.167740
1700.000000	53.166506
1699.000000	53.196063
1698.000000	53.281266
1697.000000	53.288716
1696.000000	53.337945
1695.000000	53.370718
1694.000000	53.402636
1693.000000	53.462677
1692.000000	53.515405
1691.000000	53.600048
1690.000000	53.675184
1689.000000	53.760574
1688.000000	53.896522
1687.000000	53.951005
1686.000000	54.101762
1685.000000	54.196639
1684.000000	54.350233
1683.000000	54.442613
1682.000000	54.618147
1681.000000	54.778416
1680.000000	54.872967
1679.000000	55.005363
1678.000000	55.204440
1677.000000	55.293959
1676.000000	55.482849
1675.000000	55.646224
1674.000000	55.778383
1673.000000	55.905774
1672.000000	56.019581
1671.000000	56.169044
1670.000000	56.315571
1669.000000	56.433486
1668.000000	56.540058
1667.000000	56.677693
1666.000000	56.745767
1665.000000	56.809146
1664.000000	56.899417
1663.000000	56.960549
1662.000000	57.057603
1661.000000	57.113061
1660.000000	57.144898
1659.000000	57.209862
1658.000000	57.257908
1657.000000	57.269731
1656.000000	57.279812
1655.000000	57.341269
1654.000000	57.360375
1653.000000	57.380172
1652.000000	57.400182
1651.000000	57.389449
1650.000000	57.388875
1649.000000	57.388671
1648.000000	57.350362
1647.000000	57.379981
1646.000000	57.379494
1645.000000	57.337263
1644.000000	57.368797
1643.000000	57.338762
1642.000000	57.310969
1641.000000	57.286459
1640.000000	57.251533
1639.000000	57.248348
1638.000000	57.216980
1637.000000	57.181494
1636.000000	57.138862
1635.000000	57.132550
1634.000000	57.098449
1633.000000	57.065386
1632.000000	57.038185
1631.000000	57.008581
1630.000000	56.972958
1629.000000	56.955708
1628.000000	56.903413
1627.000000	56.868212
1626.000000	56.836803
1625.000000	56.806987
1624.000000	56.787747
1623.000000	56.755428
1622.000000	56.709384
1621.000000	56.652420
1620.000000	56.611552
1619.000000	56.570394
1618.000000	56.511554
1617.000000	56.467587
1616.000000	56.422664
1615.000000	56.390398
1614.000000	56.347366
1613.000000	56.295288
1612.000000	56.251995
1611.000000	56.209218
1610.000000	56.161145
1609.000000	56.111479
1608.000000	56.063524
1607.000000	56.007777
1606.000000	55.945077
1605.000000	55.886468
1604.000000	55.839875
1603.000000	55.787495
1602.000000	55.745783
1601.000000	55.703221
1600.000000	55.647519
1599.000000	55.601189
1598.000000	55.560238
1597.000000	55.514613
1596.000000	55.463670
1595.000000	55.411657
1594.000000	55.374437
1593.000000	55.347396
1592.000000	55.293951
1591.000000	55.223720
1590.000000	55.197924
1589.000000	55.149799
1588.000000	55.083051
1587.000000	55.053773
1586.000000	55.032561
1585.000000	55.003684
1584.000000	54.947948
1583.000000	54.910324
1582.000000	54.871259
1581.000000	54.835376
1580.000000	54.808174
1579.000000	54.768851
1578.000000	54.728719
1577.000000	54.687813
1576.000000	54.640676
1575.000000	54.613794
1574.000000	54.583023
1573.000000	54.532221
1572.000000	54.486726
1571.000000	54.449491
1570.000000	54.419888
1569.000000	54.384300
1568.000000	54.360240
1567.000000	54.319803
1566.000000	54.292087
1565.000000	54.260719
1564.000000	54.248798
1563.000000	54.236849
1562.000000	54.198561
1561.000000	54.175838
1560.000000	54.148692
1559.000000	54.109180
1558.000000	54.081758
1557.000000	54.068065
1556.000000	54.066213
1555.000000	54.035473
1554.000000	53.997917
1553.000000	53.967985
1552.000000	53.942772
1551.000000	53.907090
1550.000000	53.857791
1549.000000	53.833348
1548.000000	53.799265
1547.000000	53.747738
1546.000000	53.720979
1545.000000	53.665322
1544.000000	53.579631
1543.000000	53.525523
1542.000000	53.457367
1541.000000	53.390654
1540.000000	53.304368
1539.000000	53.245784
1538.000000	53.162647
1537.000000	53.069803
1536.000000	53.006061
1535.000000	52.940688
1534.000000	52.867911
1533.000000	52.810333
1532.000000	52.736799
1531.000000	52.679364
1530.000000	52.616871
1529.000000	52.550865
1528.000000	52.480053
1527.000000	52.409577
1526.000000	52.355333
1525.000000	52.324678
1524.000000	52.267422
1523.000000	52.206249
1522.000000	52.162505
1521.000000	52.142148
1520.000000	52.094210
1519.000000	52.052034
1518.000000	52.047196
1517.000000	52.006410
1516.000000	51.970655
1515.000000	51.945786
1514.000000	51.907496
1513.000000	51.902994
1512.000000	51.903131
1511.000000	51.858357
1510.000000	51.841831
1509.000000	51.815684
1508.000000	51.799150
1507.000000	51.807666
1506.000000	51.791234
1505.000000	51.753972
1504.000000	51.752653
1503.000000	51.767199
1502.000000	51.740496
1501.000000	51.724438
1500.000000	51.712972
1499.000000	51.720900
1498.000000	51.715144
1497.000000	51.719817
1496.000000	51.728395
1495.000000	51.743197
1494.000000	51.746998
1493.000000	51.770245
1492.000000	51.763520
1491.000000	51.788326
1490.000000	51.819784
1489.000000	51.830137
1488.000000	51.857696
1487.000000	51.885367
1486.000000	51.894631
1485.000000	51.900657
1484.000000	51.916163
1483.000000	51.968390
1482.000000	51.983549
1481.000000	52.008403
1480.000000	52.061265
1479.000000	52.094817
1478.000000	52.126812
1477.000000	52.127433
1476.000000	52.152391
1475.000000	52.196742
1474.000000	52.230980
1473.000000	52.261917
1472.000000	52.308655
1471.000000	52.351635
1470.000000	52.356470
