PE UV       SUBTECH     SPECTRUM    ASCII       PEDS        4.00        
   -1
RDms1482151.Sample.asc
18/03/15
11:29:14.00
18/03/15
11:29:14.00
Administrator

200.000000
1
Lambda 750
750N8071901
PerkinElmer UV WinLab 6.0.4.0738 / 1.61.00 Lambda 900

0
0
3350/servo 860.8/2
0
0
UV/VIS
1
1
1
CommonBeamDepol,150mm sphere / downward view
0
0
0
0
Program
Program
3350/servo 860.8/2
3350/0.2 860.8/0.2
3350/0.2 860.8/0.2
0
1
 
 
 
0
 
860.8
319.2
860.8
Front
100
on
 
 
0
0
0
 
0
 
 
 
0
 
 
0
0
0
0
0
 
 
 
 
0
0


0
0
#HDR
-1
-1
#GR
nm
%R
1.0
0.0
2350.000000
-1.000000
2151
8
76.065334
9.552538
#DATA
2350.000000	21.863054
2349.000000	21.834950
2348.000000	21.754072
2347.000000	22.280458
2346.000000	22.193324
2345.000000	21.732330
2344.000000	21.934171
2343.000000	21.772640
2342.000000	22.024203
2341.000000	22.330103
2340.000000	22.174053
2339.000000	22.380443
2338.000000	22.607797
2337.000000	22.741292
2336.000000	23.113775
2335.000000	23.336201
2334.000000	22.939139
2333.000000	23.076403
2332.000000	23.316404
2331.000000	23.128118
2330.000000	22.835767
2329.000000	22.912505
2328.000000	23.041437
2327.000000	22.715012
2326.000000	23.045944
2325.000000	22.582559
2324.000000	22.395435
2323.000000	22.481559
2322.000000	22.511763
2321.000000	22.305477
2320.000000	22.576270
2319.000000	22.347265
2318.000000	22.361554
2317.000000	22.135236
2316.000000	21.896114
2315.000000	21.852336
2314.000000	21.954314
2313.000000	21.695067
2312.000000	21.722196
2311.000000	21.757245
2310.000000	21.659184
2309.000000	21.619378
2308.000000	21.632677
2307.000000	21.504810
2306.000000	21.373773
2305.000000	21.572473
2304.000000	21.590255
2303.000000	21.673293
2302.000000	21.396090
2301.000000	21.255285
2300.000000	21.192330
2299.000000	21.306788
2298.000000	21.261705
2297.000000	21.327489
2296.000000	21.365740
2295.000000	21.320352
2294.000000	21.239116
2293.000000	21.167431
2292.000000	21.160171
2291.000000	21.308073
2290.000000	21.209683
2289.000000	21.097825
2288.000000	21.326111
2287.000000	21.485632
2286.000000	21.569036
2285.000000	21.309169
2284.000000	21.053748
2283.000000	21.054280
2282.000000	21.164977
2281.000000	21.258103
2280.000000	21.414680
2279.000000	21.367565
2278.000000	21.353590
2277.000000	21.479383
2276.000000	21.482847
2275.000000	21.533371
2274.000000	21.690692
2273.000000	21.851191
2272.000000	22.031310
2271.000000	21.928730
2270.000000	21.720234
2269.000000	22.024485
2268.000000	22.214049
2267.000000	22.319005
2266.000000	22.368905
2265.000000	22.570286
2264.000000	22.723405
2263.000000	22.814407
2262.000000	22.880786
2261.000000	23.199817
2260.000000	23.559972
2259.000000	23.516562
2258.000000	23.544749
2257.000000	23.843876
2256.000000	24.062873
2255.000000	24.224384
2254.000000	24.372412
2253.000000	24.640636
2252.000000	25.053222
2251.000000	25.230727
2250.000000	25.333383
2249.000000	25.480692
2248.000000	25.636469
2247.000000	25.759618
2246.000000	26.008592
2245.000000	26.333452
2244.000000	26.548111
2243.000000	26.793890
2242.000000	26.851155
2241.000000	26.882374
2240.000000	27.064079
2239.000000	27.257652
2238.000000	27.366500
2237.000000	27.424338
2236.000000	27.529482
2235.000000	27.695898
2234.000000	27.865594
2233.000000	27.900723
2232.000000	27.892902
2231.000000	27.960718
2230.000000	28.080172
2229.000000	27.964137
2228.000000	27.995758
2227.000000	28.033074
2226.000000	28.050374
2225.000000	27.952858
2224.000000	27.926155
2223.000000	27.908786
2222.000000	27.868129
2221.000000	27.743609
2220.000000	27.767169
2219.000000	27.834858
2218.000000	27.627910
2217.000000	27.510190
2216.000000	27.659693
2215.000000	27.666579
2214.000000	27.630516
2213.000000	27.595379
2212.000000	27.353682
2211.000000	27.387730
2210.000000	27.377999
2209.000000	27.210970
2208.000000	27.166391
2207.000000	26.991742
2206.000000	26.908950
2205.000000	26.959963
2204.000000	26.987953
2203.000000	26.862686
2202.000000	26.779838
2201.000000	26.552255
2200.000000	26.431326
2199.000000	26.416375
2198.000000	26.426938
2197.000000	26.383338
2196.000000	26.305442
2195.000000	26.224414
2194.000000	26.099493
2193.000000	25.928305
2192.000000	25.893918
2191.000000	25.862609
2190.000000	25.884090
2189.000000	25.656542
2188.000000	25.661836
2187.000000	25.724605
2186.000000	25.647967
2185.000000	25.518784
2184.000000	25.499090
2183.000000	25.547181
2182.000000	25.547821
2181.000000	25.378078
2180.000000	25.406774
2179.000000	25.284809
2178.000000	25.060601
2177.000000	25.270813
2176.000000	25.242846
2175.000000	25.326210
2174.000000	25.420210
2173.000000	25.359433
2172.000000	25.538214
2171.000000	25.549721
2170.000000	25.579595
2169.000000	25.592463
2168.000000	25.771086
2167.000000	25.849738
2166.000000	25.865783
2165.000000	26.052237
2164.000000	26.150491
2163.000000	26.096667
2162.000000	26.239592
2161.000000	26.170767
2160.000000	26.618358
2159.000000	26.559375
2158.000000	26.753638
2157.000000	27.028106
2156.000000	27.082634
2155.000000	27.284260
2154.000000	27.474979
2153.000000	27.566381
2152.000000	27.822263
2151.000000	27.896139
2150.000000	27.968050
2149.000000	28.043674
2148.000000	28.341456
2147.000000	28.431985
2146.000000	28.513623
2145.000000	28.771519
2144.000000	29.026347
2143.000000	29.184894
2142.000000	29.187208
2141.000000	29.365156
2140.000000	29.623847
2139.000000	29.671713
2138.000000	29.819085
2137.000000	30.056103
2136.000000	29.996097
2135.000000	30.110956
2134.000000	30.355692
2133.000000	30.327325
2132.000000	30.548338
2131.000000	30.808656
2130.000000	30.845026
2129.000000	30.799611
2128.000000	30.877686
2127.000000	30.932802
2126.000000	31.079454
2125.000000	31.190098
2124.000000	31.236983
2123.000000	31.254505
2122.000000	31.182479
2121.000000	31.344509
2120.000000	31.317446
2119.000000	31.374608
2118.000000	31.438773
2117.000000	31.586676
2116.000000	31.804523
2115.000000	31.972318
2114.000000	31.763427
2113.000000	31.776785
2112.000000	31.789490
2111.000000	31.792387
2110.000000	31.807864
2109.000000	32.011642
2108.000000	31.906261
2107.000000	31.914199
2106.000000	31.988783
2105.000000	31.958627
2104.000000	31.963066
2103.000000	31.962623
2102.000000	32.000137
2101.000000	32.040034
2100.000000	32.030905
2099.000000	32.022532
2098.000000	32.065014
2097.000000	32.020788
2096.000000	31.959291
2095.000000	31.921137
2094.000000	31.941426
2093.000000	31.878397
2092.000000	31.918661
2091.000000	31.981381
2090.000000	31.908721
2089.000000	31.946882
2088.000000	31.888191
2087.000000	31.767083
2086.000000	31.756142
2085.000000	31.707137
2084.000000	31.563165
2083.000000	31.559429
2082.000000	31.415535
2081.000000	31.185558
2080.000000	31.113880
2079.000000	31.101926
2078.000000	31.036960
2077.000000	30.895011
2076.000000	30.790055
2075.000000	30.651243
2074.000000	30.494146
2073.000000	30.316111
2072.000000	30.231983
2071.000000	30.093792
2070.000000	29.901913
2069.000000	29.695988
2068.000000	29.550280
2067.000000	29.439815
2066.000000	29.224224
2065.000000	29.036756
2064.000000	28.927790
2063.000000	28.771666
2062.000000	28.592158
2061.000000	28.416037
2060.000000	28.334464
2059.000000	28.251090
2058.000000	28.106949
2057.000000	28.008812
2056.000000	27.928640
2055.000000	27.820194
2054.000000	27.665755
2053.000000	27.510697
2052.000000	27.414167
2051.000000	27.270955
2050.000000	27.261730
2049.000000	27.281118
2048.000000	27.163947
2047.000000	27.107159
2046.000000	27.089007
2045.000000	27.094239
2044.000000	27.155537
2043.000000	27.140697
2042.000000	27.134385
2041.000000	27.206637
2040.000000	27.262919
2039.000000	27.312746
2038.000000	27.411234
2037.000000	27.480396
2036.000000	27.549370
2035.000000	27.672999
2034.000000	27.786145
2033.000000	27.844459
2032.000000	27.991378
2031.000000	28.117058
2030.000000	28.204584
2029.000000	28.321436
2028.000000	28.398165
2027.000000	28.486092
2026.000000	28.606066
2025.000000	28.697100
2024.000000	28.785365
2023.000000	28.831185
2022.000000	28.883241
2021.000000	28.958104
2020.000000	28.979674
2019.000000	29.001904
2018.000000	29.034671
2017.000000	29.032353
2016.000000	29.002134
2015.000000	28.944479
2014.000000	28.945603
2013.000000	28.923378
2012.000000	28.887022
2011.000000	28.859550
2010.000000	28.804702
2009.000000	28.714007
2008.000000	28.622105
2007.000000	28.498692
2006.000000	28.412445
2005.000000	28.350318
2004.000000	28.270412
2003.000000	28.181658
2002.000000	28.093746
2001.000000	27.954563
2000.000000	27.850663
1999.000000	27.787720
1998.000000	27.651071
1997.000000	27.541738
1996.000000	27.425747
1995.000000	27.344142
1994.000000	27.234295
1993.000000	27.085266
1992.000000	26.970948
1991.000000	26.838204
1990.000000	26.744234
1989.000000	26.639948
1988.000000	26.533209
1987.000000	26.427966
1986.000000	26.305887
1985.000000	26.179945
1984.000000	26.070653
1983.000000	25.959867
1982.000000	25.890897
1981.000000	25.765056
1980.000000	25.643305
1979.000000	25.506847
1978.000000	25.429476
1977.000000	25.326044
1976.000000	25.259214
1975.000000	25.138863
1974.000000	24.986161
1973.000000	24.909395
1972.000000	24.816557
1971.000000	24.729727
1970.000000	24.644653
1969.000000	24.536847
1968.000000	24.410753
1967.000000	24.360102
1966.000000	24.257549
1965.000000	24.182891
1964.000000	24.022441
1963.000000	23.939090
1962.000000	23.820036
1961.000000	23.765883
1960.000000	23.688858
1959.000000	23.540316
1958.000000	23.482479
1957.000000	23.429028
1956.000000	23.387416
1955.000000	23.370972
1954.000000	23.247183
1953.000000	23.163508
1952.000000	23.154312
1951.000000	23.153857
1950.000000	23.056258
1949.000000	23.003706
1948.000000	23.040467
1947.000000	22.980232
1946.000000	22.980288
1945.000000	22.938293
1944.000000	22.896204
1943.000000	22.962712
1942.000000	22.880541
1941.000000	22.920239
1940.000000	22.984967
1939.000000	23.023422
1938.000000	23.080533
1937.000000	23.178735
1936.000000	23.238252
1935.000000	23.300631
1934.000000	23.516177
1933.000000	23.532048
1932.000000	23.669257
1931.000000	23.826669
1930.000000	23.845818
1929.000000	24.030837
1928.000000	24.245310
1927.000000	24.413313
1926.000000	24.689127
1925.000000	24.920282
1924.000000	25.196610
1923.000000	25.389695
1922.000000	25.715318
1921.000000	25.996696
1920.000000	26.254690
1919.000000	26.610349
1918.000000	26.861044
1917.000000	27.330993
1916.000000	27.505189
1915.000000	27.998641
1914.000000	28.450164
1913.000000	28.886083
1912.000000	29.238607
1911.000000	29.841540
1910.000000	30.236391
1909.000000	30.671802
1908.000000	31.200894
1907.000000	31.783663
1906.000000	32.357753
1905.000000	32.937330
1904.000000	33.501078
1903.000000	34.077609
1902.000000	34.754883
1901.000000	35.330748
1900.000000	35.976806
1899.000000	36.664748
1898.000000	37.360647
1897.000000	37.940051
1896.000000	38.635019
1895.000000	39.334094
1894.000000	40.016660
1893.000000	40.685917
1892.000000	41.347237
1891.000000	41.928069
1890.000000	42.597107
1889.000000	43.228620
1888.000000	43.777117
1887.000000	44.428919
1886.000000	44.967476
1885.000000	45.584468
1884.000000	46.107247
1883.000000	46.654396
1882.000000	47.193009
1881.000000	47.713348
1880.000000	48.200549
1879.000000	48.606672
1878.000000	49.117540
1877.000000	49.548422
1876.000000	49.931340
1875.000000	50.303169
1874.000000	50.750237
1873.000000	50.988041
1872.000000	51.363202
1871.000000	51.707570
1870.000000	51.986376
1869.000000	52.201039
1868.000000	52.481052
1867.000000	52.667284
1866.000000	52.838103
1865.000000	53.054083
1864.000000	53.161576
1863.000000	53.321374
1862.000000	53.465141
1861.000000	53.612476
1860.000000	53.688416
1859.000000	53.738712
1858.000000	53.836052
1857.000000	53.900947
1856.000000	53.933276
1855.000000	53.970596
1854.000000	54.028000
1853.000000	54.088947
1852.000000	54.107046
1851.000000	54.116141
1850.000000	54.068220
1849.000000	54.108363
1848.000000	54.138286
1847.000000	54.118797
1846.000000	54.109896
1845.000000	54.075871
1844.000000	54.015919
1843.000000	53.951763
1842.000000	53.930533
1841.000000	53.856404
1840.000000	53.790966
1839.000000	53.806791
1838.000000	53.752749
1837.000000	53.629184
1836.000000	53.541261
1835.000000	53.490620
1834.000000	53.452596
1833.000000	53.391484
1832.000000	53.332328
1831.000000	53.244552
1830.000000	53.174708
1829.000000	53.105487
1828.000000	53.062121
1827.000000	52.988654
1826.000000	52.909135
1825.000000	52.876350
1824.000000	52.820188
1823.000000	52.763053
1822.000000	52.685740
1821.000000	52.629244
1820.000000	52.567735
1819.000000	52.516624
1818.000000	52.489650
1817.000000	52.422553
1816.000000	52.343513
1815.000000	52.294422
1814.000000	52.264560
1813.000000	52.203024
1812.000000	52.149376
1811.000000	52.122665
1810.000000	52.061885
1809.000000	51.999315
1808.000000	51.976017
1807.000000	51.934313
1806.000000	51.881830
1805.000000	51.810768
1804.000000	51.764043
1803.000000	51.739970
1802.000000	51.698177
1801.000000	51.662607
1800.000000	51.607652
1799.000000	51.558801
1798.000000	51.524005
1797.000000	51.512441
1796.000000	51.485677
1795.000000	51.438313
1794.000000	51.412990
1793.000000	51.366351
1792.000000	51.310649
1791.000000	51.285839
1790.000000	51.264650
1789.000000	51.212530
1788.000000	51.178999
1787.000000	51.118626
1786.000000	51.075552
1785.000000	51.042021
1784.000000	50.956847
1783.000000	50.900295
1782.000000	50.842711
1781.000000	50.777708
1780.000000	50.695775
1779.000000	50.620195
1778.000000	50.547091
1777.000000	50.407813
1776.000000	50.282649
1775.000000	50.214978
1774.000000	50.133548
1773.000000	50.043424
1772.000000	49.927749
1771.000000	49.824812
1770.000000	49.727669
1769.000000	49.605602
1768.000000	49.517023
1767.000000	49.420379
1766.000000	49.335811
1765.000000	49.216925
1764.000000	49.120881
1763.000000	49.015345
1762.000000	48.945448
1761.000000	48.840519
1760.000000	48.733119
1759.000000	48.659311
1758.000000	48.592749
1757.000000	48.483745
1756.000000	48.388020
1755.000000	48.315540
1754.000000	48.237260
1753.000000	48.134786
1752.000000	48.014309
1751.000000	47.930014
1750.000000	47.842172
1749.000000	47.736921
1748.000000	47.587704
1747.000000	47.482430
1746.000000	47.409296
1745.000000	47.290973
1744.000000	47.162986
1743.000000	47.045209
1742.000000	46.927392
1741.000000	46.823625
1740.000000	46.697162
1739.000000	46.626341
1738.000000	46.563248
1737.000000	46.470980
1736.000000	46.406771
1735.000000	46.366668
1734.000000	46.348157
1733.000000	46.290057
1732.000000	46.304991
1731.000000	46.307575
1730.000000	46.315533
1729.000000	46.350059
1728.000000	46.475286
1727.000000	46.549950
1726.000000	46.616083
1725.000000	46.760963
1724.000000	46.889265
1723.000000	47.029578
1722.000000	47.195638
1721.000000	47.323230
1720.000000	47.490794
1719.000000	47.634734
1718.000000	47.798856
1717.000000	47.985637
1716.000000	48.096855
1715.000000	48.277180
1714.000000	48.424519
1713.000000	48.582277
1712.000000	48.728485
1711.000000	48.837193
1710.000000	48.964947
1709.000000	49.093618
1708.000000	49.161133
1707.000000	49.284066
1706.000000	49.382170
1705.000000	49.485734
1704.000000	49.559155
1703.000000	49.614733
1702.000000	49.665008
1701.000000	49.730348
1700.000000	49.805849
1699.000000	49.871728
1698.000000	49.964458
1697.000000	50.046638
1696.000000	50.161611
1695.000000	50.239925
1694.000000	50.337962
1693.000000	50.490844
1692.000000	50.617253
1691.000000	50.740900
1690.000000	50.930863
1689.000000	51.122123
1688.000000	51.347558
1687.000000	51.534328
1686.000000	51.770500
1685.000000	52.004144
1684.000000	52.295968
1683.000000	52.556477
1682.000000	52.816653
1681.000000	53.128955
1680.000000	53.416602
1679.000000	53.714157
1678.000000	54.033241
1677.000000	54.300309
1676.000000	54.589256
1675.000000	54.916289
1674.000000	55.252550
1673.000000	55.501335
1672.000000	55.798242
1671.000000	56.044431
1670.000000	56.309386
1669.000000	56.602030
1668.000000	56.803384
1667.000000	57.044656
1666.000000	57.257687
1665.000000	57.420175
1664.000000	57.576691
1663.000000	57.718948
1662.000000	57.868241
1661.000000	57.998723
1660.000000	58.101166
1659.000000	58.237222
1658.000000	58.330022
1657.000000	58.403594
1656.000000	58.464745
1655.000000	58.533043
1654.000000	58.578372
1653.000000	58.596411
1652.000000	58.630624
1651.000000	58.619327
1650.000000	58.658074
1649.000000	58.656192
1648.000000	58.644645
1647.000000	58.636638
1646.000000	58.610567
1645.000000	58.570145
1644.000000	58.583409
1643.000000	58.526988
1642.000000	58.521500
1641.000000	58.449645
1640.000000	58.421510
1639.000000	58.388934
1638.000000	58.314572
1637.000000	58.270524
1636.000000	58.205737
1635.000000	58.153650
1634.000000	58.089079
1633.000000	58.035159
1632.000000	57.992122
1631.000000	57.932304
1630.000000	57.842994
1629.000000	57.777323
1628.000000	57.692374
1627.000000	57.612255
1626.000000	57.544883
1625.000000	57.456106
1624.000000	57.397537
1623.000000	57.350303
1622.000000	57.272269
1621.000000	57.155002
1620.000000	57.082778
1619.000000	57.002391
1618.000000	56.903566
1617.000000	56.824834
1616.000000	56.738065
1615.000000	56.634376
1614.000000	56.545859
1613.000000	56.464915
1612.000000	56.364259
1611.000000	56.256434
1610.000000	56.168340
1609.000000	56.056258
1608.000000	55.939827
1607.000000	55.867247
1606.000000	55.774646
1605.000000	55.665481
1604.000000	55.552730
1603.000000	55.440954
1602.000000	55.336188
1601.000000	55.241986
1600.000000	55.142448
1599.000000	55.038629
1598.000000	54.936102
1597.000000	54.844612
1596.000000	54.757471
1595.000000	54.670089
1594.000000	54.577489
1593.000000	54.499132
1592.000000	54.402371
1591.000000	54.300451
1590.000000	54.216991
1589.000000	54.125371
1588.000000	54.045065
1587.000000	53.975269
1586.000000	53.910397
1585.000000	53.839037
1584.000000	53.749753
1583.000000	53.683377
1582.000000	53.603297
1581.000000	53.523899
1580.000000	53.460417
1579.000000	53.363054
1578.000000	53.295829
1577.000000	53.228444
1576.000000	53.148536
1575.000000	53.070814
1574.000000	52.988382
1573.000000	52.925260
1572.000000	52.876307
1571.000000	52.796861
1570.000000	52.726869
1569.000000	52.671466
1568.000000	52.607331
1567.000000	52.553675
1566.000000	52.501122
1565.000000	52.443270
1564.000000	52.381150
1563.000000	52.344543
1562.000000	52.304521
1561.000000	52.248442
1560.000000	52.198803
1559.000000	52.126349
1558.000000	52.088606
1557.000000	52.054822
1556.000000	52.015328
1555.000000	51.956302
1554.000000	51.883488
1553.000000	51.813666
1552.000000	51.736816
1551.000000	51.682062
1550.000000	51.616683
1549.000000	51.531547
1548.000000	51.444969
1547.000000	51.346488
1546.000000	51.247112
1545.000000	51.135862
1544.000000	51.027468
1543.000000	50.900507
1542.000000	50.787010
1541.000000	50.668955
1540.000000	50.544594
1539.000000	50.426608
1538.000000	50.286013
1537.000000	50.122505
1536.000000	49.998431
1535.000000	49.877136
1534.000000	49.757683
1533.000000	49.637309
1532.000000	49.503321
1531.000000	49.372546
1530.000000	49.265894
1529.000000	49.147179
1528.000000	49.043711
1527.000000	48.935666
1526.000000	48.847000
1525.000000	48.748710
1524.000000	48.666100
1523.000000	48.587820
1522.000000	48.499968
1521.000000	48.436715
1520.000000	48.361121
1519.000000	48.324120
1518.000000	48.266822
1517.000000	48.194049
1516.000000	48.146130
1515.000000	48.085609
1514.000000	48.039328
1513.000000	48.018795
1512.000000	47.975909
1511.000000	47.915071
1510.000000	47.906237
1509.000000	47.861402
1508.000000	47.830729
1507.000000	47.833841
1506.000000	47.802025
1505.000000	47.767552
1504.000000	47.770581
1503.000000	47.759084
1502.000000	47.777924
1501.000000	47.752532
1500.000000	47.743232
1499.000000	47.738824
1498.000000	47.782139
1497.000000	47.792048
1496.000000	47.788586
1495.000000	47.842569
1494.000000	47.859940
1493.000000	47.887477
1492.000000	47.930296
1491.000000	47.962522
1490.000000	48.021494
1489.000000	48.061597
1488.000000	48.114756
1487.000000	48.198499
1486.000000	48.249812
1485.000000	48.288199
1484.000000	48.341776
1483.000000	48.445470
1482.000000	48.474610
1481.000000	48.534852
1480.000000	48.599417
1479.000000	48.657226
1478.000000	48.716137
1477.000000	48.783384
1476.000000	48.830625
1475.000000	48.900161
1474.000000	48.953706
1473.000000	49.005368
1472.000000	49.063509
1471.000000	49.116295
1470.000000	49.163954
