PE UV       SUBTECH     SPECTRUM    ASCII       PEDS        4.00        
   -1
RDms1482161.Sample.asc
18/03/15
12:32:00.00
18/03/15
12:32:00.00
Administrator

200.000000
1
Lambda 750
750N8071901
PerkinElmer UV WinLab 6.0.4.0738 / 1.61.00 Lambda 900

0
0
3350/servo 860.8/2
0
0
UV/VIS
1
1
1
CommonBeamDepol,150mm sphere / downward view
0
0
0
0
Program
Program
3350/servo 860.8/2
3350/0.2 860.8/0.2
3350/0.2 860.8/0.2
0
1
 
 
 
0
 
860.8
319.2
860.8
Front
100
on
 
 
0
0
0
 
0
 
 
 
0
 
 
0
0
0
0
0
 
 
 
 
0
0


0
0
#HDR
-1
-1
#GR
nm
%R
1.0
0.0
2350.000000
-1.000000
2151
8
71.791837
7.578283
#DATA
2350.000000	35.858701
2349.000000	36.311649
2348.000000	36.070370
2347.000000	36.388704
2346.000000	36.300598
2345.000000	36.088716
2344.000000	35.851172
2343.000000	36.091851
2342.000000	36.050367
2341.000000	36.493593
2340.000000	36.351502
2339.000000	36.541197
2338.000000	36.417787
2337.000000	36.592286
2336.000000	36.983773
2335.000000	36.861751
2334.000000	36.930181
2333.000000	37.083760
2332.000000	36.806310
2331.000000	37.014239
2330.000000	36.982862
2329.000000	36.798701
2328.000000	36.778814
2327.000000	36.681408
2326.000000	36.796505
2325.000000	36.712476
2324.000000	36.605896
2323.000000	36.368787
2322.000000	36.621163
2321.000000	36.469511
2320.000000	36.046272
2319.000000	36.139690
2318.000000	36.327959
2317.000000	36.166589
2316.000000	36.230890
2315.000000	35.962289
2314.000000	35.973841
2313.000000	35.732019
2312.000000	35.615742
2311.000000	35.617586
2310.000000	35.436739
2309.000000	35.451163
2308.000000	35.358597
2307.000000	35.335859
2306.000000	35.388135
2305.000000	35.259284
2304.000000	35.158013
2303.000000	35.107833
2302.000000	35.132861
2301.000000	34.774242
2300.000000	34.800101
2299.000000	35.115802
2298.000000	34.768604
2297.000000	34.603595
2296.000000	34.618850
2295.000000	34.422776
2294.000000	34.695154
2293.000000	34.583106
2292.000000	34.438817
2291.000000	34.535994
2290.000000	34.578121
2289.000000	34.395537
2288.000000	34.454166
2287.000000	34.499509
2286.000000	34.384218
2285.000000	34.254708
2284.000000	34.129920
2283.000000	34.140642
2282.000000	34.206689
2281.000000	34.331530
2280.000000	34.476854
2279.000000	34.485800
2278.000000	34.421079
2277.000000	34.298210
2276.000000	34.275394
2275.000000	34.578619
2274.000000	34.769794
2273.000000	34.794063
2272.000000	34.928881
2271.000000	35.032248
2270.000000	34.895182
2269.000000	34.988964
2268.000000	35.040153
2267.000000	34.967674
2266.000000	35.217217
2265.000000	35.459949
2264.000000	35.630443
2263.000000	35.599751
2262.000000	35.774179
2261.000000	35.961944
2260.000000	36.096139
2259.000000	36.544132
2258.000000	36.801075
2257.000000	36.939893
2256.000000	37.077496
2255.000000	37.178374
2254.000000	37.475607
2253.000000	37.649914
2252.000000	37.931226
2251.000000	38.119383
2250.000000	38.295197
2249.000000	38.597645
2248.000000	38.742995
2247.000000	38.793477
2246.000000	39.008700
2245.000000	39.411281
2244.000000	39.690231
2243.000000	39.975272
2242.000000	40.021198
2241.000000	40.115258
2240.000000	40.363213
2239.000000	40.481622
2238.000000	40.595669
2237.000000	40.686698
2236.000000	40.888078
2235.000000	41.030398
2234.000000	41.130185
2233.000000	41.198373
2232.000000	41.149078
2231.000000	41.090636
2230.000000	41.256092
2229.000000	41.238471
2228.000000	41.356364
2227.000000	41.373933
2226.000000	41.285605
2225.000000	41.378836
2224.000000	41.224921
2223.000000	41.206298
2222.000000	41.154386
2221.000000	41.104500
2220.000000	41.135016
2219.000000	41.010966
2218.000000	40.969399
2217.000000	40.897636
2216.000000	40.854963
2215.000000	40.916263
2214.000000	40.946209
2213.000000	40.948980
2212.000000	40.898024
2211.000000	40.714932
2210.000000	40.644701
2209.000000	40.408688
2208.000000	40.481227
2207.000000	40.443109
2206.000000	40.363222
2205.000000	40.197126
2204.000000	40.139052
2203.000000	40.056302
2202.000000	40.070807
2201.000000	40.008532
2200.000000	39.970715
2199.000000	39.874262
2198.000000	39.752366
2197.000000	39.641147
2196.000000	39.623345
2195.000000	39.510790
2194.000000	39.242868
2193.000000	39.068660
2192.000000	39.188942
2191.000000	39.209527
2190.000000	39.158593
2189.000000	38.858409
2188.000000	38.868621
2187.000000	38.863406
2186.000000	38.813719
2185.000000	38.793225
2184.000000	38.786898
2183.000000	38.751243
2182.000000	38.715572
2181.000000	38.696887
2180.000000	38.751504
2179.000000	38.605590
2178.000000	38.482759
2177.000000	38.556717
2176.000000	38.759277
2175.000000	38.694375
2174.000000	38.839483
2173.000000	38.765564
2172.000000	38.767540
2171.000000	38.860935
2170.000000	38.796402
2169.000000	39.046639
2168.000000	39.210142
2167.000000	39.098714
2166.000000	39.362217
2165.000000	39.568121
2164.000000	39.591212
2163.000000	39.691560
2162.000000	39.809829
2161.000000	39.949587
2160.000000	40.054254
2159.000000	40.061989
2158.000000	40.232206
2157.000000	40.425282
2156.000000	40.372782
2155.000000	40.701677
2154.000000	41.050337
2153.000000	40.969428
2152.000000	41.185732
2151.000000	41.190370
2150.000000	41.581940
2149.000000	41.785205
2148.000000	41.822883
2147.000000	42.097731
2146.000000	42.130200
2145.000000	42.296129
2144.000000	42.560230
2143.000000	42.427813
2142.000000	42.729189
2141.000000	42.782594
2140.000000	43.151577
2139.000000	43.271529
2138.000000	43.389684
2137.000000	43.525121
2136.000000	43.513156
2135.000000	43.705665
2134.000000	43.837289
2133.000000	43.718765
2132.000000	43.971856
2131.000000	44.027979
2130.000000	44.314618
2129.000000	44.231817
2128.000000	44.121107
2127.000000	44.307810
2126.000000	44.431971
2125.000000	44.387843
2124.000000	44.668834
2123.000000	44.543994
2122.000000	44.560818
2121.000000	44.627719
2120.000000	44.696454
2119.000000	44.825135
2118.000000	44.796037
2117.000000	44.861545
2116.000000	45.031828
2115.000000	45.128495
2114.000000	44.895932
2113.000000	44.939554
2112.000000	45.028960
2111.000000	44.999431
2110.000000	44.982296
2109.000000	45.204789
2108.000000	45.232634
2107.000000	45.221030
2106.000000	45.152784
2105.000000	45.188661
2104.000000	45.181462
2103.000000	45.186300
2102.000000	45.181425
2101.000000	45.215692
2100.000000	45.365482
2099.000000	45.209733
2098.000000	45.172326
2097.000000	45.208080
2096.000000	45.196518
2095.000000	45.146024
2094.000000	45.231920
2093.000000	45.080448
2092.000000	45.207409
2091.000000	45.159257
2090.000000	45.012680
2089.000000	45.063839
2088.000000	44.968564
2087.000000	44.893740
2086.000000	45.020872
2085.000000	44.985489
2084.000000	44.777871
2083.000000	44.722877
2082.000000	44.724524
2081.000000	44.639731
2080.000000	44.444938
2079.000000	44.485120
2078.000000	44.454986
2077.000000	44.279707
2076.000000	44.145474
2075.000000	43.938021
2074.000000	43.862248
2073.000000	43.784287
2072.000000	43.658430
2071.000000	43.560070
2070.000000	43.403824
2069.000000	43.189183
2068.000000	43.096909
2067.000000	43.029887
2066.000000	42.759887
2065.000000	42.457329
2064.000000	42.344278
2063.000000	42.200012
2062.000000	42.085593
2061.000000	41.959795
2060.000000	41.696558
2059.000000	41.566803
2058.000000	41.444664
2057.000000	41.281109
2056.000000	41.210999
2055.000000	41.071723
2054.000000	40.919888
2053.000000	40.828909
2052.000000	40.628862
2051.000000	40.451302
2050.000000	40.450037
2049.000000	40.349565
2048.000000	40.229593
2047.000000	40.181144
2046.000000	40.146397
2045.000000	40.112089
2044.000000	40.038024
2043.000000	40.062816
2042.000000	40.089363
2041.000000	40.133712
2040.000000	40.160261
2039.000000	40.176185
2038.000000	40.256794
2037.000000	40.309907
2036.000000	40.366192
2035.000000	40.471683
2034.000000	40.606276
2033.000000	40.734906
2032.000000	40.830925
2031.000000	40.922381
2030.000000	41.053871
2029.000000	41.184744
2028.000000	41.280481
2027.000000	41.375375
2026.000000	41.446705
2025.000000	41.529846
2024.000000	41.588994
2023.000000	41.647745
2022.000000	41.690223
2021.000000	41.732633
2020.000000	41.803902
2019.000000	41.785625
2018.000000	41.768306
2017.000000	41.805321
2016.000000	41.753443
2015.000000	41.684365
2014.000000	41.667316
2013.000000	41.606161
2012.000000	41.578849
2011.000000	41.531629
2010.000000	41.409979
2009.000000	41.304616
2008.000000	41.217269
2007.000000	41.121007
2006.000000	41.038737
2005.000000	40.956177
2004.000000	40.838812
2003.000000	40.750043
2002.000000	40.595494
2001.000000	40.430742
2000.000000	40.302531
1999.000000	40.203570
1998.000000	40.097921
1997.000000	39.969170
1996.000000	39.842404
1995.000000	39.721300
1994.000000	39.615206
1993.000000	39.473543
1992.000000	39.316912
1991.000000	39.180257
1990.000000	39.034786
1989.000000	38.927674
1988.000000	38.777082
1987.000000	38.649582
1986.000000	38.491599
1985.000000	38.374075
1984.000000	38.303541
1983.000000	38.116920
1982.000000	38.013620
1981.000000	37.921185
1980.000000	37.798316
1979.000000	37.617883
1978.000000	37.470413
1977.000000	37.365561
1976.000000	37.241851
1975.000000	37.148735
1974.000000	37.001734
1973.000000	36.891881
1972.000000	36.797764
1971.000000	36.634530
1970.000000	36.540177
1969.000000	36.417709
1968.000000	36.320480
1967.000000	36.213338
1966.000000	36.138283
1965.000000	36.010963
1964.000000	35.872729
1963.000000	35.794234
1962.000000	35.678210
1961.000000	35.607260
1960.000000	35.452944
1959.000000	35.287214
1958.000000	35.250429
1957.000000	35.173951
1956.000000	35.068757
1955.000000	35.021599
1954.000000	34.930706
1953.000000	34.901149
1952.000000	34.800312
1951.000000	34.774897
1950.000000	34.728589
1949.000000	34.664280
1948.000000	34.556952
1947.000000	34.496421
1946.000000	34.478632
1945.000000	34.545898
1944.000000	34.466498
1943.000000	34.475655
1942.000000	34.534403
1941.000000	34.476214
1940.000000	34.566660
1939.000000	34.640836
1938.000000	34.703832
1937.000000	34.857901
1936.000000	34.959479
1935.000000	35.006467
1934.000000	35.150834
1933.000000	35.235917
1932.000000	35.358492
1931.000000	35.492803
1930.000000	35.692509
1929.000000	35.894904
1928.000000	36.119031
1927.000000	36.253616
1926.000000	36.521097
1925.000000	36.752087
1924.000000	37.050931
1923.000000	37.358123
1922.000000	37.681972
1921.000000	37.957048
1920.000000	38.240305
1919.000000	38.616801
1918.000000	38.946289
1917.000000	39.210380
1916.000000	39.561100
1915.000000	40.059736
1914.000000	40.536926
1913.000000	41.007682
1912.000000	41.381739
1911.000000	41.854690
1910.000000	42.382167
1909.000000	42.840867
1908.000000	43.282164
1907.000000	43.843339
1906.000000	44.306863
1905.000000	44.856185
1904.000000	45.515099
1903.000000	45.967806
1902.000000	46.616049
1901.000000	47.186466
1900.000000	47.699111
1899.000000	48.327903
1898.000000	48.901518
1897.000000	49.415694
1896.000000	49.937545
1895.000000	50.499698
1894.000000	51.105245
1893.000000	51.592661
1892.000000	52.143889
1891.000000	52.656232
1890.000000	53.149669
1889.000000	53.722283
1888.000000	54.094991
1887.000000	54.631455
1886.000000	55.007043
1885.000000	55.528342
1884.000000	55.899617
1883.000000	56.303527
1882.000000	56.682750
1881.000000	56.994706
1880.000000	57.364054
1879.000000	57.675732
1878.000000	58.034793
1877.000000	58.329021
1876.000000	58.655979
1875.000000	58.932860
1874.000000	59.230094
1873.000000	59.383031
1872.000000	59.665718
1871.000000	59.922712
1870.000000	60.057738
1869.000000	60.236825
1868.000000	60.435837
1867.000000	60.551237
1866.000000	60.645425
1865.000000	60.797896
1864.000000	60.888840
1863.000000	60.989085
1862.000000	61.094224
1861.000000	61.155325
1860.000000	61.173014
1859.000000	61.226347
1858.000000	61.292005
1857.000000	61.343299
1856.000000	61.339092
1855.000000	61.382847
1854.000000	61.451667
1853.000000	61.475742
1852.000000	61.474704
1851.000000	61.478621
1850.000000	61.479989
1849.000000	61.495927
1848.000000	61.505770
1847.000000	61.516895
1846.000000	61.518760
1845.000000	61.547685
1844.000000	61.540973
1843.000000	61.465250
1842.000000	61.424137
1841.000000	61.365037
1840.000000	61.324690
1839.000000	61.318492
1838.000000	61.321038
1837.000000	61.265952
1836.000000	61.204843
1835.000000	61.177049
1834.000000	61.127729
1833.000000	61.069664
1832.000000	61.058745
1831.000000	61.041394
1830.000000	60.988454
1829.000000	60.913632
1828.000000	60.874036
1827.000000	60.859900
1826.000000	60.813169
1825.000000	60.749455
1824.000000	60.734510
1823.000000	60.712951
1822.000000	60.654041
1821.000000	60.615474
1820.000000	60.571895
1819.000000	60.535402
1818.000000	60.533819
1817.000000	60.529817
1816.000000	60.459989
1815.000000	60.426842
1814.000000	60.374961
1813.000000	60.327829
1812.000000	60.334030
1811.000000	60.299212
1810.000000	60.241010
1809.000000	60.220674
1808.000000	60.215514
1807.000000	60.159227
1806.000000	60.118385
1805.000000	60.088592
1804.000000	60.036766
1803.000000	60.042920
1802.000000	60.039338
1801.000000	60.001055
1800.000000	59.968414
1799.000000	59.919063
1798.000000	59.876725
1797.000000	59.840526
1796.000000	59.823685
1795.000000	59.802275
1794.000000	59.797720
1793.000000	59.784898
1792.000000	59.747607
1791.000000	59.739434
1790.000000	59.720001
1789.000000	59.672898
1788.000000	59.658276
1787.000000	59.640595
1786.000000	59.623351
1785.000000	59.597762
1784.000000	59.540669
1783.000000	59.496768
1782.000000	59.476034
1781.000000	59.448332
1780.000000	59.402117
1779.000000	59.360137
1778.000000	59.329670
1777.000000	59.280577
1776.000000	59.225481
1775.000000	59.182678
1774.000000	59.110317
1773.000000	59.071826
1772.000000	59.036509
1771.000000	58.979315
1770.000000	58.915707
1769.000000	58.825135
1768.000000	58.749525
1767.000000	58.730940
1766.000000	58.679799
1765.000000	58.635535
1764.000000	58.585113
1763.000000	58.506336
1762.000000	58.457368
1761.000000	58.396977
1760.000000	58.347237
1759.000000	58.320061
1758.000000	58.261544
1757.000000	58.194066
1756.000000	58.171699
1755.000000	58.142468
1754.000000	58.092820
1753.000000	58.016835
1752.000000	57.968729
1751.000000	57.917205
1750.000000	57.874369
1749.000000	57.830317
1748.000000	57.723088
1747.000000	57.673803
1746.000000	57.627156
1745.000000	57.542674
1744.000000	57.450267
1743.000000	57.437765
1742.000000	57.357685
1741.000000	57.271592
1740.000000	57.216678
1739.000000	57.149464
1738.000000	57.118871
1737.000000	57.076747
1736.000000	57.049748
1735.000000	57.011989
1734.000000	57.027090
1733.000000	57.003241
1732.000000	56.977996
1731.000000	57.002050
1730.000000	57.038896
1729.000000	57.051266
1728.000000	57.148335
1727.000000	57.171396
1726.000000	57.223218
1725.000000	57.305291
1724.000000	57.396584
1723.000000	57.471366
1722.000000	57.581844
1721.000000	57.652660
1720.000000	57.766354
1719.000000	57.902189
1718.000000	58.011932
1717.000000	58.096442
1716.000000	58.221980
1715.000000	58.324967
1714.000000	58.439042
1713.000000	58.511406
1712.000000	58.588645
1711.000000	58.688202
1710.000000	58.752723
1709.000000	58.851780
1708.000000	58.857722
1707.000000	58.975285
1706.000000	59.005775
1705.000000	59.054566
1704.000000	59.069258
1703.000000	59.074567
1702.000000	59.153334
1701.000000	59.157676
1700.000000	59.176219
1699.000000	59.222131
1698.000000	59.262959
1697.000000	59.318147
1696.000000	59.371549
1695.000000	59.390249
1694.000000	59.410509
1693.000000	59.464853
1692.000000	59.533429
1691.000000	59.630483
1690.000000	59.710175
1689.000000	59.824975
1688.000000	59.931093
1687.000000	60.031027
1686.000000	60.174277
1685.000000	60.277904
1684.000000	60.396233
1683.000000	60.563155
1682.000000	60.739110
1681.000000	60.917775
1680.000000	61.042621
1679.000000	61.189507
1678.000000	61.391183
1677.000000	61.507161
1676.000000	61.669169
1675.000000	61.863398
1674.000000	62.062921
1673.000000	62.202095
1672.000000	62.370561
1671.000000	62.516793
1670.000000	62.671493
1669.000000	62.830943
1668.000000	62.938217
1667.000000	63.058755
1666.000000	63.150288
1665.000000	63.226630
1664.000000	63.332962
1663.000000	63.387331
1662.000000	63.503985
1661.000000	63.575381
1660.000000	63.634180
1659.000000	63.707657
1658.000000	63.763673
1657.000000	63.783994
1656.000000	63.799728
1655.000000	63.836540
1654.000000	63.856528
1653.000000	63.890828
1652.000000	63.901804
1651.000000	63.902044
1650.000000	63.917700
1649.000000	63.916486
1648.000000	63.893406
1647.000000	63.886910
1646.000000	63.859016
1645.000000	63.877545
1644.000000	63.865577
1643.000000	63.839858
1642.000000	63.835879
1641.000000	63.810498
1640.000000	63.800645
1639.000000	63.750001
1638.000000	63.742049
1637.000000	63.739484
1636.000000	63.659475
1635.000000	63.642886
1634.000000	63.603351
1633.000000	63.554219
1632.000000	63.521064
1631.000000	63.493590
1630.000000	63.459882
1629.000000	63.431347
1628.000000	63.381388
1627.000000	63.324789
1626.000000	63.280656
1625.000000	63.246710
1624.000000	63.206457
1623.000000	63.166093
1622.000000	63.129522
1621.000000	63.084758
1620.000000	63.037755
1619.000000	62.979004
1618.000000	62.907754
1617.000000	62.851941
1616.000000	62.791782
1615.000000	62.745485
1614.000000	62.696200
1613.000000	62.637644
1612.000000	62.571318
1611.000000	62.521784
1610.000000	62.478847
1609.000000	62.413952
1608.000000	62.342986
1607.000000	62.284000
1606.000000	62.217185
1605.000000	62.163186
1604.000000	62.103376
1603.000000	62.049863
1602.000000	61.970272
1601.000000	61.885611
1600.000000	61.830858
1599.000000	61.767775
1598.000000	61.711941
1597.000000	61.674302
1596.000000	61.618239
1595.000000	61.559918
1594.000000	61.508184
1593.000000	61.464684
1592.000000	61.414328
1591.000000	61.352777
1590.000000	61.318171
1589.000000	61.262627
1588.000000	61.194464
1587.000000	61.148412
1586.000000	61.108544
1585.000000	61.059582
1584.000000	61.005081
1583.000000	60.965733
1582.000000	60.920417
1581.000000	60.862034
1580.000000	60.812200
1579.000000	60.775447
1578.000000	60.747486
1577.000000	60.691339
1576.000000	60.633749
1575.000000	60.606291
1574.000000	60.557050
1573.000000	60.508356
1572.000000	60.458864
1571.000000	60.404836
1570.000000	60.369660
1569.000000	60.340824
1568.000000	60.306800
1567.000000	60.252379
1566.000000	60.217469
1565.000000	60.187002
1564.000000	60.154679
1563.000000	60.119780
1562.000000	60.095011
1561.000000	60.067218
1560.000000	60.045964
1559.000000	60.015942
1558.000000	59.983431
1557.000000	59.948464
1556.000000	59.932090
1555.000000	59.904378
1554.000000	59.870106
1553.000000	59.859323
1552.000000	59.803920
1551.000000	59.760232
1550.000000	59.710778
1549.000000	59.685620
1548.000000	59.634325
1547.000000	59.580141
1546.000000	59.524834
1545.000000	59.438814
1544.000000	59.355569
1543.000000	59.284921
1542.000000	59.229284
1541.000000	59.134627
1540.000000	59.034828
1539.000000	58.943272
1538.000000	58.875917
1537.000000	58.775379
1536.000000	58.672034
1535.000000	58.593346
1534.000000	58.526472
1533.000000	58.451656
1532.000000	58.358164
1531.000000	58.289680
1530.000000	58.196398
1529.000000	58.118102
1528.000000	58.060400
1527.000000	57.977416
1526.000000	57.923911
1525.000000	57.848403
1524.000000	57.773866
1523.000000	57.726759
1522.000000	57.663806
1521.000000	57.635423
1520.000000	57.583200
1519.000000	57.528242
1518.000000	57.505136
1517.000000	57.456171
1516.000000	57.427027
1515.000000	57.382603
1514.000000	57.355850
1513.000000	57.334795
1512.000000	57.312660
1511.000000	57.279880
1510.000000	57.265719
1509.000000	57.211532
1508.000000	57.212705
1507.000000	57.202394
1506.000000	57.185753
1505.000000	57.171868
1504.000000	57.139095
1503.000000	57.141265
1502.000000	57.151354
1501.000000	57.111554
1500.000000	57.121660
1499.000000	57.122238
1498.000000	57.125608
1497.000000	57.113410
1496.000000	57.146532
1495.000000	57.134319
1494.000000	57.169631
1493.000000	57.182985
1492.000000	57.192689
1491.000000	57.215085
1490.000000	57.231226
1489.000000	57.247781
1488.000000	57.306465
1487.000000	57.319242
1486.000000	57.357149
1485.000000	57.376659
1484.000000	57.419069
1483.000000	57.450131
1482.000000	57.485200
1481.000000	57.531359
1480.000000	57.579470
1479.000000	57.585568
1478.000000	57.650680
1477.000000	57.662384
1476.000000	57.694169
1475.000000	57.748069
1474.000000	57.774162
1473.000000	57.801746
1472.000000	57.850459
1471.000000	57.898669
1470.000000	57.932438
