PE UV       SUBTECH     SPECTRUM    ASCII       PEDS        4.00        
   -1
RTms1556131.Sample.asc
18/03/15
09:33:54.00
18/03/15
09:33:54.00
Administrator

200.000000
1
Lambda 750
750N8071901
PerkinElmer UV WinLab 6.0.4.0738 / 1.61.00 Lambda 900

0
0
3350/servo 860.8/2
0
0
UV/VIS
1
1
1
CommonBeamDepol,150mm sphere / downward view
0
0
0
0
Program
Program
3350/servo 860.8/2
3350/0.2 860.8/0.2
3350/0.2 860.8/0.2
0
1
 
 
 
0
 
860.8
319.2
860.8
Front
100
on
 
 
0
0
0
 
0
 
 
 
0
 
 
0
0
0
0
0
 
 
 
 
0
0


0
0
#HDR
-1
-1
#GR
nm
%R
1.0
0.0
2350.000000
-1.000000
2151
8
65.411544
8.804652
#DATA
2350.000000	32.421622
2349.000000	32.148587
2348.000000	31.885863
2347.000000	33.027796
2346.000000	32.606098
2345.000000	32.275709
2344.000000	32.057502
2343.000000	31.762350
2342.000000	32.235160
2341.000000	32.559279
2340.000000	32.698126
2339.000000	33.109125
2338.000000	33.027713
2337.000000	32.769353
2336.000000	33.359036
2335.000000	33.103379
2334.000000	33.239629
2333.000000	33.154590
2332.000000	33.258873
2331.000000	33.263558
2330.000000	33.256877
2329.000000	33.034388
2328.000000	33.210152
2327.000000	33.036657
2326.000000	33.099021
2325.000000	33.094969
2324.000000	32.901422
2323.000000	32.755337
2322.000000	32.752056
2321.000000	32.799481
2320.000000	32.735021
2319.000000	32.526791
2318.000000	32.705633
2317.000000	32.745013
2316.000000	32.528041
2315.000000	32.211786
2314.000000	32.170676
2313.000000	32.008543
2312.000000	32.043364
2311.000000	32.347048
2310.000000	32.129293
2309.000000	32.100939
2308.000000	32.014547
2307.000000	31.900796
2306.000000	31.930170
2305.000000	31.649854
2304.000000	31.779838
2303.000000	31.735724
2302.000000	31.989251
2301.000000	31.633256
2300.000000	31.553474
2299.000000	31.544055
2298.000000	31.396172
2297.000000	31.350254
2296.000000	31.571590
2295.000000	31.570142
2294.000000	31.403391
2293.000000	31.503544
2292.000000	31.292519
2291.000000	31.290042
2290.000000	31.395467
2289.000000	31.203881
2288.000000	31.404097
2287.000000	31.569241
2286.000000	31.416515
2285.000000	31.464305
2284.000000	31.381702
2283.000000	31.331276
2282.000000	31.359534
2281.000000	31.534363
2280.000000	31.455275
2279.000000	31.395597
2278.000000	31.444162
2277.000000	31.543671
2276.000000	31.577151
2275.000000	31.729077
2274.000000	31.841334
2273.000000	31.701074
2272.000000	31.747913
2271.000000	31.890416
2270.000000	31.987900
2269.000000	31.991260
2268.000000	31.923703
2267.000000	31.952256
2266.000000	32.157431
2265.000000	32.435595
2264.000000	32.577411
2263.000000	32.561737
2262.000000	32.750382
2261.000000	33.037338
2260.000000	32.983719
2259.000000	32.998889
2258.000000	33.316558
2257.000000	33.568213
2256.000000	33.618431
2255.000000	33.792156
2254.000000	33.949684
2253.000000	34.052786
2252.000000	34.338108
2251.000000	34.649886
2250.000000	34.807107
2249.000000	34.855815
2248.000000	35.006269
2247.000000	35.197073
2246.000000	35.280198
2245.000000	35.564676
2244.000000	35.887274
2243.000000	36.055167
2242.000000	36.195063
2241.000000	36.266069
2240.000000	36.359100
2239.000000	36.504138
2238.000000	36.648199
2237.000000	36.719747
2236.000000	36.917039
2235.000000	37.092961
2234.000000	37.091513
2233.000000	37.167223
2232.000000	37.089770
2231.000000	36.992850
2230.000000	37.110638
2229.000000	37.258572
2228.000000	37.342525
2227.000000	37.320267
2226.000000	37.186663
2225.000000	37.202126
2224.000000	37.171105
2223.000000	37.192152
2222.000000	37.229692
2221.000000	37.262537
2220.000000	37.131270
2219.000000	37.078074
2218.000000	37.118797
2217.000000	37.114542
2216.000000	37.025470
2215.000000	36.937052
2214.000000	36.986170
2213.000000	37.008747
2212.000000	36.950939
2211.000000	36.858808
2210.000000	36.750900
2209.000000	36.641248
2208.000000	36.604879
2207.000000	36.534725
2206.000000	36.559178
2205.000000	36.493078
2204.000000	36.542424
2203.000000	36.379668
2202.000000	36.261859
2201.000000	36.266218
2200.000000	36.150174
2199.000000	36.106554
2198.000000	36.032510
2197.000000	35.989304
2196.000000	35.919836
2195.000000	35.794915
2194.000000	35.663328
2193.000000	35.553877
2192.000000	35.637632
2191.000000	35.684801
2190.000000	35.681543
2189.000000	35.559910
2188.000000	35.422566
2187.000000	35.380320
2186.000000	35.365589
2185.000000	35.461244
2184.000000	35.407299
2183.000000	35.354374
2182.000000	35.313501
2181.000000	35.232475
2180.000000	35.355531
2179.000000	35.352465
2178.000000	35.250765
2177.000000	35.356598
2176.000000	35.304551
2175.000000	35.373234
2174.000000	35.445623
2173.000000	35.315185
2172.000000	35.386292
2171.000000	35.386141
2170.000000	35.506342
2169.000000	35.707853
2168.000000	35.836979
2167.000000	35.821742
2166.000000	35.739670
2165.000000	36.002616
2164.000000	36.095036
2163.000000	36.093154
2162.000000	36.191522
2161.000000	36.294717
2160.000000	36.580327
2159.000000	36.499801
2158.000000	36.560311
2157.000000	36.757001
2156.000000	36.862734
2155.000000	36.903242
2154.000000	37.163916
2153.000000	37.338244
2152.000000	37.415443
2151.000000	37.636818
2150.000000	37.685558
2149.000000	37.770974
2148.000000	37.859076
2147.000000	38.138772
2146.000000	38.074562
2145.000000	38.303954
2144.000000	38.413624
2143.000000	38.462931
2142.000000	38.664826
2141.000000	38.752764
2140.000000	38.739124
2139.000000	38.996387
2138.000000	39.190280
2137.000000	39.044687
2136.000000	39.235198
2135.000000	39.179897
2134.000000	39.497586
2133.000000	39.390198
2132.000000	39.526654
2131.000000	39.786653
2130.000000	39.661285
2129.000000	39.640101
2128.000000	39.741525
2127.000000	39.861084
2126.000000	39.911012
2125.000000	39.755157
2124.000000	40.001370
2123.000000	40.037489
2122.000000	39.928722
2121.000000	39.955672
2120.000000	40.138133
2119.000000	40.120090
2118.000000	40.101730
2117.000000	40.253591
2116.000000	40.342242
2115.000000	40.280061
2114.000000	40.256438
2113.000000	40.334781
2112.000000	40.416890
2111.000000	40.325718
2110.000000	40.205582
2109.000000	40.394702
2108.000000	40.327808
2107.000000	40.364094
2106.000000	40.391854
2105.000000	40.356904
2104.000000	40.379990
2103.000000	40.379347
2102.000000	40.393992
2101.000000	40.458721
2100.000000	40.480821
2099.000000	40.480271
2098.000000	40.284007
2097.000000	40.308971
2096.000000	40.419314
2095.000000	40.405718
2094.000000	40.428657
2093.000000	40.364133
2092.000000	40.339001
2091.000000	40.237120
2090.000000	40.210464
2089.000000	40.280619
2088.000000	40.248464
2087.000000	40.204756
2086.000000	40.114678
2085.000000	40.061678
2084.000000	39.957088
2083.000000	39.929199
2082.000000	39.875508
2081.000000	39.783086
2080.000000	39.785248
2079.000000	39.748458
2078.000000	39.584881
2077.000000	39.431191
2076.000000	39.521609
2075.000000	39.417349
2074.000000	39.271662
2073.000000	39.185956
2072.000000	39.055498
2071.000000	39.036315
2070.000000	38.923817
2069.000000	38.739073
2068.000000	38.625853
2067.000000	38.461204
2066.000000	38.344779
2065.000000	38.152175
2064.000000	38.048105
2063.000000	38.001394
2062.000000	37.851072
2061.000000	37.708105
2060.000000	37.536657
2059.000000	37.405529
2058.000000	37.332760
2057.000000	37.204917
2056.000000	37.116612
2055.000000	37.057437
2054.000000	36.946477
2053.000000	36.763881
2052.000000	36.690263
2051.000000	36.616307
2050.000000	36.520175
2049.000000	36.467151
2048.000000	36.390133
2047.000000	36.309920
2046.000000	36.242611
2045.000000	36.207977
2044.000000	36.248588
2043.000000	36.225807
2042.000000	36.240426
2041.000000	36.291590
2040.000000	36.300037
2039.000000	36.304256
2038.000000	36.339069
2037.000000	36.386317
2036.000000	36.442287
2035.000000	36.541394
2034.000000	36.592033
2033.000000	36.652197
2032.000000	36.733146
2031.000000	36.783636
2030.000000	36.825298
2029.000000	36.929319
2028.000000	37.037847
2027.000000	37.110616
2026.000000	37.162547
2025.000000	37.215610
2024.000000	37.265956
2023.000000	37.325821
2022.000000	37.359559
2021.000000	37.381159
2020.000000	37.429686
2019.000000	37.431654
2018.000000	37.415762
2017.000000	37.416071
2016.000000	37.342358
2015.000000	37.300941
2014.000000	37.312235
2013.000000	37.275430
2012.000000	37.241114
2011.000000	37.192850
2010.000000	37.128712
2009.000000	37.052721
2008.000000	36.966965
2007.000000	36.885491
2006.000000	36.801323
2005.000000	36.719681
2004.000000	36.629248
2003.000000	36.547985
2002.000000	36.483740
2001.000000	36.383696
2000.000000	36.276815
1999.000000	36.221294
1998.000000	36.137555
1997.000000	36.028039
1996.000000	35.938562
1995.000000	35.853584
1994.000000	35.729876
1993.000000	35.648228
1992.000000	35.556682
1991.000000	35.406760
1990.000000	35.299961
1989.000000	35.215980
1988.000000	35.095192
1987.000000	35.013810
1986.000000	34.893231
1985.000000	34.782296
1984.000000	34.688083
1983.000000	34.564547
1982.000000	34.485108
1981.000000	34.419281
1980.000000	34.320634
1979.000000	34.229711
1978.000000	34.115904
1977.000000	33.987194
1976.000000	33.924075
1975.000000	33.865499
1974.000000	33.768059
1973.000000	33.650979
1972.000000	33.564437
1971.000000	33.438892
1970.000000	33.360800
1969.000000	33.278496
1968.000000	33.196516
1967.000000	33.087787
1966.000000	33.039313
1965.000000	32.962369
1964.000000	32.866478
1963.000000	32.762628
1962.000000	32.668740
1961.000000	32.596151
1960.000000	32.571736
1959.000000	32.480797
1958.000000	32.419184
1957.000000	32.331784
1956.000000	32.246823
1955.000000	32.217067
1954.000000	32.184479
1953.000000	32.111302
1952.000000	32.090835
1951.000000	32.047047
1950.000000	32.029924
1949.000000	31.957515
1948.000000	31.922595
1947.000000	31.950049
1946.000000	31.889586
1945.000000	31.939804
1944.000000	31.924929
1943.000000	31.954557
1942.000000	31.950237
1941.000000	31.922259
1940.000000	31.974722
1939.000000	32.036722
1938.000000	32.099470
1937.000000	32.233357
1936.000000	32.392243
1935.000000	32.376472
1934.000000	32.553580
1933.000000	32.563446
1932.000000	32.674351
1931.000000	32.866719
1930.000000	33.002199
1929.000000	33.084892
1928.000000	33.263668
1927.000000	33.444313
1926.000000	33.606103
1925.000000	33.800532
1924.000000	33.957835
1923.000000	34.240869
1922.000000	34.537963
1921.000000	34.807702
1920.000000	35.027890
1919.000000	35.338119
1918.000000	35.490617
1917.000000	35.866500
1916.000000	36.030827
1915.000000	36.510577
1914.000000	36.841903
1913.000000	37.188311
1912.000000	37.568500
1911.000000	37.833346
1910.000000	38.271625
1909.000000	38.651240
1908.000000	39.029088
1907.000000	39.462548
1906.000000	39.882938
1905.000000	40.274103
1904.000000	40.820508
1903.000000	41.220329
1902.000000	41.724346
1901.000000	42.148436
1900.000000	42.705644
1899.000000	43.203524
1898.000000	43.671950
1897.000000	44.158006
1896.000000	44.518300
1895.000000	45.069867
1894.000000	45.530133
1893.000000	45.965633
1892.000000	46.464990
1891.000000	46.854514
1890.000000	47.328466
1889.000000	47.748474
1888.000000	48.107355
1887.000000	48.479318
1886.000000	48.926214
1885.000000	49.323512
1884.000000	49.607157
1883.000000	50.017032
1882.000000	50.285207
1881.000000	50.641047
1880.000000	50.933466
1879.000000	51.171479
1878.000000	51.455677
1877.000000	51.769319
1876.000000	51.998420
1875.000000	52.270006
1874.000000	52.464675
1873.000000	52.693698
1872.000000	52.891212
1871.000000	53.092635
1870.000000	53.233757
1869.000000	53.419718
1868.000000	53.580497
1867.000000	53.664711
1866.000000	53.762102
1865.000000	53.885448
1864.000000	53.939303
1863.000000	54.014856
1862.000000	54.086814
1861.000000	54.208733
1860.000000	54.234223
1859.000000	54.262530
1858.000000	54.340435
1857.000000	54.385123
1856.000000	54.386532
1855.000000	54.414345
1854.000000	54.486812
1853.000000	54.521283
1852.000000	54.507977
1851.000000	54.507985
1850.000000	54.537792
1849.000000	54.523146
1848.000000	54.529223
1847.000000	54.527023
1846.000000	54.561568
1845.000000	54.541861
1844.000000	54.504713
1843.000000	54.459519
1842.000000	54.442978
1841.000000	54.417104
1840.000000	54.412098
1839.000000	54.376730
1838.000000	54.366503
1837.000000	54.316210
1836.000000	54.256468
1835.000000	54.240187
1834.000000	54.207874
1833.000000	54.180408
1832.000000	54.155433
1831.000000	54.103457
1830.000000	54.084297
1829.000000	54.045351
1828.000000	54.004935
1827.000000	53.972421
1826.000000	53.935568
1825.000000	53.894598
1824.000000	53.877948
1823.000000	53.856225
1822.000000	53.816083
1821.000000	53.796627
1820.000000	53.763757
1819.000000	53.724571
1818.000000	53.705344
1817.000000	53.692882
1816.000000	53.648402
1815.000000	53.649471
1814.000000	53.627289
1813.000000	53.575887
1812.000000	53.550676
1811.000000	53.532977
1810.000000	53.499656
1809.000000	53.480848
1808.000000	53.480680
1807.000000	53.449720
1806.000000	53.410209
1805.000000	53.371820
1804.000000	53.363671
1803.000000	53.351595
1802.000000	53.330520
1801.000000	53.316947
1800.000000	53.301064
1799.000000	53.266799
1798.000000	53.242922
1797.000000	53.239843
1796.000000	53.245382
1795.000000	53.224593
1794.000000	53.199474
1793.000000	53.166275
1792.000000	53.144056
1791.000000	53.148476
1790.000000	53.130124
1789.000000	53.100637
1788.000000	53.102995
1787.000000	53.084376
1786.000000	53.074158
1785.000000	53.055542
1784.000000	53.018246
1783.000000	52.987153
1782.000000	52.946141
1781.000000	52.923073
1780.000000	52.908115
1779.000000	52.871339
1778.000000	52.833174
1777.000000	52.762872
1776.000000	52.716080
1775.000000	52.679972
1774.000000	52.641793
1773.000000	52.601473
1772.000000	52.555360
1771.000000	52.485959
1770.000000	52.429066
1769.000000	52.399108
1768.000000	52.345301
1767.000000	52.318891
1766.000000	52.271835
1765.000000	52.192195
1764.000000	52.154000
1763.000000	52.121220
1762.000000	52.050718
1761.000000	52.022421
1760.000000	51.981134
1759.000000	51.936674
1758.000000	51.914635
1757.000000	51.884376
1756.000000	51.855763
1755.000000	51.799821
1754.000000	51.765986
1753.000000	51.726562
1752.000000	51.668232
1751.000000	51.622408
1750.000000	51.583070
1749.000000	51.545593
1748.000000	51.487154
1747.000000	51.422371
1746.000000	51.377087
1745.000000	51.304038
1744.000000	51.246258
1743.000000	51.211238
1742.000000	51.150694
1741.000000	51.086984
1740.000000	51.043079
1739.000000	51.010384
1738.000000	50.963215
1737.000000	50.915956
1736.000000	50.877385
1735.000000	50.848594
1734.000000	50.868835
1733.000000	50.873453
1732.000000	50.875355
1731.000000	50.890125
1730.000000	50.897713
1729.000000	50.923730
1728.000000	50.973339
1727.000000	51.047038
1726.000000	51.073278
1725.000000	51.147029
1724.000000	51.202498
1723.000000	51.295423
1722.000000	51.388665
1721.000000	51.485912
1720.000000	51.565928
1719.000000	51.681695
1718.000000	51.763288
1717.000000	51.852520
1716.000000	51.940161
1715.000000	52.018543
1714.000000	52.082454
1713.000000	52.191118
1712.000000	52.243692
1711.000000	52.321559
1710.000000	52.429424
1709.000000	52.448084
1708.000000	52.517208
1707.000000	52.574666
1706.000000	52.638094
1705.000000	52.678421
1704.000000	52.696575
1703.000000	52.736412
1702.000000	52.750692
1701.000000	52.779003
1700.000000	52.825663
1699.000000	52.833148
1698.000000	52.880316
1697.000000	52.910337
1696.000000	52.993121
1695.000000	53.007281
1694.000000	53.032531
1693.000000	53.093467
1692.000000	53.153276
1691.000000	53.249778
1690.000000	53.302940
1689.000000	53.405718
1688.000000	53.506449
1687.000000	53.599363
1686.000000	53.716463
1685.000000	53.821154
1684.000000	53.963043
1683.000000	54.070495
1682.000000	54.221634
1681.000000	54.384431
1680.000000	54.498662
1679.000000	54.648018
1678.000000	54.795215
1677.000000	54.914422
1676.000000	55.076754
1675.000000	55.224831
1674.000000	55.384313
1673.000000	55.490081
1672.000000	55.627803
1671.000000	55.780199
1670.000000	55.919865
1669.000000	56.056265
1668.000000	56.162909
1667.000000	56.264112
1666.000000	56.328002
1665.000000	56.402232
1664.000000	56.482696
1663.000000	56.526484
1662.000000	56.649751
1661.000000	56.708286
1660.000000	56.741091
1659.000000	56.787243
1658.000000	56.849048
1657.000000	56.861646
1656.000000	56.895304
1655.000000	56.948065
1654.000000	56.947316
1653.000000	56.964997
1652.000000	56.982671
1651.000000	56.978713
1650.000000	56.985201
1649.000000	56.985959
1648.000000	56.959595
1647.000000	56.977174
1646.000000	56.971535
1645.000000	56.941432
1644.000000	56.937273
1643.000000	56.911341
1642.000000	56.907324
1641.000000	56.886806
1640.000000	56.859616
1639.000000	56.849442
1638.000000	56.821935
1637.000000	56.785990
1636.000000	56.752197
1635.000000	56.732501
1634.000000	56.701974
1633.000000	56.681997
1632.000000	56.653995
1631.000000	56.604274
1630.000000	56.561598
1629.000000	56.545509
1628.000000	56.506500
1627.000000	56.462555
1626.000000	56.444258
1625.000000	56.408012
1624.000000	56.382537
1623.000000	56.342056
1622.000000	56.294642
1621.000000	56.245694
1620.000000	56.215418
1619.000000	56.169305
1618.000000	56.113463
1617.000000	56.082984
1616.000000	56.041001
1615.000000	55.981775
1614.000000	55.943996
1613.000000	55.918441
1612.000000	55.861806
1611.000000	55.800282
1610.000000	55.754097
1609.000000	55.703858
1608.000000	55.661940
1607.000000	55.618103
1606.000000	55.564495
1605.000000	55.510354
1604.000000	55.455157
1603.000000	55.403766
1602.000000	55.356354
1601.000000	55.309469
1600.000000	55.264030
1599.000000	55.212776
1598.000000	55.151779
1597.000000	55.112997
1596.000000	55.076122
1595.000000	55.021470
1594.000000	54.972316
1593.000000	54.946061
1592.000000	54.907893
1591.000000	54.854838
1590.000000	54.813940
1589.000000	54.770869
1588.000000	54.717436
1587.000000	54.692178
1586.000000	54.665297
1585.000000	54.615772
1584.000000	54.574284
1583.000000	54.533527
1582.000000	54.490647
1581.000000	54.453462
1580.000000	54.423318
1579.000000	54.392837
1578.000000	54.369788
1577.000000	54.322388
1576.000000	54.261918
1575.000000	54.231848
1574.000000	54.203105
1573.000000	54.158415
1572.000000	54.120616
1571.000000	54.071154
1570.000000	54.038822
1569.000000	54.009478
1568.000000	53.972663
1567.000000	53.939249
1566.000000	53.923663
1565.000000	53.900328
1564.000000	53.864634
1563.000000	53.844775
1562.000000	53.813959
1561.000000	53.777353
1560.000000	53.756810
1559.000000	53.731493
1558.000000	53.712498
1557.000000	53.699571
1556.000000	53.672770
1555.000000	53.665951
1554.000000	53.633476
1553.000000	53.605607
1552.000000	53.562033
1551.000000	53.522497
1550.000000	53.493251
1549.000000	53.462625
1548.000000	53.406494
1547.000000	53.359917
1546.000000	53.322139
1545.000000	53.266514
1544.000000	53.194711
1543.000000	53.127851
1542.000000	53.066976
1541.000000	53.008147
1540.000000	52.925071
1539.000000	52.857149
1538.000000	52.788486
1537.000000	52.702897
1536.000000	52.633993
1535.000000	52.562832
1534.000000	52.502056
1533.000000	52.442629
1532.000000	52.370164
1531.000000	52.300056
1530.000000	52.226726
1529.000000	52.167805
1528.000000	52.090832
1527.000000	52.029664
1526.000000	51.997338
1525.000000	51.934539
1524.000000	51.879450
1523.000000	51.838634
1522.000000	51.799674
1521.000000	51.769508
1520.000000	51.718886
1519.000000	51.683071
1518.000000	51.654065
1517.000000	51.616533
1516.000000	51.609159
1515.000000	51.587376
1514.000000	51.603735
1513.000000	51.642528
1512.000000	51.642573
1511.000000	51.586207
1510.000000	51.564675
1509.000000	51.517484
1508.000000	51.488386
1507.000000	51.488893
1506.000000	51.451860
1505.000000	51.414765
1504.000000	51.403611
1503.000000	51.404390
1502.000000	51.412925
1501.000000	51.382235
1500.000000	51.381975
1499.000000	51.379759
1498.000000	51.386954
1497.000000	51.386257
1496.000000	51.363878
1495.000000	51.387416
1494.000000	51.386657
1493.000000	51.401934
1492.000000	51.415404
1491.000000	51.410951
1490.000000	51.439641
1489.000000	51.467968
1488.000000	51.491474
1487.000000	51.519314
1486.000000	51.546994
1485.000000	51.569020
1484.000000	51.598575
1483.000000	51.626629
1482.000000	51.625831
1481.000000	51.702860
1480.000000	51.713815
1479.000000	51.724717
1478.000000	51.784671
1477.000000	51.792279
1476.000000	51.820873
1475.000000	51.845684
1474.000000	51.874117
1473.000000	51.918494
1472.000000	51.930637
1471.000000	51.974098
1470.000000	51.999980
