PE UV       SUBTECH     SPECTRUM    ASCII       PEDS        4.00        
   -1
RTms499171.Sample.asc
18/03/15
14:37:43.00
18/03/15
14:37:43.00
Administrator

200.000000
1
Lambda 750
750N8071901
PerkinElmer UV WinLab 6.0.4.0738 / 1.61.00 Lambda 900

0
0
3350/servo 860.8/2
0
0
UV/VIS
1
1
1
CommonBeamDepol,150mm sphere / downward view
0
0
0
0
Program
Program
3350/servo 860.8/2
3350/0.2 860.8/0.2
3350/0.2 860.8/0.2
0
1
 
 
 
0
 
860.8
319.2
860.8
Front
100
on
 
 
0
0
0
 
0
 
 
 
0
 
 
0
0
0
0
0
 
 
 
 
0
0


0
0
#HDR
-1
-1
#GR
nm
%R
1.0
0.0
2350.000000
-1.000000
2151
8
54.578034
6.313071
#DATA
2350.000000	28.158529
2349.000000	28.417694
2348.000000	28.343927
2347.000000	28.396433
2346.000000	28.204464
2345.000000	28.277792
2344.000000	28.151896
2343.000000	28.194618
2342.000000	28.583903
2341.000000	28.388193
2340.000000	28.562451
2339.000000	29.153127
2338.000000	28.968655
2337.000000	28.617862
2336.000000	28.834212
2335.000000	29.316024
2334.000000	29.462651
2333.000000	29.354687
2332.000000	29.199438
2331.000000	29.319407
2330.000000	29.264022
2329.000000	28.989706
2328.000000	28.892013
2327.000000	28.794546
2326.000000	29.125320
2325.000000	28.930960
2324.000000	28.864712
2323.000000	28.936329
2322.000000	28.652792
2321.000000	28.508274
2320.000000	28.887632
2319.000000	28.642152
2318.000000	28.523355
2317.000000	28.639404
2316.000000	28.713544
2315.000000	28.352770
2314.000000	28.145772
2313.000000	28.094981
2312.000000	28.028431
2311.000000	28.046661
2310.000000	28.058994
2309.000000	28.091625
2308.000000	27.786397
2307.000000	27.809085
2306.000000	27.918232
2305.000000	27.938971
2304.000000	27.920178
2303.000000	27.723331
2302.000000	27.752694
2301.000000	27.793937
2300.000000	27.711461
2299.000000	27.739694
2298.000000	27.629217
2297.000000	27.741735
2296.000000	27.649853
2295.000000	27.628840
2294.000000	27.912596
2293.000000	27.921589
2292.000000	27.688470
2291.000000	27.745965
2290.000000	27.817178
2289.000000	27.766557
2288.000000	27.932807
2287.000000	27.928193
2286.000000	27.899421
2285.000000	27.804478
2284.000000	27.846087
2283.000000	27.774006
2282.000000	27.693261
2281.000000	27.946295
2280.000000	27.820828
2279.000000	27.864052
2278.000000	27.948335
2277.000000	27.782542
2276.000000	28.013523
2275.000000	28.145333
2274.000000	28.190130
2273.000000	28.221486
2272.000000	28.312604
2271.000000	28.414577
2270.000000	28.530282
2269.000000	28.663537
2268.000000	28.597901
2267.000000	28.599131
2266.000000	28.775519
2265.000000	28.982803
2264.000000	29.186941
2263.000000	29.155694
2262.000000	29.245803
2261.000000	29.405010
2260.000000	29.584590
2259.000000	29.742779
2258.000000	29.934716
2257.000000	30.134615
2256.000000	30.299539
2255.000000	30.532331
2254.000000	30.738073
2253.000000	30.744948
2252.000000	30.844506
2251.000000	31.199598
2250.000000	31.335595
2249.000000	31.438032
2248.000000	31.612543
2247.000000	31.807785
2246.000000	32.134363
2245.000000	32.313983
2244.000000	32.516315
2243.000000	32.793945
2242.000000	32.874235
2241.000000	32.988623
2240.000000	33.107447
2239.000000	33.261948
2238.000000	33.415088
2237.000000	33.553748
2236.000000	33.685474
2235.000000	33.790722
2234.000000	33.870245
2233.000000	33.894611
2232.000000	33.909270
2231.000000	33.943640
2230.000000	34.001801
2229.000000	34.056691
2228.000000	34.128081
2227.000000	34.216856
2226.000000	34.211423
2225.000000	34.225608
2224.000000	34.226295
2223.000000	34.224826
2222.000000	34.149886
2221.000000	33.994165
2220.000000	33.982994
2219.000000	33.992218
2218.000000	34.051376
2217.000000	34.019457
2216.000000	34.036184
2215.000000	33.919466
2214.000000	33.926714
2213.000000	34.115826
2212.000000	33.884151
2211.000000	33.687498
2210.000000	33.631085
2209.000000	33.627054
2208.000000	33.505499
2207.000000	33.545532
2206.000000	33.616871
2205.000000	33.460370
2204.000000	33.400911
2203.000000	33.346647
2202.000000	33.205782
2201.000000	33.224994
2200.000000	33.177172
2199.000000	33.147642
2198.000000	33.082986
2197.000000	32.862847
2196.000000	32.830379
2195.000000	32.802706
2194.000000	32.647269
2193.000000	32.622203
2192.000000	32.694514
2191.000000	32.584785
2190.000000	32.568828
2189.000000	32.520193
2188.000000	32.325210
2187.000000	32.273229
2186.000000	32.294065
2185.000000	32.355808
2184.000000	32.285144
2183.000000	32.278177
2182.000000	32.107167
2181.000000	32.130079
2180.000000	32.169152
2179.000000	32.123643
2178.000000	32.160787
2177.000000	32.288253
2176.000000	32.262572
2175.000000	32.275264
2174.000000	32.373382
2173.000000	32.163785
2172.000000	32.262746
2171.000000	32.422074
2170.000000	32.394433
2169.000000	32.500332
2168.000000	32.559318
2167.000000	32.555630
2166.000000	32.610073
2165.000000	32.721195
2164.000000	32.833146
2163.000000	32.909814
2162.000000	32.999524
2161.000000	33.146900
2160.000000	33.276197
2159.000000	33.261741
2158.000000	33.263120
2157.000000	33.520236
2156.000000	33.582511
2155.000000	33.681593
2154.000000	33.842917
2153.000000	33.894796
2152.000000	34.067839
2151.000000	34.228039
2150.000000	34.313383
2149.000000	34.533169
2148.000000	34.593315
2147.000000	34.667109
2146.000000	34.750793
2145.000000	34.837733
2144.000000	34.967129
2143.000000	34.919320
2142.000000	35.193801
2141.000000	35.207320
2140.000000	35.443709
2139.000000	35.597690
2138.000000	35.579115
2137.000000	35.587709
2136.000000	35.831742
2135.000000	35.936326
2134.000000	36.139381
2133.000000	35.977580
2132.000000	36.191171
2131.000000	36.311701
2130.000000	36.507459
2129.000000	36.337991
2128.000000	36.409478
2127.000000	36.480086
2126.000000	36.385062
2125.000000	36.467143
2124.000000	36.649626
2123.000000	36.476357
2122.000000	36.509264
2121.000000	36.638818
2120.000000	36.576296
2119.000000	36.656369
2118.000000	36.724715
2117.000000	36.669347
2116.000000	36.914985
2115.000000	36.899034
2114.000000	36.864573
2113.000000	36.810385
2112.000000	36.890304
2111.000000	36.888006
2110.000000	36.825065
2109.000000	36.904626
2108.000000	36.831041
2107.000000	36.973129
2106.000000	36.929139
2105.000000	36.925902
2104.000000	36.951805
2103.000000	36.990340
2102.000000	36.981482
2101.000000	37.026890
2100.000000	37.067670
2099.000000	37.083675
2098.000000	36.929558
2097.000000	37.086635
2096.000000	37.039723
2095.000000	37.033782
2094.000000	36.979713
2093.000000	36.864215
2092.000000	36.948488
2091.000000	36.888086
2090.000000	36.866586
2089.000000	36.875779
2088.000000	36.882279
2087.000000	36.875004
2086.000000	36.898087
2085.000000	36.871199
2084.000000	36.752676
2083.000000	36.714076
2082.000000	36.696308
2081.000000	36.614269
2080.000000	36.561647
2079.000000	36.528945
2078.000000	36.444810
2077.000000	36.414645
2076.000000	36.323587
2075.000000	36.162546
2074.000000	36.174505
2073.000000	35.998616
2072.000000	35.955729
2071.000000	35.907583
2070.000000	35.758876
2069.000000	35.588270
2068.000000	35.552911
2067.000000	35.488587
2066.000000	35.319041
2065.000000	35.212316
2064.000000	35.095187
2063.000000	34.871621
2062.000000	34.698962
2061.000000	34.570518
2060.000000	34.478079
2059.000000	34.441108
2058.000000	34.320796
2057.000000	34.166686
2056.000000	34.097802
2055.000000	34.031055
2054.000000	33.832291
2053.000000	33.682248
2052.000000	33.581422
2051.000000	33.512166
2050.000000	33.448142
2049.000000	33.314699
2048.000000	33.228498
2047.000000	33.219996
2046.000000	33.206839
2045.000000	33.177374
2044.000000	33.146348
2043.000000	33.094394
2042.000000	33.078341
2041.000000	33.146033
2040.000000	33.196833
2039.000000	33.194784
2038.000000	33.200016
2037.000000	33.260451
2036.000000	33.331243
2035.000000	33.402201
2034.000000	33.494259
2033.000000	33.574862
2032.000000	33.615305
2031.000000	33.717667
2030.000000	33.820899
2029.000000	33.933614
2028.000000	33.987214
2027.000000	34.050889
2026.000000	34.142476
2025.000000	34.185923
2024.000000	34.276712
2023.000000	34.342464
2022.000000	34.404133
2021.000000	34.450617
2020.000000	34.472329
2019.000000	34.450619
2018.000000	34.449793
2017.000000	34.458964
2016.000000	34.434797
2015.000000	34.379569
2014.000000	34.315891
2013.000000	34.279675
2012.000000	34.247395
2011.000000	34.212679
2010.000000	34.154058
2009.000000	34.072245
2008.000000	34.047489
2007.000000	33.937689
2006.000000	33.793921
2005.000000	33.730601
2004.000000	33.644796
2003.000000	33.576648
2002.000000	33.481747
2001.000000	33.358189
2000.000000	33.262643
1999.000000	33.171693
1998.000000	33.059790
1997.000000	32.967238
1996.000000	32.843462
1995.000000	32.734647
1994.000000	32.620031
1993.000000	32.502907
1992.000000	32.380117
1991.000000	32.252585
1990.000000	32.174109
1989.000000	32.073966
1988.000000	31.955028
1987.000000	31.866465
1986.000000	31.729441
1985.000000	31.596146
1984.000000	31.503876
1983.000000	31.405981
1982.000000	31.308757
1981.000000	31.250463
1980.000000	31.122886
1979.000000	31.017667
1978.000000	30.867730
1977.000000	30.739377
1976.000000	30.637624
1975.000000	30.566039
1974.000000	30.465038
1973.000000	30.354726
1972.000000	30.245118
1971.000000	30.097182
1970.000000	30.053414
1969.000000	29.953789
1968.000000	29.858759
1967.000000	29.793988
1966.000000	29.681810
1965.000000	29.535616
1964.000000	29.425565
1963.000000	29.376415
1962.000000	29.257190
1961.000000	29.142024
1960.000000	29.111955
1959.000000	28.968595
1958.000000	28.861248
1957.000000	28.839587
1956.000000	28.794594
1955.000000	28.704712
1954.000000	28.624637
1953.000000	28.564669
1952.000000	28.480867
1951.000000	28.459546
1950.000000	28.379434
1949.000000	28.323544
1948.000000	28.332381
1947.000000	28.309408
1946.000000	28.217604
1945.000000	28.196467
1944.000000	28.202357
1943.000000	28.237145
1942.000000	28.218712
1941.000000	28.272972
1940.000000	28.295780
1939.000000	28.280202
1938.000000	28.327589
1937.000000	28.396963
1936.000000	28.484088
1935.000000	28.578016
1934.000000	28.714632
1933.000000	28.800321
1932.000000	28.935992
1931.000000	29.018946
1930.000000	29.210558
1929.000000	29.302631
1928.000000	29.509634
1927.000000	29.666627
1926.000000	29.821232
1925.000000	30.016758
1924.000000	30.264701
1923.000000	30.440057
1922.000000	30.734603
1921.000000	31.030935
1920.000000	31.221179
1919.000000	31.561057
1918.000000	31.723781
1917.000000	32.064424
1916.000000	32.254754
1915.000000	32.676288
1914.000000	32.981701
1913.000000	33.359533
1912.000000	33.692832
1911.000000	34.050932
1910.000000	34.480954
1909.000000	34.894082
1908.000000	35.300616
1907.000000	35.689452
1906.000000	36.112247
1905.000000	36.524428
1904.000000	36.954648
1903.000000	37.403930
1902.000000	37.917787
1901.000000	38.342803
1900.000000	38.834713
1899.000000	39.309938
1898.000000	39.774870
1897.000000	40.188228
1896.000000	40.586032
1895.000000	41.119748
1894.000000	41.537485
1893.000000	41.969885
1892.000000	42.393185
1891.000000	42.769538
1890.000000	43.200215
1889.000000	43.580622
1888.000000	43.953944
1887.000000	44.386628
1886.000000	44.725408
1885.000000	45.079354
1884.000000	45.400494
1883.000000	45.770375
1882.000000	46.052485
1881.000000	46.369793
1880.000000	46.627401
1879.000000	46.873093
1878.000000	47.123455
1877.000000	47.394736
1876.000000	47.543139
1875.000000	47.777584
1874.000000	47.920520
1873.000000	48.105359
1872.000000	48.277896
1871.000000	48.413433
1870.000000	48.544133
1869.000000	48.652300
1868.000000	48.734794
1867.000000	48.797086
1866.000000	48.900202
1865.000000	49.020036
1864.000000	49.068758
1863.000000	49.141789
1862.000000	49.221696
1861.000000	49.266888
1860.000000	49.307809
1859.000000	49.361935
1858.000000	49.411351
1857.000000	49.450880
1856.000000	49.447906
1855.000000	49.489957
1854.000000	49.538712
1853.000000	49.578124
1852.000000	49.587446
1851.000000	49.598048
1850.000000	49.597489
1849.000000	49.574554
1848.000000	49.568999
1847.000000	49.605671
1846.000000	49.596306
1845.000000	49.586129
1844.000000	49.524296
1843.000000	49.488858
1842.000000	49.474420
1841.000000	49.437582
1840.000000	49.425660
1839.000000	49.413434
1838.000000	49.376185
1837.000000	49.287188
1836.000000	49.228385
1835.000000	49.188819
1834.000000	49.141376
1833.000000	49.109591
1832.000000	49.079015
1831.000000	49.078450
1830.000000	49.046889
1829.000000	48.968852
1828.000000	48.919043
1827.000000	48.926542
1826.000000	48.902608
1825.000000	48.879168
1824.000000	48.864697
1823.000000	48.841467
1822.000000	48.806968
1821.000000	48.756301
1820.000000	48.707576
1819.000000	48.686360
1818.000000	48.680043
1817.000000	48.651086
1816.000000	48.635433
1815.000000	48.615564
1814.000000	48.567650
1813.000000	48.520847
1812.000000	48.511853
1811.000000	48.511337
1810.000000	48.489403
1809.000000	48.453953
1808.000000	48.438604
1807.000000	48.423040
1806.000000	48.393955
1805.000000	48.368180
1804.000000	48.356416
1803.000000	48.334268
1802.000000	48.320691
1801.000000	48.306047
1800.000000	48.285844
1799.000000	48.264516
1798.000000	48.232000
1797.000000	48.226907
1796.000000	48.235274
1795.000000	48.219096
1794.000000	48.194905
1793.000000	48.196932
1792.000000	48.184647
1791.000000	48.188037
1790.000000	48.170747
1789.000000	48.132131
1788.000000	48.126983
1787.000000	48.132005
1786.000000	48.128476
1785.000000	48.091142
1784.000000	48.060742
1783.000000	48.054146
1782.000000	48.033708
1781.000000	48.008817
1780.000000	47.968260
1779.000000	47.950754
1778.000000	47.935382
1777.000000	47.890319
1776.000000	47.828729
1775.000000	47.773217
1774.000000	47.721774
1773.000000	47.692653
1772.000000	47.655912
1771.000000	47.621497
1770.000000	47.565556
1769.000000	47.506744
1768.000000	47.446861
1767.000000	47.409861
1766.000000	47.375250
1765.000000	47.334684
1764.000000	47.289913
1763.000000	47.250950
1762.000000	47.215270
1761.000000	47.167191
1760.000000	47.125593
1759.000000	47.114516
1758.000000	47.090281
1757.000000	47.044735
1756.000000	47.033467
1755.000000	47.004255
1754.000000	46.945233
1753.000000	46.918155
1752.000000	46.888800
1751.000000	46.855746
1750.000000	46.825643
1749.000000	46.807932
1748.000000	46.712055
1747.000000	46.658215
1746.000000	46.603971
1745.000000	46.569566
1744.000000	46.504211
1743.000000	46.465174
1742.000000	46.394445
1741.000000	46.335428
1740.000000	46.303314
1739.000000	46.269633
1738.000000	46.194894
1737.000000	46.137997
1736.000000	46.081649
1735.000000	46.075641
1734.000000	46.078709
1733.000000	46.048164
1732.000000	46.025307
1731.000000	46.007013
1730.000000	46.024443
1729.000000	46.049062
1728.000000	46.096601
1727.000000	46.142194
1726.000000	46.170891
1725.000000	46.233727
1724.000000	46.275973
1723.000000	46.368707
1722.000000	46.444225
1721.000000	46.531622
1720.000000	46.603193
1719.000000	46.690108
1718.000000	46.747780
1717.000000	46.840266
1716.000000	46.924909
1715.000000	47.005551
1714.000000	47.102068
1713.000000	47.179256
1712.000000	47.226168
1711.000000	47.289994
1710.000000	47.378493
1709.000000	47.430936
1708.000000	47.495666
1707.000000	47.530783
1706.000000	47.558589
1705.000000	47.622674
1704.000000	47.655857
1703.000000	47.671971
1702.000000	47.711857
1701.000000	47.739009
1700.000000	47.789394
1699.000000	47.815819
1698.000000	47.858712
1697.000000	47.856358
1696.000000	47.910622
1695.000000	47.900805
1694.000000	47.952760
1693.000000	47.988712
1692.000000	48.052336
1691.000000	48.105868
1690.000000	48.161800
1689.000000	48.239866
1688.000000	48.338639
1687.000000	48.374517
1686.000000	48.448310
1685.000000	48.554016
1684.000000	48.648536
1683.000000	48.763829
1682.000000	48.874231
1681.000000	48.991461
1680.000000	49.092623
1679.000000	49.186470
1678.000000	49.313463
1677.000000	49.425524
1676.000000	49.540329
1675.000000	49.635185
1674.000000	49.779990
1673.000000	49.858867
1672.000000	49.985146
1671.000000	50.086641
1670.000000	50.175599
1669.000000	50.301361
1668.000000	50.396204
1667.000000	50.481075
1666.000000	50.546582
1665.000000	50.583311
1664.000000	50.633494
1663.000000	50.683724
1662.000000	50.748659
1661.000000	50.799822
1660.000000	50.844498
1659.000000	50.882940
1658.000000	50.903767
1657.000000	50.938991
1656.000000	50.950986
1655.000000	50.979464
1654.000000	50.983093
1653.000000	50.987269
1652.000000	51.004966
1651.000000	51.013666
1650.000000	51.006095
1649.000000	50.977495
1648.000000	50.962734
1647.000000	50.977833
1646.000000	50.952462
1645.000000	50.927169
1644.000000	50.924210
1643.000000	50.888130
1642.000000	50.896725
1641.000000	50.865069
1640.000000	50.845186
1639.000000	50.823497
1638.000000	50.793027
1637.000000	50.789285
1636.000000	50.743996
1635.000000	50.723849
1634.000000	50.676125
1633.000000	50.655907
1632.000000	50.626753
1631.000000	50.602710
1630.000000	50.568812
1629.000000	50.533675
1628.000000	50.496267
1627.000000	50.460670
1626.000000	50.438041
1625.000000	50.406776
1624.000000	50.370252
1623.000000	50.343852
1622.000000	50.311031
1621.000000	50.258890
1620.000000	50.224567
1619.000000	50.191070
1618.000000	50.151424
1617.000000	50.109981
1616.000000	50.067325
1615.000000	50.025989
1614.000000	49.985764
1613.000000	49.947258
1612.000000	49.907139
1611.000000	49.866458
1610.000000	49.831587
1609.000000	49.792390
1608.000000	49.739183
1607.000000	49.694066
1606.000000	49.658479
1605.000000	49.616235
1604.000000	49.572017
1603.000000	49.533233
1602.000000	49.493123
1601.000000	49.444127
1600.000000	49.390927
1599.000000	49.346769
1598.000000	49.316247
1597.000000	49.286738
1596.000000	49.245877
1595.000000	49.204123
1594.000000	49.166629
1593.000000	49.142972
1592.000000	49.097680
1591.000000	49.041170
1590.000000	49.010201
1589.000000	48.979726
1588.000000	48.945602
1587.000000	48.911921
1586.000000	48.886551
1585.000000	48.852428
1584.000000	48.805098
1583.000000	48.772647
1582.000000	48.739434
1581.000000	48.700122
1580.000000	48.673668
1579.000000	48.627327
1578.000000	48.599123
1577.000000	48.571733
1576.000000	48.531311
1575.000000	48.498507
1574.000000	48.452874
1573.000000	48.410413
1572.000000	48.386440
1571.000000	48.341596
1570.000000	48.303285
1569.000000	48.287875
1568.000000	48.258082
1567.000000	48.225363
1566.000000	48.203311
1565.000000	48.171966
1564.000000	48.140657
1563.000000	48.108099
1562.000000	48.085550
1561.000000	48.067591
1560.000000	48.033652
1559.000000	48.001471
1558.000000	47.990695
1557.000000	47.976274
1556.000000	47.949724
1555.000000	47.916776
1554.000000	47.891344
1553.000000	47.861429
1552.000000	47.825132
1551.000000	47.789857
1550.000000	47.759752
1549.000000	47.724578
1548.000000	47.691928
1547.000000	47.667049
1546.000000	47.618450
1545.000000	47.558950
1544.000000	47.500800
1543.000000	47.438023
1542.000000	47.382455
1541.000000	47.333647
1540.000000	47.270349
1539.000000	47.209075
1538.000000	47.144479
1537.000000	47.073152
1536.000000	47.001431
1535.000000	46.942371
1534.000000	46.880253
1533.000000	46.824901
1532.000000	46.770472
1531.000000	46.718200
1530.000000	46.641325
1529.000000	46.588211
1528.000000	46.529931
1527.000000	46.479752
1526.000000	46.450033
1525.000000	46.386507
1524.000000	46.333611
1523.000000	46.291186
1522.000000	46.261109
1521.000000	46.232680
1520.000000	46.176321
1519.000000	46.152070
1518.000000	46.143654
1517.000000	46.097184
1516.000000	46.057981
1515.000000	46.033080
1514.000000	46.021682
1513.000000	46.016011
1512.000000	46.030635
1511.000000	46.036863
1510.000000	46.049313
1509.000000	45.994111
1508.000000	45.958446
1507.000000	45.950281
1506.000000	45.923719
1505.000000	45.895177
1504.000000	45.879213
1503.000000	45.851957
1502.000000	45.854239
1501.000000	45.835161
1500.000000	45.819436
1499.000000	45.809978
1498.000000	45.813206
1497.000000	45.809322
1496.000000	45.801817
1495.000000	45.815061
1494.000000	45.813081
1493.000000	45.816991
1492.000000	45.814760
1491.000000	45.821635
1490.000000	45.839698
1489.000000	45.822653
1488.000000	45.845820
1487.000000	45.883673
1486.000000	45.877029
1485.000000	45.878948
1484.000000	45.908519
1483.000000	45.928490
1482.000000	45.918742
1481.000000	45.957682
1480.000000	45.960940
1479.000000	45.985546
1478.000000	46.003109
1477.000000	46.009430
1476.000000	46.020460
1475.000000	46.046654
1474.000000	46.049392
1473.000000	46.066222
1472.000000	46.079048
1471.000000	46.089923
1470.000000	46.105287
