PE UV       SUBTECH     SPECTRUM    ASCII       PEDS        4.00        
   -1
RTms1482161.Sample.asc
18/03/15
12:22:22.00
18/03/15
12:22:22.00
Administrator

200.000000
1
Lambda 750
750N8071901
PerkinElmer UV WinLab 6.0.4.0738 / 1.61.00 Lambda 900

0
0
3350/servo 860.8/2
0
0
UV/VIS
1
1
1
CommonBeamDepol,150mm sphere / downward view
0
0
0
0
Program
Program
3350/servo 860.8/2
3350/0.2 860.8/0.2
3350/0.2 860.8/0.2
0
1
 
 
 
0
 
860.8
319.2
860.8
Front
100
on
 
 
0
0
0
 
0
 
 
 
0
 
 
0
0
0
0
0
 
 
 
 
0
0


0
0
#HDR
-1
-1
#GR
nm
%R
1.0
0.0
2350.000000
-1.000000
2151
8
71.338550
7.809145
#DATA
2350.000000	35.958720
2349.000000	36.025719
2348.000000	35.812558
2347.000000	36.337782
2346.000000	36.338718
2345.000000	36.109060
2344.000000	36.086521
2343.000000	35.911191
2342.000000	36.102496
2341.000000	36.451269
2340.000000	36.269432
2339.000000	36.564617
2338.000000	36.537179
2337.000000	36.375128
2336.000000	36.568504
2335.000000	36.637532
2334.000000	36.791494
2333.000000	36.874430
2332.000000	36.663764
2331.000000	36.873578
2330.000000	36.935452
2329.000000	36.528512
2328.000000	36.669988
2327.000000	36.693426
2326.000000	36.710371
2325.000000	36.704694
2324.000000	36.433872
2323.000000	36.385925
2322.000000	36.306487
2321.000000	36.555525
2320.000000	36.481020
2319.000000	36.375218
2318.000000	36.258495
2317.000000	35.948787
2316.000000	35.825362
2315.000000	35.620682
2314.000000	35.707350
2313.000000	35.599009
2312.000000	35.472839
2311.000000	35.618295
2310.000000	35.549691
2309.000000	35.526893
2308.000000	35.430259
2307.000000	35.079617
2306.000000	35.211490
2305.000000	35.288933
2304.000000	35.142556
2303.000000	35.256579
2302.000000	35.163608
2301.000000	34.990580
2300.000000	34.805155
2299.000000	34.857498
2298.000000	34.823248
2297.000000	34.657600
2296.000000	34.587470
2295.000000	34.438951
2294.000000	34.464957
2293.000000	34.601736
2292.000000	34.533908
2291.000000	34.446244
2290.000000	34.385401
2289.000000	34.421870
2288.000000	34.427574
2287.000000	34.389279
2286.000000	34.366218
2285.000000	34.188607
2284.000000	34.238568
2283.000000	34.300568
2282.000000	34.358182
2281.000000	34.369134
2280.000000	34.317142
2279.000000	34.269119
2278.000000	34.434107
2277.000000	34.418403
2276.000000	34.359307
2275.000000	34.470342
2274.000000	34.597722
2273.000000	34.750154
2272.000000	34.835017
2271.000000	34.816417
2270.000000	34.952078
2269.000000	35.009002
2268.000000	35.035404
2267.000000	35.189478
2266.000000	35.441067
2265.000000	35.549460
2264.000000	35.630443
2263.000000	35.651692
2262.000000	35.773674
2261.000000	36.011428
2260.000000	36.199075
2259.000000	36.415068
2258.000000	36.721744
2257.000000	36.788581
2256.000000	36.995534
2255.000000	37.368622
2254.000000	37.456993
2253.000000	37.610493
2252.000000	37.846981
2251.000000	38.018883
2250.000000	38.323501
2249.000000	38.576843
2248.000000	38.739560
2247.000000	38.952424
2246.000000	39.093365
2245.000000	39.303595
2244.000000	39.564362
2243.000000	39.794362
2242.000000	39.852560
2241.000000	40.041478
2240.000000	40.335480
2239.000000	40.367162
2238.000000	40.434620
2237.000000	40.588335
2236.000000	40.767428
2235.000000	40.912645
2234.000000	40.985235
2233.000000	41.059124
2232.000000	41.019955
2231.000000	41.106588
2230.000000	41.122149
2229.000000	41.124342
2228.000000	41.209394
2227.000000	41.173130
2226.000000	41.149135
2225.000000	41.154672
2224.000000	41.216731
2223.000000	41.161066
2222.000000	41.031230
2221.000000	40.970655
2220.000000	40.993566
2219.000000	40.912830
2218.000000	40.862845
2217.000000	40.795076
2216.000000	40.815444
2215.000000	40.873306
2214.000000	40.912449
2213.000000	40.721805
2212.000000	40.558033
2211.000000	40.519271
2210.000000	40.528568
2209.000000	40.359442
2208.000000	40.319645
2207.000000	40.299587
2206.000000	40.294352
2205.000000	40.178323
2204.000000	40.092641
2203.000000	39.962870
2202.000000	39.917705
2201.000000	39.893992
2200.000000	39.775782
2199.000000	39.674866
2198.000000	39.607935
2197.000000	39.502303
2196.000000	39.358751
2195.000000	39.372911
2194.000000	39.191009
2193.000000	39.165055
2192.000000	39.151745
2191.000000	39.130083
2190.000000	39.018456
2189.000000	38.843679
2188.000000	38.709544
2187.000000	38.692756
2186.000000	38.749994
2185.000000	38.774557
2184.000000	38.819104
2183.000000	38.775755
2182.000000	38.676586
2181.000000	38.684984
2180.000000	38.565827
2179.000000	38.534193
2178.000000	38.512795
2177.000000	38.619275
2176.000000	38.541755
2175.000000	38.544821
2174.000000	38.688358
2173.000000	38.642189
2172.000000	38.602687
2171.000000	38.801122
2170.000000	38.908326
2169.000000	39.049259
2168.000000	39.202284
2167.000000	39.125061
2166.000000	39.280244
2165.000000	39.419780
2164.000000	39.382498
2163.000000	39.483020
2162.000000	39.621509
2161.000000	39.848216
2160.000000	39.901589
2159.000000	40.047503
2158.000000	40.275561
2157.000000	40.329065
2156.000000	40.687485
2155.000000	40.597802
2154.000000	40.844491
2153.000000	40.980885
2152.000000	41.102281
2151.000000	41.265575
2150.000000	41.434913
2149.000000	41.715480
2148.000000	41.695316
2147.000000	41.962975
2146.000000	42.042838
2145.000000	42.375087
2144.000000	42.397636
2143.000000	42.371107
2142.000000	42.495349
2141.000000	42.643624
2140.000000	42.900118
2139.000000	43.062196
2138.000000	43.108785
2137.000000	43.244755
2136.000000	43.448378
2135.000000	43.514015
2134.000000	43.763978
2133.000000	43.710821
2132.000000	43.780556
2131.000000	44.054599
2130.000000	44.094478
2129.000000	44.142713
2128.000000	44.212407
2127.000000	44.245902
2126.000000	44.298398
2125.000000	44.350307
2124.000000	44.417755
2123.000000	44.441715
2122.000000	44.504620
2121.000000	44.576510
2120.000000	44.635048
2119.000000	44.594951
2118.000000	44.675580
2117.000000	44.764049
2116.000000	44.904396
2115.000000	44.907654
2114.000000	44.935528
2113.000000	44.847886
2112.000000	44.882447
2111.000000	44.862724
2110.000000	44.930029
2109.000000	45.099099
2108.000000	45.048716
2107.000000	45.018531
2106.000000	44.987470
2105.000000	45.057681
2104.000000	45.094877
2103.000000	45.103614
2102.000000	44.977535
2101.000000	45.196527
2100.000000	45.139445
2099.000000	45.029989
2098.000000	45.032600
2097.000000	45.105938
2096.000000	45.119349
2095.000000	45.176800
2094.000000	45.142776
2093.000000	44.973130
2092.000000	44.811124
2091.000000	44.867471
2090.000000	44.907972
2089.000000	44.758060
2088.000000	44.829050
2087.000000	44.676919
2086.000000	44.699374
2085.000000	44.677808
2084.000000	44.626226
2083.000000	44.544209
2082.000000	44.430901
2081.000000	44.444501
2080.000000	44.336179
2079.000000	44.230730
2078.000000	44.177627
2077.000000	44.044327
2076.000000	44.019258
2075.000000	43.813674
2074.000000	43.741857
2073.000000	43.530523
2072.000000	43.364680
2071.000000	43.285285
2070.000000	43.202298
2069.000000	42.993248
2068.000000	42.885410
2067.000000	42.776195
2066.000000	42.577742
2065.000000	42.331808
2064.000000	42.216526
2063.000000	42.077896
2062.000000	41.888580
2061.000000	41.754063
2060.000000	41.620921
2059.000000	41.420313
2058.000000	41.318960
2057.000000	41.209797
2056.000000	41.099158
2055.000000	40.976400
2054.000000	40.734080
2053.000000	40.555502
2052.000000	40.455655
2051.000000	40.368569
2050.000000	40.303899
2049.000000	40.197831
2048.000000	40.129845
2047.000000	40.073400
2046.000000	39.989550
2045.000000	39.941308
2044.000000	39.933110
2043.000000	39.979924
2042.000000	39.935034
2041.000000	39.972966
2040.000000	40.039939
2039.000000	40.002224
2038.000000	40.076533
2037.000000	40.202910
2036.000000	40.307018
2035.000000	40.401467
2034.000000	40.505976
2033.000000	40.574528
2032.000000	40.666253
2031.000000	40.768708
2030.000000	40.870983
2029.000000	41.017995
2028.000000	41.133757
2027.000000	41.216930
2026.000000	41.297203
2025.000000	41.383364
2024.000000	41.471788
2023.000000	41.547932
2022.000000	41.582030
2021.000000	41.583525
2020.000000	41.648364
2019.000000	41.663739
2018.000000	41.653627
2017.000000	41.653887
2016.000000	41.625619
2015.000000	41.580149
2014.000000	41.529904
2013.000000	41.506397
2012.000000	41.508095
2011.000000	41.461866
2010.000000	41.370192
2009.000000	41.258363
2008.000000	41.171699
2007.000000	41.066437
2006.000000	40.947524
2005.000000	40.820738
2004.000000	40.744167
2003.000000	40.648327
2002.000000	40.512302
2001.000000	40.347767
2000.000000	40.213814
1999.000000	40.133080
1998.000000	39.996152
1997.000000	39.874372
1996.000000	39.771202
1995.000000	39.653109
1994.000000	39.525427
1993.000000	39.376734
1992.000000	39.228333
1991.000000	39.121983
1990.000000	38.978734
1989.000000	38.858428
1988.000000	38.723559
1987.000000	38.579416
1986.000000	38.423275
1985.000000	38.287719
1984.000000	38.168407
1983.000000	38.072938
1982.000000	37.955433
1981.000000	37.826684
1980.000000	37.691187
1979.000000	37.563666
1978.000000	37.448618
1977.000000	37.297144
1976.000000	37.173119
1975.000000	37.064170
1974.000000	36.952057
1973.000000	36.843525
1972.000000	36.740166
1971.000000	36.622771
1970.000000	36.512000
1969.000000	36.389226
1968.000000	36.249418
1967.000000	36.157188
1966.000000	36.102392
1965.000000	35.946601
1964.000000	35.821348
1963.000000	35.723475
1962.000000	35.615167
1961.000000	35.506897
1960.000000	35.448382
1959.000000	35.304646
1958.000000	35.212316
1957.000000	35.163916
1956.000000	35.053146
1955.000000	34.978127
1954.000000	34.902539
1953.000000	34.820292
1952.000000	34.735065
1951.000000	34.716959
1950.000000	34.654436
1949.000000	34.570182
1948.000000	34.540743
1947.000000	34.531253
1946.000000	34.516394
1945.000000	34.528173
1944.000000	34.472069
1943.000000	34.466948
1942.000000	34.466142
1941.000000	34.509903
1940.000000	34.575257
1939.000000	34.572660
1938.000000	34.604112
1937.000000	34.758945
1936.000000	34.869983
1935.000000	34.944677
1934.000000	35.122292
1933.000000	35.215385
1932.000000	35.337556
1931.000000	35.480056
1930.000000	35.661658
1929.000000	35.852210
1928.000000	36.024594
1927.000000	36.310639
1926.000000	36.517963
1925.000000	36.754109
1924.000000	37.013226
1923.000000	37.341949
1922.000000	37.651928
1921.000000	37.926395
1920.000000	38.230194
1919.000000	38.578955
1918.000000	38.961256
1917.000000	39.251437
1916.000000	39.511960
1915.000000	40.012416
1914.000000	40.499501
1913.000000	40.932017
1912.000000	41.324773
1911.000000	41.765268
1910.000000	42.240047
1909.000000	42.684378
1908.000000	43.199215
1907.000000	43.753764
1906.000000	44.278721
1905.000000	44.798823
1904.000000	45.376656
1903.000000	45.849714
1902.000000	46.468144
1901.000000	47.065179
1900.000000	47.609842
1899.000000	48.177683
1898.000000	48.777153
1897.000000	49.270997
1896.000000	49.772382
1895.000000	50.416204
1894.000000	50.995126
1893.000000	51.514918
1892.000000	52.065823
1891.000000	52.549859
1890.000000	53.078733
1889.000000	53.549318
1888.000000	53.984322
1887.000000	54.459556
1886.000000	54.880144
1885.000000	55.312457
1884.000000	55.667570
1883.000000	56.091467
1882.000000	56.480012
1881.000000	56.880174
1880.000000	57.192394
1879.000000	57.507223
1878.000000	57.852309
1877.000000	58.178630
1876.000000	58.457223
1875.000000	58.764023
1874.000000	58.968852
1873.000000	59.176123
1872.000000	59.383767
1871.000000	59.613135
1870.000000	59.822383
1869.000000	60.011215
1868.000000	60.187677
1867.000000	60.297662
1866.000000	60.383215
1865.000000	60.514442
1864.000000	60.591913
1863.000000	60.686710
1862.000000	60.792385
1861.000000	60.898905
1860.000000	60.946867
1859.000000	60.978744
1858.000000	61.021464
1857.000000	61.082107
1856.000000	61.082298
1855.000000	61.114536
1854.000000	61.196187
1853.000000	61.201667
1852.000000	61.194143
1851.000000	61.204117
1850.000000	61.215084
1849.000000	61.245279
1848.000000	61.196678
1847.000000	61.227225
1846.000000	61.260517
1845.000000	61.254483
1844.000000	61.198029
1843.000000	61.159585
1842.000000	61.143970
1841.000000	61.125603
1840.000000	61.098411
1839.000000	61.083906
1838.000000	61.049247
1837.000000	60.985641
1836.000000	60.896521
1835.000000	60.871561
1834.000000	60.861475
1833.000000	60.819061
1832.000000	60.781544
1831.000000	60.742644
1830.000000	60.711336
1829.000000	60.668824
1828.000000	60.613841
1827.000000	60.577869
1826.000000	60.521436
1825.000000	60.470905
1824.000000	60.448736
1823.000000	60.412521
1822.000000	60.370772
1821.000000	60.324489
1820.000000	60.293826
1819.000000	60.283502
1818.000000	60.273313
1817.000000	60.233718
1816.000000	60.164238
1815.000000	60.138140
1814.000000	60.104888
1813.000000	60.051919
1812.000000	60.026976
1811.000000	60.005575
1810.000000	59.964504
1809.000000	59.935760
1808.000000	59.910404
1807.000000	59.867382
1806.000000	59.822220
1805.000000	59.794976
1804.000000	59.761272
1803.000000	59.724875
1802.000000	59.716561
1801.000000	59.713260
1800.000000	59.687852
1799.000000	59.630711
1798.000000	59.593078
1797.000000	59.593261
1796.000000	59.572936
1795.000000	59.519825
1794.000000	59.510588
1793.000000	59.494057
1792.000000	59.451540
1791.000000	59.443096
1790.000000	59.424663
1789.000000	59.407618
1788.000000	59.396637
1787.000000	59.344337
1786.000000	59.325153
1785.000000	59.294882
1784.000000	59.258748
1783.000000	59.238599
1782.000000	59.195164
1781.000000	59.178614
1780.000000	59.140422
1779.000000	59.094187
1778.000000	59.060869
1777.000000	58.987564
1776.000000	58.919553
1775.000000	58.880146
1774.000000	58.825063
1773.000000	58.783281
1772.000000	58.740910
1771.000000	58.691851
1770.000000	58.616893
1769.000000	58.558314
1768.000000	58.480116
1767.000000	58.435651
1766.000000	58.409457
1765.000000	58.363774
1764.000000	58.297230
1763.000000	58.224426
1762.000000	58.169445
1761.000000	58.140915
1760.000000	58.096813
1759.000000	58.044538
1758.000000	57.999685
1757.000000	57.937122
1756.000000	57.915336
1755.000000	57.870247
1754.000000	57.813334
1753.000000	57.753223
1752.000000	57.692854
1751.000000	57.675514
1750.000000	57.621784
1749.000000	57.586962
1748.000000	57.465180
1747.000000	57.385475
1746.000000	57.366762
1745.000000	57.254477
1744.000000	57.195215
1743.000000	57.140394
1742.000000	57.065852
1741.000000	57.017251
1740.000000	56.957189
1739.000000	56.901584
1738.000000	56.837916
1737.000000	56.818290
1736.000000	56.767103
1735.000000	56.762233
1734.000000	56.753484
1733.000000	56.741064
1732.000000	56.721637
1731.000000	56.720756
1730.000000	56.757645
1729.000000	56.775623
1728.000000	56.870079
1727.000000	56.917347
1726.000000	56.954378
1725.000000	57.058409
1724.000000	57.121124
1723.000000	57.209188
1722.000000	57.325624
1721.000000	57.399642
1720.000000	57.521635
1719.000000	57.637482
1718.000000	57.740719
1717.000000	57.829747
1716.000000	57.940251
1715.000000	58.032793
1714.000000	58.139259
1713.000000	58.229646
1712.000000	58.304160
1711.000000	58.387563
1710.000000	58.494822
1709.000000	58.534983
1708.000000	58.608749
1707.000000	58.675162
1706.000000	58.720381
1705.000000	58.772334
1704.000000	58.789319
1703.000000	58.802548
1702.000000	58.870226
1701.000000	58.881788
1700.000000	58.942467
1699.000000	58.931921
1698.000000	58.991603
1697.000000	59.013679
1696.000000	59.083215
1695.000000	59.114730
1694.000000	59.170194
1693.000000	59.229191
1692.000000	59.274504
1691.000000	59.345521
1690.000000	59.439637
1689.000000	59.519002
1688.000000	59.652788
1687.000000	59.770135
1686.000000	59.878813
1685.000000	59.986862
1684.000000	60.132733
1683.000000	60.274765
1682.000000	60.451585
1681.000000	60.617394
1680.000000	60.728537
1679.000000	60.907991
1678.000000	61.096229
1677.000000	61.268936
1676.000000	61.415841
1675.000000	61.617619
1674.000000	61.791586
1673.000000	61.918918
1672.000000	62.078248
1671.000000	62.216567
1670.000000	62.370582
1669.000000	62.535105
1668.000000	62.648944
1667.000000	62.773474
1666.000000	62.853839
1665.000000	62.953091
1664.000000	63.044844
1663.000000	63.093091
1662.000000	63.199413
1661.000000	63.265567
1660.000000	63.323396
1659.000000	63.383649
1658.000000	63.450086
1657.000000	63.496094
1656.000000	63.510156
1655.000000	63.575688
1654.000000	63.582304
1653.000000	63.595129
1652.000000	63.614410
1651.000000	63.615755
1650.000000	63.615375
1649.000000	63.617036
1648.000000	63.601420
1647.000000	63.598814
1646.000000	63.585016
1645.000000	63.576847
1644.000000	63.580698
1643.000000	63.559876
1642.000000	63.543000
1641.000000	63.510049
1640.000000	63.493535
1639.000000	63.483726
1638.000000	63.455518
1637.000000	63.422007
1636.000000	63.369375
1635.000000	63.344469
1634.000000	63.321877
1633.000000	63.298727
1632.000000	63.259600
1631.000000	63.222431
1630.000000	63.176490
1629.000000	63.154199
1628.000000	63.093507
1627.000000	63.058640
1626.000000	63.034429
1625.000000	62.979342
1624.000000	62.938749
1623.000000	62.900274
1622.000000	62.856946
1621.000000	62.801752
1620.000000	62.752993
1619.000000	62.704079
1618.000000	62.639355
1617.000000	62.584765
1616.000000	62.530079
1615.000000	62.477494
1614.000000	62.432759
1613.000000	62.375098
1612.000000	62.317913
1611.000000	62.268783
1610.000000	62.217210
1609.000000	62.166724
1608.000000	62.097719
1607.000000	62.034856
1606.000000	61.970253
1605.000000	61.919502
1604.000000	61.848856
1603.000000	61.780635
1602.000000	61.733757
1601.000000	61.666950
1600.000000	61.596002
1599.000000	61.545405
1598.000000	61.487451
1597.000000	61.430030
1596.000000	61.378821
1595.000000	61.330933
1594.000000	61.270801
1593.000000	61.217865
1592.000000	61.170534
1591.000000	61.106282
1590.000000	61.055562
1589.000000	61.006900
1588.000000	60.943325
1587.000000	60.900696
1586.000000	60.865525
1585.000000	60.814553
1584.000000	60.761714
1583.000000	60.717810
1582.000000	60.673835
1581.000000	60.632885
1580.000000	60.589634
1579.000000	60.536691
1578.000000	60.498472
1577.000000	60.447689
1576.000000	60.398431
1575.000000	60.362636
1574.000000	60.292425
1573.000000	60.243855
1572.000000	60.203073
1571.000000	60.173276
1570.000000	60.130304
1569.000000	60.092226
1568.000000	60.048381
1567.000000	60.003707
1566.000000	59.964221
1565.000000	59.936511
1564.000000	59.918792
1563.000000	59.899282
1562.000000	59.853128
1561.000000	59.814290
1560.000000	59.784743
1559.000000	59.762226
1558.000000	59.739553
1557.000000	59.719953
1556.000000	59.697483
1555.000000	59.666336
1554.000000	59.651522
1553.000000	59.608757
1552.000000	59.559781
1551.000000	59.516798
1550.000000	59.470587
1549.000000	59.429628
1548.000000	59.387565
1547.000000	59.332462
1546.000000	59.287029
1545.000000	59.224017
1544.000000	59.136931
1543.000000	59.067402
1542.000000	59.002138
1541.000000	58.903928
1540.000000	58.820778
1539.000000	58.745512
1538.000000	58.645649
1537.000000	58.547784
1536.000000	58.471775
1535.000000	58.383763
1534.000000	58.297419
1533.000000	58.244867
1532.000000	58.149931
1531.000000	58.070603
1530.000000	57.990690
1529.000000	57.904796
1528.000000	57.839203
1527.000000	57.768671
1526.000000	57.701253
1525.000000	57.636521
1524.000000	57.561500
1523.000000	57.515710
1522.000000	57.458340
1521.000000	57.420489
1520.000000	57.347736
1519.000000	57.311503
1518.000000	57.288767
1517.000000	57.261891
1516.000000	57.242380
1515.000000	57.251351
1514.000000	57.249296
1513.000000	57.254558
1512.000000	57.204567
1511.000000	57.162492
1510.000000	57.130687
1509.000000	57.083805
1508.000000	57.060261
1507.000000	57.054254
1506.000000	57.023563
1505.000000	56.988844
1504.000000	56.967106
1503.000000	56.974649
1502.000000	56.980323
1501.000000	56.951697
1500.000000	56.945324
1499.000000	56.973950
1498.000000	56.974277
1497.000000	56.975650
1496.000000	56.969692
1495.000000	56.987832
1494.000000	56.986472
1493.000000	57.001767
1492.000000	57.005312
1491.000000	57.026803
1490.000000	57.069364
1489.000000	57.087965
1488.000000	57.101376
1487.000000	57.140976
1486.000000	57.144029
1485.000000	57.158032
1484.000000	57.197283
1483.000000	57.258745
1482.000000	57.279459
1481.000000	57.336168
1480.000000	57.366768
1479.000000	57.409123
1478.000000	57.455967
1477.000000	57.453558
1476.000000	57.516313
1475.000000	57.548245
1474.000000	57.590314
1473.000000	57.624466
1472.000000	57.659628
1471.000000	57.702864
1470.000000	57.731463
