PE UV       SUBTECH     SPECTRUM    ASCII       PEDS        4.00        
   -1
RTms499181.Sample.asc
18/03/15
15:30:55.00
18/03/15
15:30:55.00
Administrator

200.000000
1
Lambda 750
750N8071901
PerkinElmer UV WinLab 6.0.4.0738 / 1.61.00 Lambda 900

0
0
3350/servo 860.8/2
0
0
UV/VIS
1
1
1
CommonBeamDepol,150mm sphere / downward view
0
0
0
0
Program
Program
3350/servo 860.8/2
3350/0.2 860.8/0.2
3350/0.2 860.8/0.2
0
1
 
 
 
0
 
860.8
319.2
860.8
Front
100
on
 
 
0
0
0
 
0
 
 
 
0
 
 
0
0
0
0
0
 
 
 
 
0
0


0
0
#HDR
-1
-1
#GR
nm
%R
1.0
0.0
2350.000000
-1.000000
2151
8
56.147814
7.368433
#DATA
2350.000000	24.472207
2349.000000	24.795070
2348.000000	24.597551
2347.000000	25.087052
2346.000000	25.066029
2345.000000	25.086185
2344.000000	24.839594
2343.000000	24.753831
2342.000000	25.035593
2341.000000	25.178640
2340.000000	24.977282
2339.000000	25.270519
2338.000000	25.487572
2337.000000	25.560019
2336.000000	25.481415
2335.000000	25.642388
2334.000000	25.845082
2333.000000	25.933010
2332.000000	25.752065
2331.000000	25.858732
2330.000000	25.605059
2329.000000	25.314381
2328.000000	25.257289
2327.000000	25.372984
2326.000000	25.399698
2325.000000	25.201363
2324.000000	25.345285
2323.000000	25.184060
2322.000000	25.115407
2321.000000	25.102444
2320.000000	25.020753
2319.000000	24.872200
2318.000000	24.783808
2317.000000	24.814665
2316.000000	24.734409
2315.000000	24.555588
2314.000000	24.667215
2313.000000	24.530834
2312.000000	24.322347
2311.000000	24.378967
2310.000000	24.358290
2309.000000	24.360120
2308.000000	24.415562
2307.000000	24.456947
2306.000000	24.511271
2305.000000	24.136116
2304.000000	24.321971
2303.000000	24.407141
2302.000000	24.359465
2301.000000	24.207769
2300.000000	24.266608
2299.000000	24.059630
2298.000000	24.098309
2297.000000	24.178524
2296.000000	24.198809
2295.000000	24.270844
2294.000000	24.053082
2293.000000	24.145745
2292.000000	24.191347
2291.000000	24.066001
2290.000000	24.006090
2289.000000	24.193737
2288.000000	24.157581
2287.000000	24.083488
2286.000000	23.958629
2285.000000	24.024375
2284.000000	23.912027
2283.000000	23.839601
2282.000000	23.873170
2281.000000	23.971975
2280.000000	24.108850
2279.000000	24.027638
2278.000000	24.160735
2277.000000	24.278464
2276.000000	24.249756
2275.000000	24.210094
2274.000000	24.276221
2273.000000	24.373468
2272.000000	24.365386
2271.000000	24.458249
2270.000000	24.484364
2269.000000	24.564857
2268.000000	24.668592
2267.000000	24.805732
2266.000000	24.998382
2265.000000	25.050091
2264.000000	25.208306
2263.000000	25.228124
2262.000000	25.279740
2261.000000	25.469517
2260.000000	25.677035
2259.000000	25.803474
2258.000000	25.908218
2257.000000	26.036680
2256.000000	26.211966
2255.000000	26.407686
2254.000000	26.561774
2253.000000	26.707213
2252.000000	26.916733
2251.000000	27.002835
2250.000000	27.215613
2249.000000	27.440419
2248.000000	27.617380
2247.000000	27.850166
2246.000000	28.011496
2245.000000	28.220892
2244.000000	28.419967
2243.000000	28.546018
2242.000000	28.612105
2241.000000	28.644501
2240.000000	28.762024
2239.000000	28.923692
2238.000000	29.012475
2237.000000	29.228324
2236.000000	29.314863
2235.000000	29.308323
2234.000000	29.384079
2233.000000	29.387060
2232.000000	29.464511
2231.000000	29.645548
2230.000000	29.603603
2229.000000	29.588993
2228.000000	29.701111
2227.000000	29.680230
2226.000000	29.761401
2225.000000	29.795512
2224.000000	29.616661
2223.000000	29.637736
2222.000000	29.674887
2221.000000	29.629967
2220.000000	29.621277
2219.000000	29.686998
2218.000000	29.593902
2217.000000	29.491768
2216.000000	29.458156
2215.000000	29.407591
2214.000000	29.559038
2213.000000	29.552302
2212.000000	29.492369
2211.000000	29.399120
2210.000000	29.349431
2209.000000	29.195760
2208.000000	29.205478
2207.000000	29.176339
2206.000000	28.971416
2205.000000	29.073558
2204.000000	29.089104
2203.000000	28.845197
2202.000000	28.760155
2201.000000	28.936163
2200.000000	28.796894
2199.000000	28.678717
2198.000000	28.619361
2197.000000	28.583430
2196.000000	28.449574
2195.000000	28.382472
2194.000000	28.338181
2193.000000	28.167771
2192.000000	28.309201
2191.000000	28.170818
2190.000000	28.089300
2189.000000	28.101713
2188.000000	27.991028
2187.000000	27.830795
2186.000000	27.787508
2185.000000	27.860928
2184.000000	27.907869
2183.000000	27.909707
2182.000000	27.812544
2181.000000	27.834012
2180.000000	27.805741
2179.000000	27.798042
2178.000000	27.734308
2177.000000	27.724581
2176.000000	27.706313
2175.000000	27.890304
2174.000000	27.872716
2173.000000	27.787489
2172.000000	27.969015
2171.000000	27.965703
2170.000000	28.001143
2169.000000	28.096805
2168.000000	28.215933
2167.000000	28.213519
2166.000000	28.231637
2165.000000	28.265448
2164.000000	28.260581
2163.000000	28.342487
2162.000000	28.540461
2161.000000	28.537317
2160.000000	28.851208
2159.000000	28.974641
2158.000000	28.975505
2157.000000	29.187793
2156.000000	29.221972
2155.000000	29.415165
2154.000000	29.576799
2153.000000	29.506744
2152.000000	29.515822
2151.000000	29.738505
2150.000000	29.861999
2149.000000	29.950881
2148.000000	30.180965
2147.000000	30.395061
2146.000000	30.208884
2145.000000	30.464245
2144.000000	30.503287
2143.000000	30.576399
2142.000000	30.734886
2141.000000	30.972549
2140.000000	31.033065
2139.000000	31.208934
2138.000000	31.133497
2137.000000	31.198956
2136.000000	31.139568
2135.000000	31.310960
2134.000000	31.566874
2133.000000	31.331763
2132.000000	31.605509
2131.000000	31.748717
2130.000000	31.819701
2129.000000	32.007957
2128.000000	31.926831
2127.000000	31.978800
2126.000000	31.849229
2125.000000	31.904398
2124.000000	31.886685
2123.000000	32.102331
2122.000000	32.026360
2121.000000	32.042529
2120.000000	32.091058
2119.000000	32.202626
2118.000000	32.248015
2117.000000	32.148637
2116.000000	32.304478
2115.000000	32.351839
2114.000000	32.392330
2113.000000	32.280558
2112.000000	32.420915
2111.000000	32.393816
2110.000000	32.338084
2109.000000	32.363403
2108.000000	32.362782
2107.000000	32.454060
2106.000000	32.470813
2105.000000	32.455223
2104.000000	32.455295
2103.000000	32.460148
2102.000000	32.484615
2101.000000	32.610862
2100.000000	32.614910
2099.000000	32.545140
2098.000000	32.418511
2097.000000	32.416338
2096.000000	32.473649
2095.000000	32.459666
2094.000000	32.509502
2093.000000	32.331873
2092.000000	32.512684
2091.000000	32.454412
2090.000000	32.418943
2089.000000	32.406712
2088.000000	32.378306
2087.000000	32.340605
2086.000000	32.418506
2085.000000	32.308873
2084.000000	32.262306
2083.000000	32.227493
2082.000000	32.167351
2081.000000	32.101044
2080.000000	31.988702
2079.000000	31.983353
2078.000000	31.927036
2077.000000	31.775468
2076.000000	31.757378
2075.000000	31.679825
2074.000000	31.592799
2073.000000	31.499066
2072.000000	31.386601
2071.000000	31.305289
2070.000000	31.155390
2069.000000	30.990754
2068.000000	30.915886
2067.000000	30.880470
2066.000000	30.706635
2065.000000	30.548963
2064.000000	30.452925
2063.000000	30.261606
2062.000000	30.203809
2061.000000	30.045429
2060.000000	29.955850
2059.000000	29.888422
2058.000000	29.780486
2057.000000	29.654743
2056.000000	29.573224
2055.000000	29.484760
2054.000000	29.366220
2053.000000	29.242070
2052.000000	29.125323
2051.000000	29.048949
2050.000000	29.032972
2049.000000	28.952114
2048.000000	28.833296
2047.000000	28.822987
2046.000000	28.777535
2045.000000	28.711605
2044.000000	28.706506
2043.000000	28.716664
2042.000000	28.682530
2041.000000	28.732708
2040.000000	28.778273
2039.000000	28.782472
2038.000000	28.844528
2037.000000	28.902706
2036.000000	28.929999
2035.000000	29.046364
2034.000000	29.099564
2033.000000	29.185462
2032.000000	29.285488
2031.000000	29.286752
2030.000000	29.401143
2029.000000	29.524494
2028.000000	29.597654
2027.000000	29.664008
2026.000000	29.770721
2025.000000	29.846801
2024.000000	29.876145
2023.000000	29.929939
2022.000000	29.979242
2021.000000	30.010366
2020.000000	29.998268
2019.000000	30.015256
2018.000000	30.083079
2017.000000	30.094312
2016.000000	30.010353
2015.000000	29.970445
2014.000000	29.982768
2013.000000	29.948742
2012.000000	29.882432
2011.000000	29.863775
2010.000000	29.770437
2009.000000	29.650314
2008.000000	29.616630
2007.000000	29.557496
2006.000000	29.448894
2005.000000	29.367580
2004.000000	29.304817
2003.000000	29.240961
2002.000000	29.111501
2001.000000	28.980154
2000.000000	28.896235
1999.000000	28.794734
1998.000000	28.701565
1997.000000	28.656736
1996.000000	28.560620
1995.000000	28.449073
1994.000000	28.344578
1993.000000	28.226393
1992.000000	28.092977
1991.000000	28.017358
1990.000000	27.899945
1989.000000	27.818039
1988.000000	27.726445
1987.000000	27.618461
1986.000000	27.501964
1985.000000	27.441026
1984.000000	27.360758
1983.000000	27.228847
1982.000000	27.137149
1981.000000	27.066064
1980.000000	26.926924
1979.000000	26.788990
1978.000000	26.685339
1977.000000	26.605994
1976.000000	26.545653
1975.000000	26.415148
1974.000000	26.319231
1973.000000	26.238541
1972.000000	26.147103
1971.000000	26.055017
1970.000000	25.967425
1969.000000	25.886192
1968.000000	25.833806
1967.000000	25.758178
1966.000000	25.728257
1965.000000	25.590425
1964.000000	25.443073
1963.000000	25.388746
1962.000000	25.279971
1961.000000	25.249946
1960.000000	25.135544
1959.000000	25.045024
1958.000000	24.975799
1957.000000	24.927552
1956.000000	24.857631
1955.000000	24.764727
1954.000000	24.708953
1953.000000	24.705047
1952.000000	24.661176
1951.000000	24.619528
1950.000000	24.504561
1949.000000	24.474636
1948.000000	24.473189
1947.000000	24.457549
1946.000000	24.436487
1945.000000	24.436114
1944.000000	24.437958
1943.000000	24.428114
1942.000000	24.454171
1941.000000	24.476285
1940.000000	24.491216
1939.000000	24.489899
1938.000000	24.539020
1937.000000	24.685933
1936.000000	24.784284
1935.000000	24.825373
1934.000000	24.897040
1933.000000	24.964169
1932.000000	25.137251
1931.000000	25.220139
1930.000000	25.296827
1929.000000	25.453800
1928.000000	25.666824
1927.000000	25.790464
1926.000000	25.950515
1925.000000	26.179181
1924.000000	26.426004
1923.000000	26.523196
1922.000000	26.769896
1921.000000	27.097566
1920.000000	27.366847
1919.000000	27.606906
1918.000000	27.810818
1917.000000	28.123404
1916.000000	28.324589
1915.000000	28.744832
1914.000000	29.054942
1913.000000	29.389742
1912.000000	29.783572
1911.000000	30.116076
1910.000000	30.542596
1909.000000	30.772994
1908.000000	31.199478
1907.000000	31.613217
1906.000000	32.087065
1905.000000	32.561796
1904.000000	33.059925
1903.000000	33.478242
1902.000000	33.948643
1901.000000	34.472329
1900.000000	34.939187
1899.000000	35.398751
1898.000000	35.854718
1897.000000	36.305472
1896.000000	36.795969
1895.000000	37.290064
1894.000000	37.791088
1893.000000	38.225788
1892.000000	38.701992
1891.000000	39.088291
1890.000000	39.511341
1889.000000	39.954335
1888.000000	40.314525
1887.000000	40.778067
1886.000000	41.156367
1885.000000	41.562973
1884.000000	41.913621
1883.000000	42.202350
1882.000000	42.510344
1881.000000	42.848911
1880.000000	43.201980
1879.000000	43.414624
1878.000000	43.764582
1877.000000	44.051566
1876.000000	44.309897
1875.000000	44.540679
1874.000000	44.765110
1873.000000	45.003146
1872.000000	45.199860
1871.000000	45.426549
1870.000000	45.632297
1869.000000	45.829999
1868.000000	45.951574
1867.000000	46.062115
1866.000000	46.197496
1865.000000	46.278966
1864.000000	46.365605
1863.000000	46.454775
1862.000000	46.550021
1861.000000	46.617149
1860.000000	46.622044
1859.000000	46.672376
1858.000000	46.681778
1857.000000	46.735657
1856.000000	46.773946
1855.000000	46.805333
1854.000000	46.855164
1853.000000	46.847780
1852.000000	46.832975
1851.000000	46.839165
1850.000000	46.850203
1849.000000	46.871087
1848.000000	46.847292
1847.000000	46.873114
1846.000000	46.879496
1845.000000	46.848830
1844.000000	46.817132
1843.000000	46.751013
1842.000000	46.751044
1841.000000	46.702275
1840.000000	46.699795
1839.000000	46.675925
1838.000000	46.644017
1837.000000	46.592072
1836.000000	46.510598
1835.000000	46.462172
1834.000000	46.432833
1833.000000	46.417682
1832.000000	46.417179
1831.000000	46.369361
1830.000000	46.328849
1829.000000	46.273841
1828.000000	46.218624
1827.000000	46.201394
1826.000000	46.146223
1825.000000	46.064004
1824.000000	46.030641
1823.000000	46.003635
1822.000000	45.955135
1821.000000	45.929809
1820.000000	45.901872
1819.000000	45.877980
1818.000000	45.856731
1817.000000	45.817572
1816.000000	45.769013
1815.000000	45.748499
1814.000000	45.689776
1813.000000	45.651504
1812.000000	45.638418
1811.000000	45.609828
1810.000000	45.582847
1809.000000	45.531429
1808.000000	45.500157
1807.000000	45.468991
1806.000000	45.432202
1805.000000	45.390653
1804.000000	45.334603
1803.000000	45.302189
1802.000000	45.288095
1801.000000	45.270555
1800.000000	45.250786
1799.000000	45.207059
1798.000000	45.166345
1797.000000	45.158922
1796.000000	45.155688
1795.000000	45.114379
1794.000000	45.081996
1793.000000	45.061495
1792.000000	45.015539
1791.000000	44.985437
1790.000000	44.952965
1789.000000	44.950692
1788.000000	44.930502
1787.000000	44.880376
1786.000000	44.853270
1785.000000	44.833324
1784.000000	44.773155
1783.000000	44.739234
1782.000000	44.707496
1781.000000	44.675639
1780.000000	44.630122
1779.000000	44.577791
1778.000000	44.541114
1777.000000	44.480902
1776.000000	44.379932
1775.000000	44.319568
1774.000000	44.263935
1773.000000	44.229907
1772.000000	44.186054
1771.000000	44.113890
1770.000000	44.062486
1769.000000	44.013619
1768.000000	43.967988
1767.000000	43.925134
1766.000000	43.870341
1765.000000	43.820457
1764.000000	43.784394
1763.000000	43.724798
1762.000000	43.672636
1761.000000	43.608806
1760.000000	43.564977
1759.000000	43.532922
1758.000000	43.500855
1757.000000	43.441836
1756.000000	43.424709
1755.000000	43.395786
1754.000000	43.308668
1753.000000	43.274853
1752.000000	43.242180
1751.000000	43.162845
1750.000000	43.086977
1749.000000	43.033750
1748.000000	42.961691
1747.000000	42.872529
1746.000000	42.819784
1745.000000	42.706279
1744.000000	42.653376
1743.000000	42.569842
1742.000000	42.488031
1741.000000	42.428532
1740.000000	42.366557
1739.000000	42.309440
1738.000000	42.250172
1737.000000	42.186412
1736.000000	42.157265
1735.000000	42.137744
1734.000000	42.114267
1733.000000	42.101906
1732.000000	42.117747
1731.000000	42.107318
1730.000000	42.129013
1729.000000	42.194417
1728.000000	42.242808
1727.000000	42.300419
1726.000000	42.376414
1725.000000	42.447827
1724.000000	42.541752
1723.000000	42.626710
1722.000000	42.737872
1721.000000	42.826908
1720.000000	42.966383
1719.000000	43.106230
1718.000000	43.195644
1717.000000	43.277091
1716.000000	43.380065
1715.000000	43.514479
1714.000000	43.611771
1713.000000	43.704147
1712.000000	43.799976
1711.000000	43.890497
1710.000000	43.964723
1709.000000	44.029214
1708.000000	44.092351
1707.000000	44.156737
1706.000000	44.214969
1705.000000	44.290139
1704.000000	44.315859
1703.000000	44.327343
1702.000000	44.428068
1701.000000	44.452691
1700.000000	44.485933
1699.000000	44.482966
1698.000000	44.553160
1697.000000	44.592583
1696.000000	44.667554
1695.000000	44.710082
1694.000000	44.740146
1693.000000	44.823401
1692.000000	44.883702
1691.000000	44.986604
1690.000000	45.078799
1689.000000	45.150720
1688.000000	45.288544
1687.000000	45.393975
1686.000000	45.485360
1685.000000	45.620281
1684.000000	45.774674
1683.000000	45.914706
1682.000000	46.075422
1681.000000	46.244220
1680.000000	46.382153
1679.000000	46.524884
1678.000000	46.695780
1677.000000	46.831106
1676.000000	47.013027
1675.000000	47.195747
1674.000000	47.335434
1673.000000	47.477355
1672.000000	47.627584
1671.000000	47.784397
1670.000000	47.923130
1669.000000	48.042291
1668.000000	48.137363
1667.000000	48.258725
1666.000000	48.346978
1665.000000	48.437258
1664.000000	48.514517
1663.000000	48.583512
1662.000000	48.661455
1661.000000	48.714225
1660.000000	48.788681
1659.000000	48.833997
1658.000000	48.898087
1657.000000	48.938695
1656.000000	48.942527
1655.000000	48.987701
1654.000000	48.999072
1653.000000	49.018710
1652.000000	49.031516
1651.000000	49.030316
1650.000000	49.038397
1649.000000	49.020275
1648.000000	49.008797
1647.000000	49.019532
1646.000000	49.004776
1645.000000	48.973848
1644.000000	48.961778
1643.000000	48.950143
1642.000000	48.933932
1641.000000	48.896802
1640.000000	48.876582
1639.000000	48.839808
1638.000000	48.815374
1637.000000	48.798592
1636.000000	48.752306
1635.000000	48.716811
1634.000000	48.694460
1633.000000	48.635386
1632.000000	48.600511
1631.000000	48.562129
1630.000000	48.521333
1629.000000	48.498182
1628.000000	48.439253
1627.000000	48.381828
1626.000000	48.346530
1625.000000	48.305523
1624.000000	48.273374
1623.000000	48.237569
1622.000000	48.180577
1621.000000	48.129808
1620.000000	48.086418
1619.000000	48.022878
1618.000000	47.956302
1617.000000	47.905807
1616.000000	47.850601
1615.000000	47.787731
1614.000000	47.737292
1613.000000	47.681819
1612.000000	47.617981
1611.000000	47.552971
1610.000000	47.503096
1609.000000	47.446264
1608.000000	47.371114
1607.000000	47.315698
1606.000000	47.249949
1605.000000	47.183142
1604.000000	47.117805
1603.000000	47.062757
1602.000000	47.013259
1601.000000	46.951615
1600.000000	46.883812
1599.000000	46.814589
1598.000000	46.763986
1597.000000	46.706430
1596.000000	46.644998
1595.000000	46.597235
1594.000000	46.542454
1593.000000	46.497669
1592.000000	46.436924
1591.000000	46.380882
1590.000000	46.333657
1589.000000	46.267946
1588.000000	46.204554
1587.000000	46.159177
1586.000000	46.127809
1585.000000	46.089724
1584.000000	46.042341
1583.000000	45.986634
1582.000000	45.936059
1581.000000	45.897150
1580.000000	45.857296
1579.000000	45.805097
1578.000000	45.770016
1577.000000	45.725835
1576.000000	45.673859
1575.000000	45.647895
1574.000000	45.592347
1573.000000	45.542743
1572.000000	45.513780
1571.000000	45.464104
1570.000000	45.418853
1569.000000	45.376828
1568.000000	45.343151
1567.000000	45.320812
1566.000000	45.295423
1565.000000	45.248125
1564.000000	45.208936
1563.000000	45.197171
1562.000000	45.168371
1561.000000	45.131422
1560.000000	45.112414
1559.000000	45.087033
1558.000000	45.062038
1557.000000	45.039569
1556.000000	45.023927
1555.000000	44.984299
1554.000000	44.950692
1553.000000	44.915305
1552.000000	44.878457
1551.000000	44.847489
1550.000000	44.817310
1549.000000	44.775607
1548.000000	44.718960
1547.000000	44.659057
1546.000000	44.613065
1545.000000	44.552805
1544.000000	44.481587
1543.000000	44.414222
1542.000000	44.345100
1541.000000	44.273193
1540.000000	44.190714
1539.000000	44.116092
1538.000000	44.037070
1537.000000	43.947766
1536.000000	43.864614
1535.000000	43.791138
1534.000000	43.720812
1533.000000	43.643776
1532.000000	43.563834
1531.000000	43.490384
1530.000000	43.405204
1529.000000	43.343543
1528.000000	43.271843
1527.000000	43.216611
1526.000000	43.155848
1525.000000	43.093318
1524.000000	43.027800
1523.000000	42.965228
1522.000000	42.917554
1521.000000	42.880237
1520.000000	42.840838
1519.000000	42.802133
1518.000000	42.786091
1517.000000	42.734868
1516.000000	42.688643
1515.000000	42.653046
1514.000000	42.609915
1513.000000	42.579599
1512.000000	42.554832
1511.000000	42.536594
1510.000000	42.539684
1509.000000	42.571504
1508.000000	42.602032
1507.000000	42.603161
1506.000000	42.567771
1505.000000	42.542707
1504.000000	42.510648
1503.000000	42.458652
1502.000000	42.451467
1501.000000	42.440786
1500.000000	42.396125
1499.000000	42.395931
1498.000000	42.395985
1497.000000	42.388833
1496.000000	42.403467
1495.000000	42.402517
1494.000000	42.413906
1493.000000	42.397853
1492.000000	42.416453
1491.000000	42.424353
1490.000000	42.444949
1489.000000	42.464287
1488.000000	42.470115
1487.000000	42.507860
1486.000000	42.523730
1485.000000	42.499901
1484.000000	42.510345
1483.000000	42.552705
1482.000000	42.562287
1481.000000	42.617565
1480.000000	42.648722
1479.000000	42.673380
1478.000000	42.702295
1477.000000	42.715588
1476.000000	42.751433
1475.000000	42.775076
1474.000000	42.816257
1473.000000	42.844502
1472.000000	42.867715
1471.000000	42.898320
1470.000000	42.931198
