PE UV       SUBTECH     SPECTRUM    ASCII       PEDS        4.00        
   -1
RTms1556141.Sample.asc
18/03/15
10:32:03.00
18/03/15
10:32:03.00
Administrator

200.000000
1
Lambda 750
750N8071901
PerkinElmer UV WinLab 6.0.4.0738 / 1.61.00 Lambda 900

0
0
3350/servo 860.8/2
0
0
UV/VIS
1
1
1
CommonBeamDepol,150mm sphere / downward view
0
0
0
0
Program
Program
3350/servo 860.8/2
3350/0.2 860.8/0.2
3350/0.2 860.8/0.2
0
1
 
 
 
0
 
860.8
319.2
860.8
Front
100
on
 
 
0
0
0
 
0
 
 
 
0
 
 
0
0
0
0
0
 
 
 
 
0
0


0
0
#HDR
-1
-1
#GR
nm
%R
1.0
0.0
2350.000000
-1.000000
2151
8
62.421453
8.727872
#DATA
2350.000000	30.918919
2349.000000	30.847246
2348.000000	30.452765
2347.000000	31.335970
2346.000000	31.129104
2345.000000	30.770548
2344.000000	30.861933
2343.000000	30.536357
2342.000000	30.885046
2341.000000	31.099151
2340.000000	31.375698
2339.000000	31.367650
2338.000000	31.493584
2337.000000	31.146104
2336.000000	31.753294
2335.000000	31.708154
2334.000000	31.829921
2333.000000	31.885199
2332.000000	31.470708
2331.000000	31.661663
2330.000000	31.617238
2329.000000	31.595056
2328.000000	31.654920
2327.000000	31.382329
2326.000000	31.660654
2325.000000	31.458091
2324.000000	31.662324
2323.000000	31.242735
2322.000000	31.359916
2321.000000	31.573076
2320.000000	31.489452
2319.000000	31.380826
2318.000000	31.341897
2317.000000	31.273960
2316.000000	30.971357
2315.000000	30.795648
2314.000000	30.775345
2313.000000	30.579113
2312.000000	30.599880
2311.000000	30.765620
2310.000000	30.477693
2309.000000	30.639905
2308.000000	30.695120
2307.000000	30.498523
2306.000000	30.495193
2305.000000	30.456930
2304.000000	30.504499
2303.000000	30.339071
2302.000000	30.299058
2301.000000	29.933011
2300.000000	29.909034
2299.000000	30.056131
2298.000000	30.102711
2297.000000	30.069812
2296.000000	30.132179
2295.000000	29.957612
2294.000000	29.726546
2293.000000	29.837811
2292.000000	29.908541
2291.000000	29.864234
2290.000000	29.743367
2289.000000	29.730583
2288.000000	29.837103
2287.000000	29.826202
2286.000000	29.901316
2285.000000	29.617108
2284.000000	29.526501
2283.000000	29.637959
2282.000000	29.575059
2281.000000	29.671742
2280.000000	29.707142
2279.000000	29.797916
2278.000000	29.844509
2277.000000	29.845416
2276.000000	29.853551
2275.000000	30.003818
2274.000000	30.229332
2273.000000	30.189302
2272.000000	30.069065
2271.000000	30.187424
2270.000000	30.187161
2269.000000	30.326488
2268.000000	30.372955
2267.000000	30.473094
2266.000000	30.616163
2265.000000	30.704648
2264.000000	30.783272
2263.000000	30.856695
2262.000000	31.045575
2261.000000	31.258540
2260.000000	31.288595
2259.000000	31.357100
2258.000000	31.625738
2257.000000	31.808737
2256.000000	31.961916
2255.000000	32.202772
2254.000000	32.336544
2253.000000	32.383048
2252.000000	32.647740
2251.000000	32.795375
2250.000000	32.937816
2249.000000	33.174996
2248.000000	33.367246
2247.000000	33.478446
2246.000000	33.676199
2245.000000	33.938774
2244.000000	34.113282
2243.000000	34.336833
2242.000000	34.418855
2241.000000	34.555183
2240.000000	34.696582
2239.000000	34.724548
2238.000000	34.824494
2237.000000	34.874211
2236.000000	35.087565
2235.000000	35.242703
2234.000000	35.213232
2233.000000	35.159586
2232.000000	35.250215
2231.000000	35.414332
2230.000000	35.423791
2229.000000	35.505157
2228.000000	35.551818
2227.000000	35.490498
2226.000000	35.534875
2225.000000	35.576861
2224.000000	35.542481
2223.000000	35.503476
2222.000000	35.539614
2221.000000	35.494153
2220.000000	35.448417
2219.000000	35.430492
2218.000000	35.415045
2217.000000	35.270081
2216.000000	35.352032
2215.000000	35.323394
2214.000000	35.286888
2213.000000	35.290222
2212.000000	35.121619
2211.000000	35.032265
2210.000000	35.128070
2209.000000	35.060536
2208.000000	34.992598
2207.000000	34.848462
2206.000000	34.723346
2205.000000	34.701758
2204.000000	34.658164
2203.000000	34.583416
2202.000000	34.618488
2201.000000	34.607258
2200.000000	34.581920
2199.000000	34.413712
2198.000000	34.369230
2197.000000	34.184538
2196.000000	34.090611
2195.000000	34.147133
2194.000000	34.046941
2193.000000	34.036465
2192.000000	34.078286
2191.000000	33.907833
2190.000000	33.761355
2189.000000	33.743687
2188.000000	33.825651
2187.000000	33.661824
2186.000000	33.588638
2185.000000	33.758774
2184.000000	33.636176
2183.000000	33.613119
2182.000000	33.527391
2181.000000	33.427544
2180.000000	33.575958
2179.000000	33.527088
2178.000000	33.443969
2177.000000	33.487036
2176.000000	33.494659
2175.000000	33.561042
2174.000000	33.534968
2173.000000	33.580486
2172.000000	33.758708
2171.000000	33.654988
2170.000000	33.660917
2169.000000	33.862463
2168.000000	34.050263
2167.000000	33.955938
2166.000000	34.015607
2165.000000	34.029753
2164.000000	34.061565
2163.000000	34.140919
2162.000000	34.410470
2161.000000	34.448508
2160.000000	34.676994
2159.000000	34.815583
2158.000000	34.622113
2157.000000	34.799600
2156.000000	35.015198
2155.000000	35.139966
2154.000000	35.345410
2153.000000	35.401700
2152.000000	35.668897
2151.000000	35.746128
2150.000000	35.792314
2149.000000	35.914979
2148.000000	36.056157
2147.000000	36.195422
2146.000000	36.271129
2145.000000	36.426556
2144.000000	36.477393
2143.000000	36.588723
2142.000000	36.603265
2141.000000	36.927376
2140.000000	36.828897
2139.000000	37.056386
2138.000000	37.330056
2137.000000	37.256249
2136.000000	37.458030
2135.000000	37.437538
2134.000000	37.550986
2133.000000	37.558699
2132.000000	37.667211
2131.000000	37.780559
2130.000000	37.944155
2129.000000	37.888778
2128.000000	37.836292
2127.000000	37.927935
2126.000000	37.905114
2125.000000	38.010063
2124.000000	38.186715
2123.000000	37.989498
2122.000000	38.036976
2121.000000	38.219274
2120.000000	38.312066
2119.000000	38.198371
2118.000000	38.211791
2117.000000	38.171392
2116.000000	38.349574
2115.000000	38.463259
2114.000000	38.378797
2113.000000	38.384461
2112.000000	38.428434
2111.000000	38.431975
2110.000000	38.320960
2109.000000	38.440554
2108.000000	38.338466
2107.000000	38.462283
2106.000000	38.460810
2105.000000	38.500793
2104.000000	38.525850
2103.000000	38.567814
2102.000000	38.613206
2101.000000	38.551857
2100.000000	38.586385
2099.000000	38.463693
2098.000000	38.513296
2097.000000	38.594551
2096.000000	38.512689
2095.000000	38.494884
2094.000000	38.510401
2093.000000	38.519263
2092.000000	38.506891
2091.000000	38.459374
2090.000000	38.357809
2089.000000	38.354842
2088.000000	38.387098
2087.000000	38.279957
2086.000000	38.367474
2085.000000	38.358830
2084.000000	38.244122
2083.000000	38.187207
2082.000000	38.077950
2081.000000	38.013591
2080.000000	38.003492
2079.000000	38.037713
2078.000000	37.901224
2077.000000	37.772323
2076.000000	37.667843
2075.000000	37.514610
2074.000000	37.482554
2073.000000	37.385188
2072.000000	37.310351
2071.000000	37.185706
2070.000000	37.056374
2069.000000	36.867499
2068.000000	36.782027
2067.000000	36.667765
2066.000000	36.525962
2065.000000	36.444119
2064.000000	36.410872
2063.000000	36.229445
2062.000000	36.022717
2061.000000	35.880859
2060.000000	35.737743
2059.000000	35.643514
2058.000000	35.489698
2057.000000	35.390907
2056.000000	35.359277
2055.000000	35.233259
2054.000000	35.066367
2053.000000	34.937332
2052.000000	34.829445
2051.000000	34.714668
2050.000000	34.682230
2049.000000	34.619350
2048.000000	34.508150
2047.000000	34.474220
2046.000000	34.426949
2045.000000	34.334035
2044.000000	34.363572
2043.000000	34.393885
2042.000000	34.350877
2041.000000	34.364767
2040.000000	34.391058
2039.000000	34.413626
2038.000000	34.465586
2037.000000	34.479386
2036.000000	34.529191
2035.000000	34.607816
2034.000000	34.703127
2033.000000	34.791306
2032.000000	34.869967
2031.000000	34.894847
2030.000000	34.975177
2029.000000	35.085676
2028.000000	35.169703
2027.000000	35.244689
2026.000000	35.299746
2025.000000	35.347156
2024.000000	35.408382
2023.000000	35.458629
2022.000000	35.490518
2021.000000	35.523226
2020.000000	35.541352
2019.000000	35.538580
2018.000000	35.555490
2017.000000	35.543496
2016.000000	35.519630
2015.000000	35.488502
2014.000000	35.436940
2013.000000	35.381633
2012.000000	35.334410
2011.000000	35.315321
2010.000000	35.247053
2009.000000	35.157333
2008.000000	35.098420
2007.000000	34.997099
2006.000000	34.921381
2005.000000	34.888468
2004.000000	34.810224
2003.000000	34.701600
2002.000000	34.606608
2001.000000	34.504038
2000.000000	34.408782
1999.000000	34.326877
1998.000000	34.234939
1997.000000	34.132268
1996.000000	34.026141
1995.000000	33.962585
1994.000000	33.863159
1993.000000	33.756352
1992.000000	33.671297
1991.000000	33.550618
1990.000000	33.446688
1989.000000	33.374428
1988.000000	33.273761
1987.000000	33.136050
1986.000000	33.042905
1985.000000	32.902635
1984.000000	32.818210
1983.000000	32.739211
1982.000000	32.661854
1981.000000	32.579456
1980.000000	32.464580
1979.000000	32.360816
1978.000000	32.274735
1977.000000	32.144504
1976.000000	32.049463
1975.000000	31.973937
1974.000000	31.891380
1973.000000	31.822352
1972.000000	31.721588
1971.000000	31.612842
1970.000000	31.507743
1969.000000	31.436020
1968.000000	31.360780
1967.000000	31.296458
1966.000000	31.271139
1965.000000	31.143532
1964.000000	31.023954
1963.000000	30.960493
1962.000000	30.865005
1961.000000	30.813330
1960.000000	30.733420
1959.000000	30.654918
1958.000000	30.612137
1957.000000	30.564551
1956.000000	30.506466
1955.000000	30.430438
1954.000000	30.378012
1953.000000	30.346649
1952.000000	30.265436
1951.000000	30.247827
1950.000000	30.253709
1949.000000	30.150506
1948.000000	30.169532
1947.000000	30.103655
1946.000000	30.141621
1945.000000	30.095179
1944.000000	30.107091
1943.000000	30.107088
1942.000000	30.158963
1941.000000	30.138791
1940.000000	30.185975
1939.000000	30.201147
1938.000000	30.308547
1937.000000	30.415835
1936.000000	30.549175
1935.000000	30.559564
1934.000000	30.666849
1933.000000	30.722898
1932.000000	30.787927
1931.000000	30.986941
1930.000000	31.120084
1929.000000	31.353257
1928.000000	31.402323
1927.000000	31.578016
1926.000000	31.794356
1925.000000	32.045781
1924.000000	32.224534
1923.000000	32.417037
1922.000000	32.741387
1921.000000	33.016689
1920.000000	33.205975
1919.000000	33.485967
1918.000000	33.731230
1917.000000	33.963844
1916.000000	34.239654
1915.000000	34.627203
1914.000000	34.943513
1913.000000	35.339674
1912.000000	35.603145
1911.000000	35.980983
1910.000000	36.377707
1909.000000	36.643567
1908.000000	37.143305
1907.000000	37.666183
1906.000000	37.995214
1905.000000	38.415756
1904.000000	38.984498
1903.000000	39.440847
1902.000000	39.934703
1901.000000	40.327001
1900.000000	40.766130
1899.000000	41.231138
1898.000000	41.689612
1897.000000	42.189408
1896.000000	42.623319
1895.000000	43.109634
1894.000000	43.606986
1893.000000	44.027534
1892.000000	44.470197
1891.000000	44.941424
1890.000000	45.363610
1889.000000	45.730991
1888.000000	46.180669
1887.000000	46.545633
1886.000000	46.929403
1885.000000	47.305784
1884.000000	47.665177
1883.000000	48.050575
1882.000000	48.376485
1881.000000	48.698750
1880.000000	49.014167
1879.000000	49.286061
1878.000000	49.609418
1877.000000	49.896707
1876.000000	50.121608
1875.000000	50.375514
1874.000000	50.617596
1873.000000	50.810922
1872.000000	50.978246
1871.000000	51.176896
1870.000000	51.291927
1869.000000	51.443582
1868.000000	51.550853
1867.000000	51.632678
1866.000000	51.744214
1865.000000	51.879844
1864.000000	51.948006
1863.000000	52.022840
1862.000000	52.077649
1861.000000	52.179619
1860.000000	52.268247
1859.000000	52.285852
1858.000000	52.334225
1857.000000	52.371600
1856.000000	52.430405
1855.000000	52.468257
1854.000000	52.502297
1853.000000	52.540806
1852.000000	52.560524
1851.000000	52.568166
1850.000000	52.584108
1849.000000	52.581024
1848.000000	52.590603
1847.000000	52.601923
1846.000000	52.612916
1845.000000	52.594793
1844.000000	52.559242
1843.000000	52.530650
1842.000000	52.543536
1841.000000	52.530020
1840.000000	52.516261
1839.000000	52.490744
1838.000000	52.464067
1837.000000	52.380322
1836.000000	52.298670
1835.000000	52.281203
1834.000000	52.258350
1833.000000	52.218362
1832.000000	52.212902
1831.000000	52.177068
1830.000000	52.128077
1829.000000	52.098627
1828.000000	52.064455
1827.000000	52.054997
1826.000000	52.032518
1825.000000	51.976323
1824.000000	51.951425
1823.000000	51.941048
1822.000000	51.889001
1821.000000	51.886438
1820.000000	51.832968
1819.000000	51.798804
1818.000000	51.826885
1817.000000	51.796204
1816.000000	51.740056
1815.000000	51.701411
1814.000000	51.659556
1813.000000	51.632459
1812.000000	51.626574
1811.000000	51.606949
1810.000000	51.582156
1809.000000	51.550507
1808.000000	51.536249
1807.000000	51.514900
1806.000000	51.494108
1805.000000	51.458753
1804.000000	51.436127
1803.000000	51.449713
1802.000000	51.438292
1801.000000	51.397333
1800.000000	51.350521
1799.000000	51.332826
1798.000000	51.311549
1797.000000	51.307976
1796.000000	51.306846
1795.000000	51.276957
1794.000000	51.260752
1793.000000	51.245836
1792.000000	51.225957
1791.000000	51.220606
1790.000000	51.222546
1789.000000	51.199240
1788.000000	51.175753
1787.000000	51.162456
1786.000000	51.151953
1785.000000	51.141155
1784.000000	51.095220
1783.000000	51.081368
1782.000000	51.050041
1781.000000	51.039209
1780.000000	51.004839
1779.000000	50.981490
1778.000000	50.959578
1777.000000	50.924441
1776.000000	50.871075
1775.000000	50.826027
1774.000000	50.771311
1773.000000	50.742263
1772.000000	50.693485
1771.000000	50.639412
1770.000000	50.606049
1769.000000	50.571129
1768.000000	50.508640
1767.000000	50.467126
1766.000000	50.431583
1765.000000	50.386744
1764.000000	50.340986
1763.000000	50.296771
1762.000000	50.252871
1761.000000	50.198133
1760.000000	50.144281
1759.000000	50.110574
1758.000000	50.096333
1757.000000	50.062436
1756.000000	50.014051
1755.000000	49.968243
1754.000000	49.946030
1753.000000	49.903795
1752.000000	49.857397
1751.000000	49.817896
1750.000000	49.808380
1749.000000	49.761768
1748.000000	49.684030
1747.000000	49.623541
1746.000000	49.587194
1745.000000	49.558526
1744.000000	49.494357
1743.000000	49.439590
1742.000000	49.407409
1741.000000	49.366226
1740.000000	49.306456
1739.000000	49.288208
1738.000000	49.257310
1737.000000	49.206327
1736.000000	49.172088
1735.000000	49.162054
1734.000000	49.166456
1733.000000	49.175027
1732.000000	49.151315
1731.000000	49.164329
1730.000000	49.184543
1729.000000	49.172005
1728.000000	49.270427
1727.000000	49.306541
1726.000000	49.352646
1725.000000	49.438023
1724.000000	49.482905
1723.000000	49.578740
1722.000000	49.650412
1721.000000	49.731821
1720.000000	49.822165
1719.000000	49.920436
1718.000000	49.986206
1717.000000	50.037571
1716.000000	50.163582
1715.000000	50.232339
1714.000000	50.311242
1713.000000	50.352428
1712.000000	50.432355
1711.000000	50.532429
1710.000000	50.599065
1709.000000	50.645359
1708.000000	50.678392
1707.000000	50.721409
1706.000000	50.759868
1705.000000	50.811203
1704.000000	50.837686
1703.000000	50.858538
1702.000000	50.907802
1701.000000	50.909638
1700.000000	50.944389
1699.000000	50.953171
1698.000000	51.030716
1697.000000	51.030303
1696.000000	51.092026
1695.000000	51.106030
1694.000000	51.133637
1693.000000	51.222065
1692.000000	51.232833
1691.000000	51.304637
1690.000000	51.391325
1689.000000	51.452538
1688.000000	51.560546
1687.000000	51.617675
1686.000000	51.729840
1685.000000	51.836575
1684.000000	51.981369
1683.000000	52.089580
1682.000000	52.220920
1681.000000	52.364210
1680.000000	52.479217
1679.000000	52.621036
1678.000000	52.763892
1677.000000	52.899447
1676.000000	53.030765
1675.000000	53.170386
1674.000000	53.349651
1673.000000	53.442137
1672.000000	53.582122
1671.000000	53.718055
1670.000000	53.814709
1669.000000	53.964015
1668.000000	54.082050
1667.000000	54.176446
1666.000000	54.248904
1665.000000	54.306650
1664.000000	54.394223
1663.000000	54.444611
1662.000000	54.529404
1661.000000	54.575563
1660.000000	54.628123
1659.000000	54.689147
1658.000000	54.740191
1657.000000	54.773187
1656.000000	54.787553
1655.000000	54.799527
1654.000000	54.836114
1653.000000	54.851527
1652.000000	54.871099
1651.000000	54.856931
1650.000000	54.861020
1649.000000	54.865080
1648.000000	54.838592
1647.000000	54.851367
1646.000000	54.845100
1645.000000	54.809192
1644.000000	54.810157
1643.000000	54.792881
1642.000000	54.788666
1641.000000	54.765427
1640.000000	54.753314
1639.000000	54.723598
1638.000000	54.694634
1637.000000	54.675520
1636.000000	54.631012
1635.000000	54.602955
1634.000000	54.585652
1633.000000	54.559726
1632.000000	54.534924
1631.000000	54.488811
1630.000000	54.442688
1629.000000	54.414964
1628.000000	54.382303
1627.000000	54.357979
1626.000000	54.338359
1625.000000	54.290548
1624.000000	54.247357
1623.000000	54.225031
1622.000000	54.192763
1621.000000	54.136978
1620.000000	54.101286
1619.000000	54.060192
1618.000000	54.018548
1617.000000	53.983674
1616.000000	53.934814
1615.000000	53.895091
1614.000000	53.846091
1613.000000	53.809355
1612.000000	53.760296
1611.000000	53.708894
1610.000000	53.669206
1609.000000	53.627250
1608.000000	53.578444
1607.000000	53.527785
1606.000000	53.470279
1605.000000	53.417912
1604.000000	53.369958
1603.000000	53.331509
1602.000000	53.292671
1601.000000	53.242424
1600.000000	53.188834
1599.000000	53.129692
1598.000000	53.081626
1597.000000	53.037343
1596.000000	52.998863
1595.000000	52.959486
1594.000000	52.912164
1593.000000	52.882446
1592.000000	52.840409
1591.000000	52.791793
1590.000000	52.754304
1589.000000	52.703472
1588.000000	52.655850
1587.000000	52.631926
1586.000000	52.609769
1585.000000	52.572650
1584.000000	52.532612
1583.000000	52.493511
1582.000000	52.447888
1581.000000	52.410572
1580.000000	52.378584
1579.000000	52.329117
1578.000000	52.308185
1577.000000	52.277650
1576.000000	52.226206
1575.000000	52.187577
1574.000000	52.152968
1573.000000	52.112105
1572.000000	52.076922
1571.000000	52.041908
1570.000000	51.995024
1569.000000	51.977235
1568.000000	51.948065
1567.000000	51.913914
1566.000000	51.899102
1565.000000	51.860649
1564.000000	51.821261
1563.000000	51.804694
1562.000000	51.777909
1561.000000	51.753628
1560.000000	51.726803
1559.000000	51.692146
1558.000000	51.669619
1557.000000	51.658474
1556.000000	51.638094
1555.000000	51.614736
1554.000000	51.588430
1553.000000	51.565227
1552.000000	51.524372
1551.000000	51.493613
1550.000000	51.454564
1549.000000	51.412563
1548.000000	51.380975
1547.000000	51.329983
1546.000000	51.281649
1545.000000	51.230855
1544.000000	51.159826
1543.000000	51.097469
1542.000000	51.034815
1541.000000	50.975203
1540.000000	50.887743
1539.000000	50.820408
1538.000000	50.749081
1537.000000	50.668814
1536.000000	50.603359
1535.000000	50.524311
1534.000000	50.459016
1533.000000	50.396514
1532.000000	50.328655
1531.000000	50.273568
1530.000000	50.203074
1529.000000	50.122150
1528.000000	50.069580
1527.000000	50.018079
1526.000000	49.963127
1525.000000	49.911125
1524.000000	49.851789
1523.000000	49.805913
1522.000000	49.771952
1521.000000	49.745969
1520.000000	49.709595
1519.000000	49.665472
1518.000000	49.633004
1517.000000	49.609617
1516.000000	49.577225
1515.000000	49.557937
1514.000000	49.563198
1513.000000	49.564471
1512.000000	49.579378
1511.000000	49.514445
1510.000000	49.476382
1509.000000	49.445485
1508.000000	49.408758
1507.000000	49.422135
1506.000000	49.379149
1505.000000	49.353997
1504.000000	49.343293
1503.000000	49.313732
1502.000000	49.335738
1501.000000	49.321419
1500.000000	49.307974
1499.000000	49.322680
1498.000000	49.305890
1497.000000	49.333841
1496.000000	49.294969
1495.000000	49.313510
1494.000000	49.330782
1493.000000	49.347453
1492.000000	49.347675
1491.000000	49.362839
1490.000000	49.388712
1489.000000	49.399576
1488.000000	49.422663
1487.000000	49.455579
1486.000000	49.472619
1485.000000	49.493634
1484.000000	49.526858
1483.000000	49.564521
1482.000000	49.572267
1481.000000	49.606581
1480.000000	49.625468
1479.000000	49.655259
1478.000000	49.698007
1477.000000	49.701287
1476.000000	49.745515
1475.000000	49.767885
1474.000000	49.783351
1473.000000	49.815531
1472.000000	49.842627
1471.000000	49.875521
1470.000000	49.900424
