PE UV       SUBTECH     SPECTRUM    ASCII       PEDS        4.00        
   -1
TDms499171.Sample.asc
18/03/15
14:13:48.00
18/03/15
14:13:48.00
Administrator

200.000000
1
Lambda 750
750N8071901
PerkinElmer UV WinLab 6.0.4.0738 / 1.61.00 Lambda 900

0
0
3350/servo 860.8/2
0
0
UV/VIS
1
1
1
CommonBeamDepol,150mm sphere / downward view
0
0
0
0
Program
Program
3350/servo 860.8/2
3350/0.2 860.8/0.2
3350/0.2 860.8/0.2
0
1
 
 
 
0
 
860.8
319.2
860.8
Front
100
on
 
 
0
0
0
 
0
 
 
 
0
 
 
0
0
0
0
0
 
 
 
 
0
0


0
0
#HDR
-1
-1
#GR
nm
%T
1.0
0.0
2350.000000
-1.000000
2151
8
9.358417
-0.052150
#DATA
2350.000000	4.502575
2349.000000	4.612252
2348.000000	4.204007
2347.000000	5.270515
2346.000000	4.902941
2345.000000	4.576616
2344.000000	4.660777
2343.000000	4.107096
2342.000000	4.570928
2341.000000	4.647862
2340.000000	4.800431
2339.000000	4.847683
2338.000000	4.969253
2337.000000	5.041377
2336.000000	5.216469
2335.000000	5.448663
2334.000000	5.221964
2333.000000	5.126263
2332.000000	5.577708
2331.000000	5.348940
2330.000000	5.194381
2329.000000	5.042096
2328.000000	5.153950
2327.000000	4.804629
2326.000000	5.130588
2325.000000	4.937218
2324.000000	5.111760
2323.000000	5.036227
2322.000000	5.024534
2321.000000	4.915314
2320.000000	4.892399
2319.000000	4.894330
2318.000000	4.921444
2317.000000	4.830068
2316.000000	5.033813
2315.000000	4.947592
2314.000000	4.913882
2313.000000	4.640126
2312.000000	4.624242
2311.000000	4.749660
2310.000000	4.867633
2309.000000	4.742413
2308.000000	4.755455
2307.000000	4.803944
2306.000000	4.920212
2305.000000	4.911673
2304.000000	4.699481
2303.000000	4.603028
2302.000000	4.856661
2301.000000	4.848089
2300.000000	4.679295
2299.000000	4.596464
2298.000000	4.594887
2297.000000	4.426784
2296.000000	4.456000
2295.000000	4.460817
2294.000000	4.586835
2293.000000	4.602333
2292.000000	4.527747
2291.000000	4.362228
2290.000000	4.471222
2289.000000	4.616729
2288.000000	4.591786
2287.000000	4.467219
2286.000000	4.500194
2285.000000	4.405336
2284.000000	4.350276
2283.000000	4.419740
2282.000000	4.453758
2281.000000	4.461355
2280.000000	4.577452
2279.000000	4.625051
2278.000000	4.579903
2277.000000	4.512082
2276.000000	4.497476
2275.000000	4.736206
2274.000000	4.519446
2273.000000	4.568625
2272.000000	4.683695
2271.000000	4.746159
2270.000000	4.781825
2269.000000	4.654684
2268.000000	4.562117
2267.000000	4.517317
2266.000000	4.597212
2265.000000	4.724352
2264.000000	4.745990
2263.000000	4.681516
2262.000000	4.781340
2261.000000	4.740971
2260.000000	4.784030
2259.000000	4.866896
2258.000000	4.921073
2257.000000	4.957925
2256.000000	4.961763
2255.000000	5.031664
2254.000000	5.085548
2253.000000	5.141022
2252.000000	5.109736
2251.000000	5.120581
2250.000000	5.250836
2249.000000	5.315003
2248.000000	5.367969
2247.000000	5.354515
2246.000000	5.410203
2245.000000	5.585547
2244.000000	5.665209
2243.000000	5.654830
2242.000000	5.684490
2241.000000	5.820630
2240.000000	5.888402
2239.000000	5.754243
2238.000000	5.648038
2237.000000	5.752236
2236.000000	5.800412
2235.000000	5.885923
2234.000000	5.877402
2233.000000	5.764132
2232.000000	5.762465
2231.000000	5.798063
2230.000000	5.901946
2229.000000	5.826556
2228.000000	5.860606
2227.000000	5.967314
2226.000000	5.941686
2225.000000	5.879528
2224.000000	5.899227
2223.000000	5.872216
2222.000000	5.820099
2221.000000	5.795950
2220.000000	5.918476
2219.000000	5.899641
2218.000000	5.768473
2217.000000	5.781142
2216.000000	5.825045
2215.000000	5.832618
2214.000000	5.883405
2213.000000	5.959636
2212.000000	5.874137
2211.000000	5.771503
2210.000000	5.823049
2209.000000	5.690444
2208.000000	5.566083
2207.000000	5.726842
2206.000000	5.756784
2205.000000	5.666412
2204.000000	5.636402
2203.000000	5.670268
2202.000000	5.719590
2201.000000	5.692325
2200.000000	5.604140
2199.000000	5.477923
2198.000000	5.479188
2197.000000	5.484176
2196.000000	5.446860
2195.000000	5.351325
2194.000000	5.419200
2193.000000	5.360200
2192.000000	5.310186
2191.000000	5.187784
2190.000000	5.458668
2189.000000	5.496490
2188.000000	5.308501
2187.000000	5.335722
2186.000000	5.420794
2185.000000	5.335065
2184.000000	5.318515
2183.000000	5.367608
2182.000000	5.473072
2181.000000	5.407834
2180.000000	5.431154
2179.000000	5.346848
2178.000000	5.307803
2177.000000	5.203574
2176.000000	5.400115
2175.000000	5.493552
2174.000000	5.452614
2173.000000	5.302013
2172.000000	5.312355
2171.000000	5.378942
2170.000000	5.459982
2169.000000	5.262150
2168.000000	5.447893
2167.000000	5.340780
2166.000000	5.380044
2165.000000	5.300943
2164.000000	5.458062
2163.000000	5.498405
2162.000000	5.537005
2161.000000	5.347060
2160.000000	5.516121
2159.000000	5.470036
2158.000000	5.622466
2157.000000	5.678364
2156.000000	5.812914
2155.000000	5.656153
2154.000000	5.683295
2153.000000	5.900484
2152.000000	5.760050
2151.000000	5.700764
2150.000000	5.715660
2149.000000	5.712969
2148.000000	5.939025
2147.000000	6.007276
2146.000000	5.817652
2145.000000	5.923083
2144.000000	5.957293
2143.000000	5.972208
2142.000000	5.868781
2141.000000	6.121209
2140.000000	5.942324
2139.000000	6.110979
2138.000000	6.095419
2137.000000	6.072255
2136.000000	6.086408
2135.000000	6.119033
2134.000000	6.237128
2133.000000	6.138850
2132.000000	6.236625
2131.000000	6.245310
2130.000000	6.394218
2129.000000	6.290039
2128.000000	6.219056
2127.000000	6.179554
2126.000000	6.176392
2125.000000	6.186173
2124.000000	6.220768
2123.000000	6.137831
2122.000000	6.216208
2121.000000	6.114770
2120.000000	6.321170
2119.000000	6.171424
2118.000000	6.099705
2117.000000	6.122664
2116.000000	6.238107
2115.000000	6.241487
2114.000000	6.221323
2113.000000	6.245335
2112.000000	6.277553
2111.000000	6.313184
2110.000000	6.197280
2109.000000	6.157326
2108.000000	6.034538
2107.000000	6.232392
2106.000000	6.304697
2105.000000	6.260745
2104.000000	6.274333
2103.000000	6.142111
2102.000000	6.228167
2101.000000	6.238463
2100.000000	6.302916
2099.000000	6.247714
2098.000000	6.170843
2097.000000	6.191636
2096.000000	6.354172
2095.000000	6.189299
2094.000000	6.182618
2093.000000	6.248916
2092.000000	6.293640
2091.000000	6.149897
2090.000000	6.160991
2089.000000	6.163820
2088.000000	6.213326
2087.000000	6.223344
2086.000000	6.223557
2085.000000	6.309993
2084.000000	6.263328
2083.000000	6.115280
2082.000000	6.212799
2081.000000	6.153104
2080.000000	6.072553
2079.000000	6.074356
2078.000000	5.986616
2077.000000	5.995139
2076.000000	5.990133
2075.000000	5.948029
2074.000000	6.009540
2073.000000	5.953019
2072.000000	5.893679
2071.000000	5.881830
2070.000000	5.956514
2069.000000	5.880175
2068.000000	5.817178
2067.000000	5.803170
2066.000000	5.744671
2065.000000	5.693656
2064.000000	5.621451
2063.000000	5.574825
2062.000000	5.537575
2061.000000	5.556981
2060.000000	5.504896
2059.000000	5.453330
2058.000000	5.427108
2057.000000	5.465462
2056.000000	5.420825
2055.000000	5.447164
2054.000000	5.483622
2053.000000	5.392757
2052.000000	5.302532
2051.000000	5.261350
2050.000000	5.230552
2049.000000	5.225175
2048.000000	5.203196
2047.000000	5.261897
2046.000000	5.210202
2045.000000	5.171124
2044.000000	5.178586
2043.000000	5.140543
2042.000000	5.082562
2041.000000	5.123031
2040.000000	5.176692
2039.000000	5.187708
2038.000000	5.206345
2037.000000	5.184089
2036.000000	5.167574
2035.000000	5.185178
2034.000000	5.181512
2033.000000	5.231157
2032.000000	5.343641
2031.000000	5.358718
2030.000000	5.383255
2029.000000	5.359830
2028.000000	5.293275
2027.000000	5.356977
2026.000000	5.380435
2025.000000	5.392618
2024.000000	5.467663
2023.000000	5.464713
2022.000000	5.416848
2021.000000	5.413252
2020.000000	5.430075
2019.000000	5.436364
2018.000000	5.394474
2017.000000	5.399482
2016.000000	5.390561
2015.000000	5.389660
2014.000000	5.402466
2013.000000	5.407798
2012.000000	5.390334
2011.000000	5.395655
2010.000000	5.346623
2009.000000	5.290528
2008.000000	5.274196
2007.000000	5.269819
2006.000000	5.258171
2005.000000	5.253353
2004.000000	5.213468
2003.000000	5.188113
2002.000000	5.141973
2001.000000	5.101713
2000.000000	5.092860
1999.000000	5.105963
1998.000000	5.069491
1997.000000	5.042457
1996.000000	5.058668
1995.000000	5.016115
1994.000000	4.944136
1993.000000	4.912918
1992.000000	4.906379
1991.000000	4.907553
1990.000000	4.843505
1989.000000	4.774409
1988.000000	4.763416
1987.000000	4.732577
1986.000000	4.735650
1985.000000	4.724441
1984.000000	4.717106
1983.000000	4.672788
1982.000000	4.633352
1981.000000	4.606407
1980.000000	4.613531
1979.000000	4.621063
1978.000000	4.588983
1977.000000	4.522598
1976.000000	4.511457
1975.000000	4.490470
1974.000000	4.485741
1973.000000	4.469279
1972.000000	4.406593
1971.000000	4.419560
1970.000000	4.388125
1969.000000	4.339453
1968.000000	4.334643
1967.000000	4.308655
1966.000000	4.320064
1965.000000	4.284531
1964.000000	4.216899
1963.000000	4.212112
1962.000000	4.228380
1961.000000	4.232199
1960.000000	4.218607
1959.000000	4.201163
1958.000000	4.199784
1957.000000	4.212875
1956.000000	4.158448
1955.000000	4.124313
1954.000000	4.110830
1953.000000	4.107156
1952.000000	4.111479
1951.000000	4.099726
1950.000000	4.019024
1949.000000	4.072860
1948.000000	4.057455
1947.000000	4.076545
1946.000000	4.085538
1945.000000	4.050234
1944.000000	4.082412
1943.000000	4.079637
1942.000000	4.064420
1941.000000	4.122039
1940.000000	4.156851
1939.000000	4.155254
1938.000000	4.114935
1937.000000	4.129820
1936.000000	4.162874
1935.000000	4.193875
1934.000000	4.202307
1933.000000	4.290701
1932.000000	4.292725
1931.000000	4.261544
1930.000000	4.263308
1929.000000	4.333236
1928.000000	4.357058
1927.000000	4.420916
1926.000000	4.473048
1925.000000	4.539134
1924.000000	4.541641
1923.000000	4.554222
1922.000000	4.623452
1921.000000	4.766761
1920.000000	4.780860
1919.000000	4.834234
1918.000000	4.917143
1917.000000	5.029928
1916.000000	4.907499
1915.000000	5.117980
1914.000000	5.231700
1913.000000	5.348657
1912.000000	5.364760
1911.000000	5.431252
1910.000000	5.496817
1909.000000	5.616530
1908.000000	5.678794
1907.000000	5.728369
1906.000000	5.840021
1905.000000	5.956848
1904.000000	5.998503
1903.000000	6.149509
1902.000000	6.273265
1901.000000	6.348420
1900.000000	6.444029
1899.000000	6.622433
1898.000000	6.729931
1897.000000	6.730671
1896.000000	6.924529
1895.000000	6.981703
1894.000000	7.095938
1893.000000	7.178034
1892.000000	7.194966
1891.000000	7.334457
1890.000000	7.455564
1889.000000	7.522192
1888.000000	7.648070
1887.000000	7.777234
1886.000000	7.788250
1885.000000	7.915321
1884.000000	8.027154
1883.000000	8.137016
1882.000000	8.200651
1881.000000	8.300606
1880.000000	8.377588
1879.000000	8.430384
1878.000000	8.509746
1877.000000	8.594227
1876.000000	8.630869
1875.000000	8.715878
1874.000000	8.757767
1873.000000	8.783461
1872.000000	8.883788
1871.000000	8.951258
1870.000000	8.940660
1869.000000	8.946411
1868.000000	9.004518
1867.000000	9.014433
1866.000000	8.962926
1865.000000	8.943619
1864.000000	8.911131
1863.000000	8.992623
1862.000000	9.023651
1861.000000	8.997546
1860.000000	8.976241
1859.000000	8.942517
1858.000000	8.947367
1857.000000	9.004347
1856.000000	9.052194
1855.000000	9.037881
1854.000000	9.063467
1853.000000	9.086729
1852.000000	9.088419
1851.000000	9.067718
1850.000000	9.084073
1849.000000	9.085810
1848.000000	9.059457
1847.000000	9.091139
1846.000000	9.059739
1845.000000	9.058041
1844.000000	9.046014
1843.000000	9.035949
1842.000000	9.022050
1841.000000	8.999590
1840.000000	9.009544
1839.000000	8.997143
1838.000000	8.972947
1837.000000	8.964708
1836.000000	8.937612
1835.000000	8.898171
1834.000000	8.868166
1833.000000	8.876686
1832.000000	8.886513
1831.000000	8.856938
1830.000000	8.857947
1829.000000	8.843139
1828.000000	8.776892
1827.000000	8.761576
1826.000000	8.775489
1825.000000	8.758860
1824.000000	8.739556
1823.000000	8.744665
1822.000000	8.732530
1821.000000	8.737037
1820.000000	8.754521
1819.000000	8.756046
1818.000000	8.739865
1817.000000	8.708381
1816.000000	8.674137
1815.000000	8.669900
1814.000000	8.669903
1813.000000	8.644910
1812.000000	8.639357
1811.000000	8.636110
1810.000000	8.626724
1809.000000	8.641281
1808.000000	8.651279
1807.000000	8.636317
1806.000000	8.610893
1805.000000	8.601755
1804.000000	8.580664
1803.000000	8.551525
1802.000000	8.553877
1801.000000	8.561725
1800.000000	8.577929
1799.000000	8.564633
1798.000000	8.547936
1797.000000	8.563483
1796.000000	8.569078
1795.000000	8.575216
1794.000000	8.582304
1793.000000	8.566249
1792.000000	8.576117
1791.000000	8.604452
1790.000000	8.595462
1789.000000	8.592654
1788.000000	8.579510
1787.000000	8.585279
1786.000000	8.589906
1785.000000	8.597039
1784.000000	8.619430
1783.000000	8.620616
1782.000000	8.619427
1781.000000	8.597692
1780.000000	8.612517
1779.000000	8.612647
1778.000000	8.587954
1777.000000	8.572649
1776.000000	8.563667
1775.000000	8.566252
1774.000000	8.556801
1773.000000	8.528927
1772.000000	8.524361
1771.000000	8.516664
1770.000000	8.495846
1769.000000	8.507841
1768.000000	8.472255
1767.000000	8.450157
1766.000000	8.434868
1765.000000	8.438080
1764.000000	8.425397
1763.000000	8.400581
1762.000000	8.381126
1761.000000	8.373947
1760.000000	8.361082
1759.000000	8.352828
1758.000000	8.359704
1757.000000	8.337856
1756.000000	8.347054
1755.000000	8.325910
1754.000000	8.327669
1753.000000	8.318026
1752.000000	8.275741
1751.000000	8.267975
1750.000000	8.297271
1749.000000	8.279139
1748.000000	8.260557
1747.000000	8.258674
1746.000000	8.257043
1745.000000	8.184325
1744.000000	8.163096
1743.000000	8.183777
1742.000000	8.156699
1741.000000	8.165691
1740.000000	8.138074
1739.000000	8.111469
1738.000000	8.126901
1737.000000	8.123301
1736.000000	8.101606
1735.000000	8.066634
1734.000000	8.092255
1733.000000	8.082582
1732.000000	8.079390
1731.000000	8.094375
1730.000000	8.089457
1729.000000	8.099228
1728.000000	8.096516
1727.000000	8.104801
1726.000000	8.099253
1725.000000	8.136972
1724.000000	8.113275
1723.000000	8.116770
1722.000000	8.150729
1721.000000	8.173553
1720.000000	8.205337
1719.000000	8.210556
1718.000000	8.229997
1717.000000	8.247080
1716.000000	8.271572
1715.000000	8.255802
1714.000000	8.281950
1713.000000	8.300821
1712.000000	8.302994
1711.000000	8.333925
1710.000000	8.319575
1709.000000	8.314421
1708.000000	8.351868
1707.000000	8.332860
1706.000000	8.365945
1705.000000	8.373070
1704.000000	8.401806
1703.000000	8.388893
1702.000000	8.371313
1701.000000	8.365551
1700.000000	8.377151
1699.000000	8.359208
1698.000000	8.396415
1697.000000	8.399878
1696.000000	8.397776
1695.000000	8.416959
1694.000000	8.434749
1693.000000	8.420143
1692.000000	8.416372
1691.000000	8.440946
1690.000000	8.478861
1689.000000	8.467161
1688.000000	8.482113
1687.000000	8.506941
1686.000000	8.552827
1685.000000	8.593693
1684.000000	8.590666
1683.000000	8.621165
1682.000000	8.626874
1681.000000	8.672319
1680.000000	8.691249
1679.000000	8.697014
1678.000000	8.744096
1677.000000	8.753893
1676.000000	8.794313
1675.000000	8.814988
1674.000000	8.844932
1673.000000	8.842996
1672.000000	8.889121
1671.000000	8.906824
1670.000000	8.937081
1669.000000	8.926116
1668.000000	8.941306
1667.000000	8.950715
1666.000000	8.967971
1665.000000	8.968526
1664.000000	8.973093
1663.000000	8.978690
1662.000000	9.013197
1661.000000	9.027586
1660.000000	9.026729
1659.000000	9.064015
1658.000000	9.085003
1657.000000	9.128155
1656.000000	9.103362
1655.000000	9.095083
1654.000000	9.095608
1653.000000	9.097164
1652.000000	9.082489
1651.000000	9.090209
1650.000000	9.098741
1649.000000	9.110283
1648.000000	9.066364
1647.000000	9.080840
1646.000000	9.075323
1645.000000	9.068657
1644.000000	9.072547
1643.000000	9.051638
1642.000000	9.041436
1641.000000	9.020548
1640.000000	9.013185
1639.000000	9.015967
1638.000000	8.992602
1637.000000	8.995462
1636.000000	8.987325
1635.000000	8.982173
1634.000000	8.948496
1633.000000	8.945543
1632.000000	8.940738
1631.000000	8.922296
1630.000000	8.909997
1629.000000	8.895897
1628.000000	8.894917
1627.000000	8.886773
1626.000000	8.875725
1625.000000	8.863864
1624.000000	8.855442
1623.000000	8.857455
1622.000000	8.827526
1621.000000	8.814940
1620.000000	8.817294
1619.000000	8.805620
1618.000000	8.782819
1617.000000	8.778601
1616.000000	8.768720
1615.000000	8.756977
1614.000000	8.752940
1613.000000	8.748339
1612.000000	8.736652
1611.000000	8.716027
1610.000000	8.713072
1609.000000	8.710406
1608.000000	8.708822
1607.000000	8.693903
1606.000000	8.672735
1605.000000	8.664114
1604.000000	8.641621
1603.000000	8.619661
1602.000000	8.610315
1601.000000	8.611169
1600.000000	8.608184
1599.000000	8.589962
1598.000000	8.576928
1597.000000	8.558136
1596.000000	8.548148
1595.000000	8.549569
1594.000000	8.550833
1593.000000	8.543635
1592.000000	8.536225
1591.000000	8.519547
1590.000000	8.507638
1589.000000	8.495122
1588.000000	8.486239
1587.000000	8.487105
1586.000000	8.476479
1585.000000	8.469097
1584.000000	8.466694
1583.000000	8.458544
1582.000000	8.456422
1581.000000	8.446498
1580.000000	8.439492
1579.000000	8.430730
1578.000000	8.419445
1577.000000	8.409738
1576.000000	8.395084
1575.000000	8.390347
1574.000000	8.378755
1573.000000	8.363125
1572.000000	8.353071
1571.000000	8.347532
1570.000000	8.342121
1569.000000	8.332185
1568.000000	8.314162
1567.000000	8.310408
1566.000000	8.304488
1565.000000	8.284115
1564.000000	8.282878
1563.000000	8.275685
1562.000000	8.270204
1561.000000	8.257474
1560.000000	8.239144
1559.000000	8.228083
1558.000000	8.208989
1557.000000	8.209970
1556.000000	8.209716
1555.000000	8.209822
1554.000000	8.186159
1553.000000	8.174079
1552.000000	8.156313
1551.000000	8.149965
1550.000000	8.148068
1549.000000	8.136251
1548.000000	8.121110
1547.000000	8.115180
1546.000000	8.089544
1545.000000	8.069521
1544.000000	8.045866
1543.000000	8.025628
1542.000000	8.008235
1541.000000	7.990906
1540.000000	7.960070
1539.000000	7.940496
1538.000000	7.934743
1537.000000	7.899927
1536.000000	7.894335
1535.000000	7.880714
1534.000000	7.860276
1533.000000	7.844404
1532.000000	7.814592
1531.000000	7.801289
1530.000000	7.775360
1529.000000	7.749526
1528.000000	7.760711
1527.000000	7.750086
1526.000000	7.725565
1525.000000	7.714153
1524.000000	7.715483
1523.000000	7.701290
1522.000000	7.684362
1521.000000	7.675128
1520.000000	7.665182
1519.000000	7.675503
1518.000000	7.653940
1517.000000	7.636573
1516.000000	7.624741
1515.000000	7.634371
1514.000000	7.632821
1513.000000	7.619677
1512.000000	7.605839
1511.000000	7.610268
1510.000000	7.616419
1509.000000	7.588384
1508.000000	7.596096
1507.000000	7.601924
1506.000000	7.598725
1505.000000	7.602942
1504.000000	7.586437
1503.000000	7.607640
1502.000000	7.593621
1501.000000	7.599483
1500.000000	7.597950
1499.000000	7.589484
1498.000000	7.616322
1497.000000	7.643531
1496.000000	7.623373
1495.000000	7.605536
1494.000000	7.600580
1493.000000	7.608731
1492.000000	7.605678
1491.000000	7.590130
1490.000000	7.595770
1489.000000	7.617495
1488.000000	7.602147
1487.000000	7.622092
1486.000000	7.598479
1485.000000	7.606476
1484.000000	7.616144
1483.000000	7.616657
1482.000000	7.617889
1481.000000	7.632093
1480.000000	7.641377
1479.000000	7.625200
1478.000000	7.628252
1477.000000	7.606103
1476.000000	7.613794
1475.000000	7.610196
1474.000000	7.624533
1473.000000	7.623352
1472.000000	7.608857
1471.000000	7.634980
1470.000000	7.623888
1469.000000	7.613090
1468.000000	7.608367
1467.000000	7.610192
1466.000000	7.640919
1465.000000	7.648469
1464.000000	7.641512
1463.000000	7.619012
1462.000000	7.635808
1461.000000	7.653401
1460.000000	7.653675
1459.000000	7.665325
1458.000000	7.648664
1457.000000	7.660547
1456.000000	7.661961
1455.000000	7.655630
1454.000000	7.668999
1453.000000	7.689567
1452.000000	7.707178
1451.000000	7.690314
1450.000000	7.694893
1449.000000	7.698801
1448.000000	7.729125
1447.000000	7.729634
1446.000000	7.735539
1445.000000	7.743461
1444.000000	7.755592
1443.000000	7.745571
1442.000000	7.764104
1441.000000	7.762816
1440.000000	7.783146
1439.000000	7.832865
1438.000000	7.850928
1437.000000	7.866151
1436.000000	7.870278
1435.000000	7.871965
1434.000000	7.898151
1433.000000	7.918689
1432.000000	7.933265
1431.000000	7.965414
1430.000000	7.996066
1429.000000	8.003210
1428.000000	8.016651
