PE UV       SUBTECH     SPECTRUM    ASCII       PEDS        4.00        
   -1
TDms499181.Sample.asc
18/03/15
15:04:17.00
18/03/15
15:04:17.00
Administrator

200.000000
1
Lambda 750
750N8071901
PerkinElmer UV WinLab 6.0.4.0738 / 1.61.00 Lambda 900

0
0
3350/servo 860.8/2
0
0
UV/VIS
1
1
1
CommonBeamDepol,150mm sphere / downward view
0
0
0
0
Program
Program
3350/servo 860.8/2
3350/0.2 860.8/0.2
3350/0.2 860.8/0.2
0
1
 
 
 
0
 
860.8
319.2
860.8
Front
100
on
 
 
0
0
0
 
0
 
 
 
0
 
 
0
0
0
0
0
 
 
 
 
0
0


0
0
#HDR
-1
-1
#GR
nm
%T
1.0
0.0
2350.000000
-1.000000
2151
8
6.802196
-0.064928
#DATA
2350.000000	1.535708
2349.000000	1.785177
2348.000000	1.381535
2347.000000	1.935068
2346.000000	1.903270
2345.000000	1.555921
2344.000000	1.123797
2343.000000	1.436930
2342.000000	1.131313
2341.000000	1.325984
2340.000000	1.479991
2339.000000	1.705133
2338.000000	2.063216
2337.000000	1.856623
2336.000000	2.028369
2335.000000	2.578912
2334.000000	2.126894
2333.000000	2.091182
2332.000000	2.337006
2331.000000	2.295605
2330.000000	2.028321
2329.000000	1.993518
2328.000000	2.149387
2327.000000	2.155039
2326.000000	1.878348
2325.000000	1.818911
2324.000000	1.934463
2323.000000	1.798105
2322.000000	2.062441
2321.000000	2.070796
2320.000000	2.054270
2319.000000	1.770541
2318.000000	2.118046
2317.000000	2.051389
2316.000000	2.073252
2315.000000	2.049945
2314.000000	1.851464
2313.000000	1.886948
2312.000000	1.636110
2311.000000	1.752479
2310.000000	1.558771
2309.000000	1.950644
2308.000000	1.905558
2307.000000	1.768478
2306.000000	1.965923
2305.000000	1.952003
2304.000000	2.004336
2303.000000	1.884854
2302.000000	1.933238
2301.000000	1.965095
2300.000000	1.836096
2299.000000	1.769590
2298.000000	1.661925
2297.000000	1.709953
2296.000000	1.637609
2295.000000	1.877089
2294.000000	1.722580
2293.000000	1.570155
2292.000000	1.672185
2291.000000	1.758662
2290.000000	1.797474
2289.000000	1.728045
2288.000000	1.846866
2287.000000	1.713583
2286.000000	1.606511
2285.000000	1.594819
2284.000000	1.657493
2283.000000	1.780201
2282.000000	1.747890
2281.000000	1.656708
2280.000000	1.692335
2279.000000	1.675464
2278.000000	1.590564
2277.000000	1.481504
2276.000000	1.622521
2275.000000	1.750814
2274.000000	1.808728
2273.000000	1.901297
2272.000000	1.808742
2271.000000	1.684493
2270.000000	1.665686
2269.000000	1.680054
2268.000000	1.608138
2267.000000	1.599816
2266.000000	1.683019
2265.000000	1.709000
2264.000000	1.792925
2263.000000	1.720301
2262.000000	1.586910
2261.000000	1.671145
2260.000000	1.820666
2259.000000	1.861139
2258.000000	1.880407
2257.000000	1.984624
2256.000000	2.037520
2255.000000	2.046991
2254.000000	2.083850
2253.000000	2.039286
2252.000000	2.002672
2251.000000	2.211925
2250.000000	2.214501
2249.000000	2.047176
2248.000000	2.040014
2247.000000	2.114379
2246.000000	2.168299
2245.000000	2.107056
2244.000000	2.156654
2243.000000	2.247301
2242.000000	2.290205
2241.000000	2.288492
2240.000000	2.309003
2239.000000	2.376359
2238.000000	2.404715
2237.000000	2.406899
2236.000000	2.288915
2235.000000	2.289808
2234.000000	2.376552
2233.000000	2.367137
2232.000000	2.445668
2231.000000	2.525932
2230.000000	2.460625
2229.000000	2.436275
2228.000000	2.567273
2227.000000	2.641876
2226.000000	2.577558
2225.000000	2.577734
2224.000000	2.564930
2223.000000	2.601419
2222.000000	2.448645
2221.000000	2.487647
2220.000000	2.621475
2219.000000	2.670170
2218.000000	2.510286
2217.000000	2.415967
2216.000000	2.371943
2215.000000	2.482193
2214.000000	2.632816
2213.000000	2.591234
2212.000000	2.533355
2211.000000	2.587863
2210.000000	2.541375
2209.000000	2.468954
2208.000000	2.401382
2207.000000	2.426431
2206.000000	2.355848
2205.000000	2.360660
2204.000000	2.474160
2203.000000	2.304671
2202.000000	2.240105
2201.000000	2.317186
2200.000000	2.331109
2199.000000	2.295675
2198.000000	2.292009
2197.000000	2.270070
2196.000000	2.301736
2195.000000	2.339707
2194.000000	2.281668
2193.000000	2.234627
2192.000000	2.226670
2191.000000	2.085342
2190.000000	2.209555
2189.000000	2.228560
2188.000000	2.236548
2187.000000	2.114057
2186.000000	2.096385
2185.000000	2.251123
2184.000000	2.342852
2183.000000	2.217674
2182.000000	2.260391
2181.000000	2.005860
2180.000000	2.115003
2179.000000	2.254367
2178.000000	2.059582
2177.000000	2.015664
2176.000000	2.091581
2175.000000	2.105753
2174.000000	2.292705
2173.000000	2.245307
2172.000000	2.235737
2171.000000	2.335728
2170.000000	2.364077
2169.000000	2.361893
2168.000000	2.348742
2167.000000	2.376652
2166.000000	2.421141
2165.000000	2.136320
2164.000000	2.335315
2163.000000	2.190868
2162.000000	2.192783
2161.000000	2.216659
2160.000000	2.241214
2159.000000	2.494940
2158.000000	2.287453
2157.000000	2.411840
2156.000000	2.307386
2155.000000	2.497230
2154.000000	2.462503
2153.000000	2.690398
2152.000000	2.523748
2151.000000	2.494946
2150.000000	2.430836
2149.000000	2.420733
2148.000000	2.355706
2147.000000	2.410619
2146.000000	2.528365
2145.000000	2.503734
2144.000000	2.848672
2143.000000	2.703178
2142.000000	2.462343
2141.000000	2.646255
2140.000000	2.469751
2139.000000	2.707556
2138.000000	2.688242
2137.000000	2.619896
2136.000000	2.805869
2135.000000	2.808962
2134.000000	2.802695
2133.000000	2.456445
2132.000000	2.849699
2131.000000	2.950876
2130.000000	2.705695
2129.000000	2.741634
2128.000000	2.511754
2127.000000	2.596826
2126.000000	2.609235
2125.000000	2.465231
2124.000000	2.683510
2123.000000	2.520023
2122.000000	2.614684
2121.000000	2.532512
2120.000000	2.632194
2119.000000	2.756174
2118.000000	2.794220
2117.000000	2.771004
2116.000000	2.702458
2115.000000	2.752658
2114.000000	2.848904
2113.000000	2.777954
2112.000000	2.821450
2111.000000	2.787222
2110.000000	2.656035
2109.000000	2.692967
2108.000000	2.637339
2107.000000	2.752324
2106.000000	2.731202
2105.000000	2.653287
2104.000000	2.623040
2103.000000	2.727220
2102.000000	2.703381
2101.000000	2.617096
2100.000000	2.719708
2099.000000	2.698275
2098.000000	2.787986
2097.000000	2.860900
2096.000000	2.741359
2095.000000	2.718477
2094.000000	2.701167
2093.000000	2.689994
2092.000000	2.744230
2091.000000	2.752552
2090.000000	2.735002
2089.000000	2.795096
2088.000000	2.756315
2087.000000	2.702553
2086.000000	2.761430
2085.000000	2.837574
2084.000000	2.763894
2083.000000	2.697478
2082.000000	2.757735
2081.000000	2.706179
2080.000000	2.734537
2079.000000	2.711238
2078.000000	2.616574
2077.000000	2.632588
2076.000000	2.581783
2075.000000	2.446350
2074.000000	2.499947
2073.000000	2.607668
2072.000000	2.561815
2071.000000	2.477203
2070.000000	2.527450
2069.000000	2.518201
2068.000000	2.530718
2067.000000	2.499004
2066.000000	2.393032
2065.000000	2.368758
2064.000000	2.303357
2063.000000	2.242435
2062.000000	2.260855
2061.000000	2.229721
2060.000000	2.185983
2059.000000	2.214709
2058.000000	2.218863
2057.000000	2.163397
2056.000000	2.099629
2055.000000	2.134206
2054.000000	2.130987
2053.000000	2.083487
2052.000000	2.024122
2051.000000	1.979825
2050.000000	2.013795
2049.000000	2.010655
2048.000000	1.987290
2047.000000	2.048057
2046.000000	2.051943
2045.000000	2.009455
2044.000000	1.968198
2043.000000	1.967078
2042.000000	1.977882
2041.000000	1.963219
2040.000000	1.973792
2039.000000	1.989184
2038.000000	2.013810
2037.000000	2.002399
2036.000000	1.932214
2035.000000	1.932161
2034.000000	1.988802
2033.000000	2.027543
2032.000000	2.024411
2031.000000	2.030221
2030.000000	2.063861
2029.000000	2.063107
2028.000000	2.087722
2027.000000	2.084876
2026.000000	2.094943
2025.000000	2.157472
2024.000000	2.151802
2023.000000	2.143753
2022.000000	2.115486
2021.000000	2.110395
2020.000000	2.147261
2019.000000	2.138061
2018.000000	2.146008
2017.000000	2.184856
2016.000000	2.141732
2015.000000	2.102218
2014.000000	2.161249
2013.000000	2.169514
2012.000000	2.137084
2011.000000	2.127825
2010.000000	2.105300
2009.000000	2.108134
2008.000000	2.089101
2007.000000	2.051089
2006.000000	2.044754
2005.000000	2.062077
2004.000000	2.017129
2003.000000	1.988929
2002.000000	2.004807
2001.000000	1.974183
2000.000000	1.948750
1999.000000	1.948196
1998.000000	1.920945
1997.000000	1.895061
1996.000000	1.922954
1995.000000	1.938316
1994.000000	1.917383
1993.000000	1.887923
1992.000000	1.852954
1991.000000	1.813577
1990.000000	1.806343
1989.000000	1.828372
1988.000000	1.810686
1987.000000	1.808405
1986.000000	1.800046
1985.000000	1.764520
1984.000000	1.779141
1983.000000	1.760884
1982.000000	1.734453
1981.000000	1.728594
1980.000000	1.744567
1979.000000	1.723575
1978.000000	1.709693
1977.000000	1.703931
1976.000000	1.712718
1975.000000	1.685320
1974.000000	1.661344
1973.000000	1.635100
1972.000000	1.600185
1971.000000	1.618954
1970.000000	1.635956
1969.000000	1.620491
1968.000000	1.606332
1967.000000	1.638994
1966.000000	1.634750
1965.000000	1.595753
1964.000000	1.600618
1963.000000	1.616620
1962.000000	1.610145
1961.000000	1.589292
1960.000000	1.552932
1959.000000	1.541092
1958.000000	1.565188
1957.000000	1.608196
1956.000000	1.566818
1955.000000	1.581426
1954.000000	1.519726
1953.000000	1.555217
1952.000000	1.539994
1951.000000	1.590562
1950.000000	1.582730
1949.000000	1.572016
1948.000000	1.568477
1947.000000	1.587888
1946.000000	1.609776
1945.000000	1.551503
1944.000000	1.558262
1943.000000	1.612701
1942.000000	1.630346
1941.000000	1.612193
1940.000000	1.624690
1939.000000	1.656235
1938.000000	1.619800
1937.000000	1.647537
1936.000000	1.682705
1935.000000	1.706271
1934.000000	1.690578
1933.000000	1.612464
1932.000000	1.651873
1931.000000	1.600760
1930.000000	1.693772
1929.000000	1.694101
1928.000000	1.815946
1927.000000	1.781571
1926.000000	1.756539
1925.000000	1.773360
1924.000000	1.754631
1923.000000	1.859920
1922.000000	1.865566
1921.000000	1.974221
1920.000000	1.981459
1919.000000	1.957191
1918.000000	1.961942
1917.000000	2.119466
1916.000000	1.999763
1915.000000	2.146259
1914.000000	2.107569
1913.000000	2.311834
1912.000000	2.330419
1911.000000	2.366538
1910.000000	2.365626
1909.000000	2.361290
1908.000000	2.479983
1907.000000	2.462867
1906.000000	2.553409
1905.000000	2.563081
1904.000000	2.683882
1903.000000	2.782610
1902.000000	2.874584
1901.000000	2.933456
1900.000000	3.054661
1899.000000	3.096660
1898.000000	3.189753
1897.000000	3.262276
1896.000000	3.376800
1895.000000	3.382461
1894.000000	3.534153
1893.000000	3.603594
1892.000000	3.724303
1891.000000	3.811909
1890.000000	3.913116
1889.000000	3.943170
1888.000000	4.111530
1887.000000	4.188302
1886.000000	4.246307
1885.000000	4.385182
1884.000000	4.454073
1883.000000	4.565353
1882.000000	4.636680
1881.000000	4.707447
1880.000000	4.786774
1879.000000	4.871295
1878.000000	4.948887
1877.000000	4.940167
1876.000000	5.052660
1875.000000	5.164235
1874.000000	5.187461
1873.000000	5.243398
1872.000000	5.306885
1871.000000	5.297850
1870.000000	5.364073
1869.000000	5.430609
1868.000000	5.449029
1867.000000	5.446403
1866.000000	5.421673
1865.000000	5.419487
1864.000000	5.384888
1863.000000	5.372006
1862.000000	5.442717
1861.000000	5.432946
1860.000000	5.454933
1859.000000	5.472842
1858.000000	5.465516
1857.000000	5.449955
1856.000000	5.479906
1855.000000	5.507699
1854.000000	5.522627
1853.000000	5.583476
1852.000000	5.542900
1851.000000	5.535858
1850.000000	5.565623
1849.000000	5.560154
1848.000000	5.541224
1847.000000	5.557695
1846.000000	5.547169
1845.000000	5.559527
1844.000000	5.515199
1843.000000	5.540056
1842.000000	5.537078
1841.000000	5.512642
1840.000000	5.512772
1839.000000	5.508372
1838.000000	5.499017
1837.000000	5.481646
1836.000000	5.445683
1835.000000	5.385969
1834.000000	5.375020
1833.000000	5.350748
1832.000000	5.357564
1831.000000	5.355737
1830.000000	5.334161
1829.000000	5.307745
1828.000000	5.304188
1827.000000	5.291769
1826.000000	5.268917
1825.000000	5.231024
1824.000000	5.210955
1823.000000	5.224664
1822.000000	5.212882
1821.000000	5.230129
1820.000000	5.205342
1819.000000	5.179100
1818.000000	5.169283
1817.000000	5.159141
1816.000000	5.153397
1815.000000	5.140409
1814.000000	5.156521
1813.000000	5.136607
1812.000000	5.116245
1811.000000	5.140332
1810.000000	5.139485
1809.000000	5.125921
1808.000000	5.119950
1807.000000	5.112368
1806.000000	5.126973
1805.000000	5.106243
1804.000000	5.072351
1803.000000	5.069050
1802.000000	5.068258
1801.000000	5.069027
1800.000000	5.070095
1799.000000	5.068310
1798.000000	5.059295
1797.000000	5.059996
1796.000000	5.086692
1795.000000	5.105901
1794.000000	5.103965
1793.000000	5.093410
1792.000000	5.083252
1791.000000	5.087151
1790.000000	5.081632
1789.000000	5.101197
1788.000000	5.114390
1787.000000	5.118356
1786.000000	5.129126
1785.000000	5.127661
1784.000000	5.123877
1783.000000	5.097749
1782.000000	5.110025
1781.000000	5.111042
1780.000000	5.109552
1779.000000	5.123851
1778.000000	5.109362
1777.000000	5.088254
1776.000000	5.061617
1775.000000	5.048078
1774.000000	5.055139
1773.000000	5.058977
1772.000000	5.032685
1771.000000	5.017580
1770.000000	4.986181
1769.000000	4.969874
1768.000000	4.970965
1767.000000	4.958532
1766.000000	4.949639
1765.000000	4.915028
1764.000000	4.931037
1763.000000	4.900297
1762.000000	4.880899
1761.000000	4.882419
1760.000000	4.878363
1759.000000	4.841635
1758.000000	4.824252
1757.000000	4.821889
1756.000000	4.818035
1755.000000	4.794145
1754.000000	4.797827
1753.000000	4.788832
1752.000000	4.759857
1751.000000	4.754897
1750.000000	4.783903
1749.000000	4.767788
1748.000000	4.709380
1747.000000	4.695395
1746.000000	4.676039
1745.000000	4.648682
1744.000000	4.630798
1743.000000	4.635513
1742.000000	4.608253
1741.000000	4.620227
1740.000000	4.616054
1739.000000	4.590035
1738.000000	4.579633
1737.000000	4.562189
1736.000000	4.578582
1735.000000	4.574304
1734.000000	4.565096
1733.000000	4.571428
1732.000000	4.574218
1731.000000	4.546450
1730.000000	4.503271
1729.000000	4.505825
1728.000000	4.555673
1727.000000	4.591950
1726.000000	4.580713
1725.000000	4.572901
1724.000000	4.600051
1723.000000	4.584212
1722.000000	4.625231
1721.000000	4.652899
1720.000000	4.683736
1719.000000	4.680329
1718.000000	4.695104
1717.000000	4.720208
1716.000000	4.751271
1715.000000	4.746273
1714.000000	4.734049
1713.000000	4.741965
1712.000000	4.802183
1711.000000	4.809001
1710.000000	4.845462
1709.000000	4.831876
1708.000000	4.862385
1707.000000	4.849918
1706.000000	4.867005
1705.000000	4.857281
1704.000000	4.853349
1703.000000	4.887319
1702.000000	4.881102
1701.000000	4.883242
1700.000000	4.931918
1699.000000	4.882567
1698.000000	4.912190
1697.000000	4.930995
1696.000000	4.969924
1695.000000	4.943010
1694.000000	4.950791
1693.000000	4.952852
1692.000000	4.948362
1691.000000	4.964010
1690.000000	5.012158
1689.000000	5.009062
1688.000000	5.046913
1687.000000	5.072955
1686.000000	5.117278
1685.000000	5.141334
1684.000000	5.185444
1683.000000	5.209962
1682.000000	5.239834
1681.000000	5.272899
1680.000000	5.302020
1679.000000	5.306445
1678.000000	5.340004
1677.000000	5.379923
1676.000000	5.430491
1675.000000	5.459355
1674.000000	5.500962
1673.000000	5.524756
1672.000000	5.535384
1671.000000	5.591657
1670.000000	5.625139
1669.000000	5.646663
1668.000000	5.644164
1667.000000	5.705003
1666.000000	5.691421
1665.000000	5.684127
1664.000000	5.711274
1663.000000	5.734750
1662.000000	5.738822
1661.000000	5.757256
1660.000000	5.765166
1659.000000	5.796369
1658.000000	5.803691
1657.000000	5.837025
1656.000000	5.857691
1655.000000	5.871515
1654.000000	5.858526
1653.000000	5.860685
1652.000000	5.872011
1651.000000	5.864720
1650.000000	5.862554
1649.000000	5.861728
1648.000000	5.861810
1647.000000	5.856662
1646.000000	5.833332
1645.000000	5.820552
1644.000000	5.818989
1643.000000	5.811933
1642.000000	5.809333
1641.000000	5.799315
1640.000000	5.787974
1639.000000	5.781859
1638.000000	5.775002
1637.000000	5.770427
1636.000000	5.736036
1635.000000	5.737493
1634.000000	5.720463
1633.000000	5.717899
1632.000000	5.696360
1631.000000	5.674776
1630.000000	5.659240
1629.000000	5.670339
1628.000000	5.635309
1627.000000	5.636550
1626.000000	5.643463
1625.000000	5.629312
1624.000000	5.610723
1623.000000	5.594966
1622.000000	5.599065
1621.000000	5.606928
1620.000000	5.595325
1619.000000	5.563060
1618.000000	5.532336
1617.000000	5.523961
1616.000000	5.507919
1615.000000	5.490728
1614.000000	5.486064
1613.000000	5.488447
1612.000000	5.464980
1611.000000	5.444540
1610.000000	5.439160
1609.000000	5.428058
1608.000000	5.422702
1607.000000	5.404877
1606.000000	5.392594
1605.000000	5.383243
1604.000000	5.363664
1603.000000	5.349607
1602.000000	5.334770
1601.000000	5.327809
1600.000000	5.325682
1599.000000	5.313881
1598.000000	5.297201
1597.000000	5.282600
1596.000000	5.277647
1595.000000	5.278217
1594.000000	5.270437
1593.000000	5.263958
1592.000000	5.256561
1591.000000	5.244794
1590.000000	5.226850
1589.000000	5.205625
1588.000000	5.198844
1587.000000	5.199212
1586.000000	5.191162
1585.000000	5.184212
1584.000000	5.168873
1583.000000	5.150445
1582.000000	5.152285
1581.000000	5.149165
1580.000000	5.134831
1579.000000	5.125618
1578.000000	5.112877
1577.000000	5.116354
1576.000000	5.096574
1575.000000	5.078056
1574.000000	5.081981
1573.000000	5.066946
1572.000000	5.058786
1571.000000	5.044600
1570.000000	5.021115
1569.000000	5.007010
1568.000000	5.007400
1567.000000	4.985090
1566.000000	4.984415
1565.000000	4.976182
1564.000000	4.963954
1563.000000	4.973089
1562.000000	4.957686
1561.000000	4.937710
1560.000000	4.931393
1559.000000	4.912663
1558.000000	4.897907
1557.000000	4.888566
1556.000000	4.891489
1555.000000	4.887158
1554.000000	4.875292
1553.000000	4.857677
1552.000000	4.830723
1551.000000	4.822802
1550.000000	4.816885
1549.000000	4.799748
1548.000000	4.789292
1547.000000	4.776375
1546.000000	4.768874
1545.000000	4.757637
1544.000000	4.725381
1543.000000	4.704815
1542.000000	4.702923
1541.000000	4.668763
1540.000000	4.647044
1539.000000	4.615526
1538.000000	4.608002
1537.000000	4.575699
1536.000000	4.552196
1535.000000	4.538832
1534.000000	4.508743
1533.000000	4.507226
1532.000000	4.487025
1531.000000	4.468341
1530.000000	4.442007
1529.000000	4.426260
1528.000000	4.414812
1527.000000	4.387586
1526.000000	4.375261
1525.000000	4.371235
1524.000000	4.347390
1523.000000	4.348495
1522.000000	4.340403
1521.000000	4.315696
1520.000000	4.308633
1519.000000	4.306019
1518.000000	4.316940
1517.000000	4.305455
1516.000000	4.301692
1515.000000	4.287858
1514.000000	4.275344
1513.000000	4.268567
1512.000000	4.291315
1511.000000	4.273268
1510.000000	4.280114
1509.000000	4.272233
1508.000000	4.257002
1507.000000	4.253689
1506.000000	4.248450
1505.000000	4.266273
1504.000000	4.263351
1503.000000	4.282399
1502.000000	4.273932
1501.000000	4.264370
1500.000000	4.270656
1499.000000	4.261026
1498.000000	4.263828
1497.000000	4.290705
1496.000000	4.294401
1495.000000	4.307974
1494.000000	4.296227
1493.000000	4.289370
1492.000000	4.277662
1491.000000	4.297168
1490.000000	4.291372
1489.000000	4.274118
1488.000000	4.296020
1487.000000	4.295707
1486.000000	4.319125
1485.000000	4.328996
1484.000000	4.327343
1483.000000	4.319653
1482.000000	4.305882
1481.000000	4.344217
1480.000000	4.345964
1479.000000	4.344820
1478.000000	4.344146
1477.000000	4.320055
1476.000000	4.326243
1475.000000	4.331128
1474.000000	4.344120
1473.000000	4.348680
1472.000000	4.346805
1471.000000	4.330998
1470.000000	4.332859
1469.000000	4.334719
1468.000000	4.354103
1467.000000	4.383187
1466.000000	4.401287
1465.000000	4.375356
1464.000000	4.373100
1463.000000	4.365028
1462.000000	4.375782
1461.000000	4.390817
1460.000000	4.388685
1459.000000	4.403325
1458.000000	4.406022
1457.000000	4.424047
1456.000000	4.431093
1455.000000	4.428808
1454.000000	4.421597
1453.000000	4.461139
1452.000000	4.467084
1451.000000	4.464547
1450.000000	4.466157
1449.000000	4.463396
1448.000000	4.469446
1447.000000	4.512680
1446.000000	4.536047
1445.000000	4.523768
1444.000000	4.538681
1443.000000	4.549365
1442.000000	4.569460
1441.000000	4.571090
1440.000000	4.589609
1439.000000	4.609455
1438.000000	4.620949
1437.000000	4.679818
1436.000000	4.698870
1435.000000	4.704174
1434.000000	4.718083
1433.000000	4.744372
1432.000000	4.769451
1431.000000	4.795238
1430.000000	4.820124
1429.000000	4.844487
1428.000000	4.868372
