PE UV       SUBTECH     SPECTRUM    ASCII       PEDS        4.00        
   -1
TDms1556141.Sample.asc
18/03/15
10:06:17.00
18/03/15
10:06:17.00
Administrator

200.000000
1
Lambda 750
750N8071901
PerkinElmer UV WinLab 6.0.4.0738 / 1.61.00 Lambda 900

0
0
3350/servo 860.8/2
0
0
UV/VIS
1
1
1
CommonBeamDepol,150mm sphere / downward view
0
0
0
0
Program
Program
3350/servo 860.8/2
3350/0.2 860.8/0.2
3350/0.2 860.8/0.2
0
1
 
 
 
0
 
860.8
319.2
860.8
Front
100
on
 
 
0
0
0
 
0
 
 
 
0
 
 
0
0
0
0
0
 
 
 
 
0
0


0
0
#HDR
-1
-1
#GR
nm
%T
1.0
0.0
2350.000000
-1.000000
2151
8
11.691804
-0.009607
#DATA
2350.000000	5.517962
2349.000000	6.112303
2348.000000	6.075537
2347.000000	6.531912
2346.000000	6.677430
2345.000000	6.317849
2344.000000	6.301778
2343.000000	5.824070
2342.000000	6.150632
2341.000000	5.720104
2340.000000	6.202704
2339.000000	6.689400
2338.000000	6.532775
2337.000000	6.482116
2336.000000	6.722930
2335.000000	7.083805
2334.000000	6.713448
2333.000000	6.775594
2332.000000	7.000851
2331.000000	6.932660
2330.000000	6.752544
2329.000000	6.610425
2328.000000	6.748516
2327.000000	6.642658
2326.000000	6.705796
2325.000000	6.744506
2324.000000	6.833414
2323.000000	6.581594
2322.000000	6.619398
2321.000000	6.594908
2320.000000	6.606950
2319.000000	6.458797
2318.000000	6.493875
2317.000000	6.541968
2316.000000	6.604452
2315.000000	6.511649
2314.000000	6.552618
2313.000000	6.641127
2312.000000	6.546765
2311.000000	6.713747
2310.000000	6.520649
2309.000000	6.174188
2308.000000	6.132292
2307.000000	6.097969
2306.000000	6.088454
2305.000000	6.327873
2304.000000	6.273754
2303.000000	6.457749
2302.000000	6.478076
2301.000000	6.405824
2300.000000	6.381555
2299.000000	6.082871
2298.000000	6.249337
2297.000000	6.071406
2296.000000	5.987930
2295.000000	6.077694
2294.000000	5.939683
2293.000000	5.999860
2292.000000	6.075201
2291.000000	5.810650
2290.000000	5.965835
2289.000000	6.007902
2288.000000	6.163229
2287.000000	6.501068
2286.000000	6.283161
2285.000000	6.069390
2284.000000	6.099858
2283.000000	5.895344
2282.000000	5.884410
2281.000000	6.087838
2280.000000	6.052458
2279.000000	6.180608
2278.000000	6.142188
2277.000000	6.060955
2276.000000	6.083442
2275.000000	6.084416
2274.000000	6.064458
2273.000000	6.154587
2272.000000	6.161290
2271.000000	6.150020
2270.000000	6.137922
2269.000000	6.130411
2268.000000	6.131961
2267.000000	6.157855
2266.000000	6.324010
2265.000000	6.227426
2264.000000	6.323097
2263.000000	6.498726
2262.000000	6.566362
2261.000000	6.526435
2260.000000	6.361281
2259.000000	6.425874
2258.000000	6.625333
2257.000000	6.666694
2256.000000	6.613427
2255.000000	6.657984
2254.000000	6.678557
2253.000000	6.666619
2252.000000	6.763594
2251.000000	7.017152
2250.000000	7.073931
2249.000000	7.024602
2248.000000	7.019722
2247.000000	7.012654
2246.000000	7.074648
2245.000000	7.225895
2244.000000	7.350840
2243.000000	7.483955
2242.000000	7.391484
2241.000000	7.263381
2240.000000	7.402331
2239.000000	7.456987
2238.000000	7.424025
2237.000000	7.493343
2236.000000	7.582354
2235.000000	7.530215
2234.000000	7.494813
2233.000000	7.472135
2232.000000	7.570296
2231.000000	7.618886
2230.000000	7.565982
2229.000000	7.669075
2228.000000	7.751010
2227.000000	7.741399
2226.000000	7.682938
2225.000000	7.677895
2224.000000	7.700755
2223.000000	7.602987
2222.000000	7.589313
2221.000000	7.591224
2220.000000	7.664880
2219.000000	7.766032
2218.000000	7.692106
2217.000000	7.658341
2216.000000	7.595715
2215.000000	7.542904
2214.000000	7.541246
2213.000000	7.664513
2212.000000	7.652215
2211.000000	7.624625
2210.000000	7.580626
2209.000000	7.380468
2208.000000	7.408703
2207.000000	7.386201
2206.000000	7.344440
2205.000000	7.338647
2204.000000	7.406606
2203.000000	7.326068
2202.000000	7.295815
2201.000000	7.320653
2200.000000	7.359242
2199.000000	7.154401
2198.000000	7.175293
2197.000000	7.272887
2196.000000	7.275782
2195.000000	7.213811
2194.000000	7.105909
2193.000000	7.010912
2192.000000	7.009830
2191.000000	6.990424
2190.000000	7.029271
2189.000000	6.942043
2188.000000	6.958946
2187.000000	7.005101
2186.000000	6.900898
2185.000000	6.921084
2184.000000	7.070657
2183.000000	7.134283
2182.000000	7.014285
2181.000000	6.918433
2180.000000	7.070259
2179.000000	6.888349
2178.000000	6.800229
2177.000000	6.913513
2176.000000	6.876057
2175.000000	6.884311
2174.000000	7.000588
2173.000000	6.906393
2172.000000	6.973875
2171.000000	7.043435
2170.000000	7.084681
2169.000000	7.094846
2168.000000	7.071008
2167.000000	7.081889
2166.000000	7.031097
2165.000000	7.005746
2164.000000	6.933856
2163.000000	6.975288
2162.000000	7.137076
2161.000000	7.119884
2160.000000	7.179321
2159.000000	7.116026
2158.000000	7.112026
2157.000000	7.441021
2156.000000	7.377991
2155.000000	7.324887
2154.000000	7.480975
2153.000000	7.581255
2152.000000	7.569737
2151.000000	7.495006
2150.000000	7.419812
2149.000000	7.555785
2148.000000	7.442681
2147.000000	7.755889
2146.000000	7.552322
2145.000000	7.722932
2144.000000	7.715928
2143.000000	7.590335
2142.000000	7.684249
2141.000000	7.733724
2140.000000	7.860896
2139.000000	7.928718
2138.000000	7.782821
2137.000000	7.760576
2136.000000	7.860860
2135.000000	7.885839
2134.000000	7.892800
2133.000000	7.704885
2132.000000	8.007853
2131.000000	8.060036
2130.000000	8.139533
2129.000000	7.998117
2128.000000	8.083566
2127.000000	7.978116
2126.000000	8.006605
2125.000000	8.005937
2124.000000	8.106929
2123.000000	8.091596
2122.000000	7.903870
2121.000000	7.943527
2120.000000	7.989394
2119.000000	8.085601
2118.000000	8.140240
2117.000000	8.006453
2116.000000	7.985079
2115.000000	8.034110
2114.000000	8.167577
2113.000000	8.123730
2112.000000	8.148436
2111.000000	8.128953
2110.000000	8.073443
2109.000000	8.017483
2108.000000	7.968553
2107.000000	7.956601
2106.000000	8.075165
2105.000000	7.977002
2104.000000	7.996480
2103.000000	7.891906
2102.000000	8.043322
2101.000000	8.112846
2100.000000	8.189282
2099.000000	8.114976
2098.000000	8.072013
2097.000000	7.981150
2096.000000	8.085073
2095.000000	7.985708
2094.000000	8.049690
2093.000000	8.008860
2092.000000	8.025771
2091.000000	8.018820
2090.000000	8.068118
2089.000000	8.003846
2088.000000	8.033967
2087.000000	7.899298
2086.000000	7.870388
2085.000000	7.973976
2084.000000	7.871332
2083.000000	7.852530
2082.000000	7.846594
2081.000000	7.876163
2080.000000	7.824822
2079.000000	7.794795
2078.000000	7.777781
2077.000000	7.784919
2076.000000	7.734848
2075.000000	7.611866
2074.000000	7.610443
2073.000000	7.635229
2072.000000	7.682318
2071.000000	7.630076
2070.000000	7.500164
2069.000000	7.522923
2068.000000	7.452635
2067.000000	7.329064
2066.000000	7.216272
2065.000000	7.244811
2064.000000	7.173147
2063.000000	7.148196
2062.000000	7.120851
2061.000000	7.090728
2060.000000	7.091644
2059.000000	7.046443
2058.000000	6.990894
2057.000000	6.977961
2056.000000	6.942253
2055.000000	6.899856
2054.000000	6.816512
2053.000000	6.778178
2052.000000	6.749835
2051.000000	6.713666
2050.000000	6.707294
2049.000000	6.710876
2048.000000	6.672744
2047.000000	6.629525
2046.000000	6.622530
2045.000000	6.588707
2044.000000	6.586940
2043.000000	6.541930
2042.000000	6.551167
2041.000000	6.568730
2040.000000	6.521875
2039.000000	6.541090
2038.000000	6.578170
2037.000000	6.583847
2036.000000	6.566613
2035.000000	6.603263
2034.000000	6.687030
2033.000000	6.748728
2032.000000	6.760952
2031.000000	6.690886
2030.000000	6.709799
2029.000000	6.779519
2028.000000	6.778015
2027.000000	6.785409
2026.000000	6.814556
2025.000000	6.844185
2024.000000	6.893459
2023.000000	6.892262
2022.000000	6.884895
2021.000000	6.856860
2020.000000	6.832858
2019.000000	6.867306
2018.000000	6.921842
2017.000000	6.923942
2016.000000	6.882749
2015.000000	6.845438
2014.000000	6.850247
2013.000000	6.855591
2012.000000	6.859965
2011.000000	6.855213
2010.000000	6.787177
2009.000000	6.767709
2008.000000	6.734946
2007.000000	6.719117
2006.000000	6.654512
2005.000000	6.630536
2004.000000	6.616014
2003.000000	6.636854
2002.000000	6.641044
2001.000000	6.565685
2000.000000	6.491885
1999.000000	6.495607
1998.000000	6.473188
1997.000000	6.461803
1996.000000	6.434392
1995.000000	6.365338
1994.000000	6.323250
1993.000000	6.288312
1992.000000	6.242456
1991.000000	6.218558
1990.000000	6.193523
1989.000000	6.148070
1988.000000	6.106985
1987.000000	6.105586
1986.000000	6.107504
1985.000000	6.070256
1984.000000	6.028197
1983.000000	5.992641
1982.000000	5.964958
1981.000000	5.959837
1980.000000	5.933738
1979.000000	5.886991
1978.000000	5.848800
1977.000000	5.766059
1976.000000	5.760388
1975.000000	5.797173
1974.000000	5.737097
1973.000000	5.722494
1972.000000	5.703777
1971.000000	5.678453
1970.000000	5.679985
1969.000000	5.640548
1968.000000	5.566509
1967.000000	5.562403
1966.000000	5.576137
1965.000000	5.533544
1964.000000	5.530614
1963.000000	5.484362
1962.000000	5.460669
1961.000000	5.436967
1960.000000	5.386702
1959.000000	5.362708
1958.000000	5.381505
1957.000000	5.374778
1956.000000	5.333789
1955.000000	5.326343
1954.000000	5.374516
1953.000000	5.345737
1952.000000	5.317740
1951.000000	5.334253
1950.000000	5.319428
1949.000000	5.297047
1948.000000	5.250174
1947.000000	5.278650
1946.000000	5.259284
1945.000000	5.255844
1944.000000	5.261591
1943.000000	5.285670
1942.000000	5.302016
1941.000000	5.255411
1940.000000	5.354305
1939.000000	5.431669
1938.000000	5.363565
1937.000000	5.432125
1936.000000	5.440620
1935.000000	5.435857
1934.000000	5.459487
1933.000000	5.465002
1932.000000	5.490363
1931.000000	5.478781
1930.000000	5.559152
1929.000000	5.541515
1928.000000	5.638736
1927.000000	5.719205
1926.000000	5.709360
1925.000000	5.834035
1924.000000	5.829462
1923.000000	5.877970
1922.000000	5.988385
1921.000000	6.108907
1920.000000	6.119897
1919.000000	6.189828
1918.000000	6.221565
1917.000000	6.316129
1916.000000	6.351357
1915.000000	6.523711
1914.000000	6.604918
1913.000000	6.646091
1912.000000	6.717662
1911.000000	6.869484
1910.000000	6.976624
1909.000000	6.955080
1908.000000	7.087618
1907.000000	7.277871
1906.000000	7.319893
1905.000000	7.510782
1904.000000	7.687361
1903.000000	7.765361
1902.000000	7.874711
1901.000000	8.000923
1900.000000	8.105717
1899.000000	8.270708
1898.000000	8.390076
1897.000000	8.503674
1896.000000	8.576873
1895.000000	8.801160
1894.000000	8.881131
1893.000000	9.006909
1892.000000	9.181356
1891.000000	9.272546
1890.000000	9.455837
1889.000000	9.547569
1888.000000	9.643949
1887.000000	9.817053
1886.000000	9.948260
1885.000000	10.050198
1884.000000	10.121744
1883.000000	10.291375
1882.000000	10.388415
1881.000000	10.482077
1880.000000	10.597343
1879.000000	10.647869
1878.000000	10.718548
1877.000000	10.838370
1876.000000	10.920551
1875.000000	11.015842
1874.000000	11.033078
1873.000000	11.050366
1872.000000	11.171209
1871.000000	11.221216
1870.000000	11.249967
1869.000000	11.281624
1868.000000	11.317889
1867.000000	11.290443
1866.000000	11.305143
1865.000000	11.330801
1864.000000	11.336452
1863.000000	11.359171
1862.000000	11.348200
1861.000000	11.342837
1860.000000	11.336483
1859.000000	11.356265
1858.000000	11.386179
1857.000000	11.378828
1856.000000	11.424489
1855.000000	11.442269
1854.000000	11.446058
1853.000000	11.450831
1852.000000	11.497949
1851.000000	11.487010
1850.000000	11.456086
1849.000000	11.472429
1848.000000	11.449034
1847.000000	11.454685
1846.000000	11.468557
1845.000000	11.447238
1844.000000	11.425698
1843.000000	11.425286
1842.000000	11.424441
1841.000000	11.410297
1840.000000	11.387653
1839.000000	11.372616
1838.000000	11.372959
1837.000000	11.324097
1836.000000	11.304012
1835.000000	11.279198
1834.000000	11.241895
1833.000000	11.224547
1832.000000	11.210144
1831.000000	11.215361
1830.000000	11.234297
1829.000000	11.178782
1828.000000	11.132409
1827.000000	11.130896
1826.000000	11.105510
1825.000000	11.081499
1824.000000	11.080112
1823.000000	11.076616
1822.000000	11.051448
1821.000000	11.035138
1820.000000	11.034871
1819.000000	11.028213
1818.000000	11.003155
1817.000000	11.008065
1816.000000	11.003769
1815.000000	10.997965
1814.000000	10.978546
1813.000000	10.945511
1812.000000	10.957055
1811.000000	10.940411
1810.000000	10.921278
1809.000000	10.931439
1808.000000	10.940163
1807.000000	10.932040
1806.000000	10.919481
1805.000000	10.907189
1804.000000	10.898077
1803.000000	10.896399
1802.000000	10.883303
1801.000000	10.901721
1800.000000	10.898701
1799.000000	10.891830
1798.000000	10.899962
1797.000000	10.892008
1796.000000	10.877956
1795.000000	10.876396
1794.000000	10.890615
1793.000000	10.897740
1792.000000	10.903680
1791.000000	10.916619
1790.000000	10.918502
1789.000000	10.919615
1788.000000	10.904943
1787.000000	10.914654
1786.000000	10.926889
1785.000000	10.913543
1784.000000	10.880579
1783.000000	10.880027
1782.000000	10.891947
1781.000000	10.883951
1780.000000	10.885210
1779.000000	10.882251
1778.000000	10.883474
1777.000000	10.866021
1776.000000	10.836425
1775.000000	10.814847
1774.000000	10.765590
1773.000000	10.769921
1772.000000	10.773874
1771.000000	10.758537
1770.000000	10.720359
1769.000000	10.666657
1768.000000	10.651661
1767.000000	10.651886
1766.000000	10.633411
1765.000000	10.610341
1764.000000	10.624893
1763.000000	10.599050
1762.000000	10.582248
1761.000000	10.558182
1760.000000	10.552324
1759.000000	10.526070
1758.000000	10.506623
1757.000000	10.489168
1756.000000	10.477390
1755.000000	10.452842
1754.000000	10.442531
1753.000000	10.419517
1752.000000	10.413062
1751.000000	10.412151
1750.000000	10.433493
1749.000000	10.392340
1748.000000	10.357592
1747.000000	10.332140
1746.000000	10.296882
1745.000000	10.259003
1744.000000	10.257973
1743.000000	10.259591
1742.000000	10.259576
1741.000000	10.236016
1740.000000	10.243296
1739.000000	10.199480
1738.000000	10.184633
1737.000000	10.165508
1736.000000	10.173794
1735.000000	10.163351
1734.000000	10.151193
1733.000000	10.139740
1732.000000	10.111914
1731.000000	10.121847
1730.000000	10.114205
1729.000000	10.142416
1728.000000	10.157418
1727.000000	10.144901
1726.000000	10.128173
1725.000000	10.183032
1724.000000	10.161878
1723.000000	10.194113
1722.000000	10.247851
1721.000000	10.238567
1720.000000	10.276473
1719.000000	10.307211
1718.000000	10.279408
1717.000000	10.304996
1716.000000	10.323695
1715.000000	10.350000
1714.000000	10.341383
1713.000000	10.359931
1712.000000	10.370632
1711.000000	10.403819
1710.000000	10.410675
1709.000000	10.431814
1708.000000	10.430838
1707.000000	10.439700
1706.000000	10.436698
1705.000000	10.432466
1704.000000	10.466922
1703.000000	10.461936
1702.000000	10.456229
1701.000000	10.471767
1700.000000	10.461754
1699.000000	10.448883
1698.000000	10.475187
1697.000000	10.464336
1696.000000	10.528179
1695.000000	10.490397
1694.000000	10.468097
1693.000000	10.504188
1692.000000	10.512203
1691.000000	10.528568
1690.000000	10.549270
1689.000000	10.561614
1688.000000	10.581266
1687.000000	10.599556
1686.000000	10.611135
1685.000000	10.661803
1684.000000	10.672305
1683.000000	10.680538
1682.000000	10.748539
1681.000000	10.776915
1680.000000	10.805892
1679.000000	10.848078
1678.000000	10.917979
1677.000000	10.923460
1676.000000	10.947350
1675.000000	11.009052
1674.000000	11.042192
1673.000000	11.046166
1672.000000	11.087295
1671.000000	11.126636
1670.000000	11.146359
1669.000000	11.180119
1668.000000	11.205722
1667.000000	11.259612
1666.000000	11.264161
1665.000000	11.261332
1664.000000	11.267697
1663.000000	11.288335
1662.000000	11.297638
1661.000000	11.314355
1660.000000	11.323108
1659.000000	11.329132
1658.000000	11.360384
1657.000000	11.381693
1656.000000	11.381736
1655.000000	11.379215
1654.000000	11.383342
1653.000000	11.393851
1652.000000	11.390859
1651.000000	11.380724
1650.000000	11.367750
1649.000000	11.361177
1648.000000	11.338932
1647.000000	11.339093
1646.000000	11.324166
1645.000000	11.312139
1644.000000	11.296751
1643.000000	11.304668
1642.000000	11.298121
1641.000000	11.268288
1640.000000	11.276740
1639.000000	11.277280
1638.000000	11.254456
1637.000000	11.243036
1636.000000	11.214904
1635.000000	11.212340
1634.000000	11.186709
1633.000000	11.166524
1632.000000	11.156389
1631.000000	11.153276
1630.000000	11.138434
1629.000000	11.119263
1628.000000	11.100888
1627.000000	11.083036
1626.000000	11.070692
1625.000000	11.065925
1624.000000	11.056180
1623.000000	11.048865
1622.000000	11.034686
1621.000000	11.004616
1620.000000	10.983514
1619.000000	10.959017
1618.000000	10.943897
1617.000000	10.949137
1616.000000	10.945423
1615.000000	10.926743
1614.000000	10.901810
1613.000000	10.877995
1612.000000	10.869268
1611.000000	10.858178
1610.000000	10.846299
1609.000000	10.828657
1608.000000	10.815518
1607.000000	10.815326
1606.000000	10.798361
1605.000000	10.775807
1604.000000	10.740803
1603.000000	10.731739
1602.000000	10.726489
1601.000000	10.718643
1600.000000	10.702428
1599.000000	10.689458
1598.000000	10.669166
1597.000000	10.662665
1596.000000	10.651142
1595.000000	10.632527
1594.000000	10.626789
1593.000000	10.625286
1592.000000	10.609991
1591.000000	10.586341
1590.000000	10.570921
1589.000000	10.556743
1588.000000	10.543772
1587.000000	10.536517
1586.000000	10.530385
1585.000000	10.511206
1584.000000	10.478680
1583.000000	10.476777
1582.000000	10.464230
1581.000000	10.454742
1580.000000	10.462446
1579.000000	10.433064
1578.000000	10.421479
1577.000000	10.415371
1576.000000	10.394531
1575.000000	10.386191
1574.000000	10.369827
1573.000000	10.356453
1572.000000	10.332437
1571.000000	10.313671
1570.000000	10.301135
1569.000000	10.288451
1568.000000	10.289021
1567.000000	10.265750
1566.000000	10.236867
1565.000000	10.238001
1564.000000	10.229526
1563.000000	10.210328
1562.000000	10.193111
1561.000000	10.173626
1560.000000	10.170295
1559.000000	10.169286
1558.000000	10.143703
1557.000000	10.112908
1556.000000	10.095180
1555.000000	10.095318
1554.000000	10.083119
1553.000000	10.070237
1552.000000	10.060007
1551.000000	10.047107
1550.000000	10.023219
1549.000000	9.989864
1548.000000	9.978240
1547.000000	9.953431
1546.000000	9.932942
1545.000000	9.904258
1544.000000	9.886215
1543.000000	9.865630
1542.000000	9.834820
1541.000000	9.820596
1540.000000	9.801472
1539.000000	9.764389
1538.000000	9.722716
1537.000000	9.694062
1536.000000	9.687857
1535.000000	9.654270
1534.000000	9.631329
1533.000000	9.611932
1532.000000	9.587201
1531.000000	9.548740
1530.000000	9.538004
1529.000000	9.515128
1528.000000	9.495036
1527.000000	9.466937
1526.000000	9.455774
1525.000000	9.437266
1524.000000	9.409252
1523.000000	9.408220
1522.000000	9.401911
1521.000000	9.386901
1520.000000	9.368522
1519.000000	9.363131
1518.000000	9.357438
1517.000000	9.341738
1516.000000	9.330528
1515.000000	9.319071
1514.000000	9.325638
1513.000000	9.309617
1512.000000	9.314463
1511.000000	9.305051
1510.000000	9.295866
1509.000000	9.294420
1508.000000	9.287167
1507.000000	9.302590
1506.000000	9.280396
1505.000000	9.287837
1504.000000	9.274822
1503.000000	9.283833
1502.000000	9.304936
1501.000000	9.291453
1500.000000	9.293653
1499.000000	9.324362
1498.000000	9.315209
1497.000000	9.298165
1496.000000	9.272362
1495.000000	9.285773
1494.000000	9.271397
1493.000000	9.287101
1492.000000	9.282245
1491.000000	9.292367
1490.000000	9.289853
1489.000000	9.287866
1488.000000	9.263515
1487.000000	9.289994
1486.000000	9.282675
1485.000000	9.248861
1484.000000	9.256746
1483.000000	9.276449
1482.000000	9.258755
1481.000000	9.291622
1480.000000	9.297739
1479.000000	9.294898
1478.000000	9.292480
1477.000000	9.276104
1476.000000	9.282320
1475.000000	9.298978
1474.000000	9.275926
1473.000000	9.291061
1472.000000	9.283820
1471.000000	9.288794
1470.000000	9.306408
1469.000000	9.297375
1468.000000	9.303232
1467.000000	9.321435
1466.000000	9.332724
1465.000000	9.348050
1464.000000	9.341257
1463.000000	9.325407
1462.000000	9.334038
1461.000000	9.336740
1460.000000	9.359363
1459.000000	9.379742
1458.000000	9.371413
1457.000000	9.369290
1456.000000	9.407430
1455.000000	9.417923
1454.000000	9.399422
1453.000000	9.407874
1452.000000	9.415735
1451.000000	9.454996
1450.000000	9.465849
1449.000000	9.462297
1448.000000	9.469132
1447.000000	9.471944
1446.000000	9.481278
1445.000000	9.495387
1444.000000	9.550920
