PE UV       SUBTECH     SPECTRUM    ASCII       PEDS        4.00        
   -1
TDms1556131.Sample.asc
18/03/15
09:09:55.00
18/03/15
09:09:55.00
Administrator

200.000000
1
Lambda 750
750N8071901
PerkinElmer UV WinLab 6.0.4.0738 / 1.61.00 Lambda 900

0
0
3350/servo 860.8/2
0
0
UV/VIS
1
1
1
CommonBeamDepol,150mm sphere / downward view
0
0
0
0
Program
Program
3350/servo 860.8/2
3350/0.2 860.8/0.2
3350/0.2 860.8/0.2
0
1
 
 
 
0
 
860.8
319.2
860.8
Front
100
on
 
 
0
0
0
 
0
 
 
 
0
 
 
0
0
0
0
0
 
 
 
 
0
0


0
0
#HDR
-1
-1
#GR
nm
%T
1.0
0.0
2350.000000
-1.000000
2151
8
10.982440
-0.040809
#DATA
2350.000000	5.464833
2349.000000	5.410621
2348.000000	5.180881
2347.000000	5.850895
2346.000000	5.677036
2345.000000	5.608827
2344.000000	5.346994
2343.000000	5.344959
2342.000000	5.369098
2341.000000	5.927583
2340.000000	5.712207
2339.000000	6.052714
2338.000000	5.861569
2337.000000	5.891679
2336.000000	6.187313
2335.000000	6.161673
2334.000000	6.126558
2333.000000	6.264167
2332.000000	6.247955
2331.000000	6.260760
2330.000000	6.164012
2329.000000	6.201361
2328.000000	6.242007
2327.000000	6.022070
2326.000000	6.208527
2325.000000	6.093090
2324.000000	5.750087
2323.000000	5.905641
2322.000000	5.918235
2321.000000	5.981907
2320.000000	5.901053
2319.000000	5.867407
2318.000000	6.102332
2317.000000	6.102320
2316.000000	6.164236
2315.000000	5.759830
2314.000000	5.848321
2313.000000	5.586525
2312.000000	5.702383
2311.000000	5.884148
2310.000000	5.727056
2309.000000	5.787745
2308.000000	5.766504
2307.000000	5.920012
2306.000000	5.684159
2305.000000	5.370024
2304.000000	5.453228
2303.000000	5.733030
2302.000000	5.508120
2301.000000	5.441632
2300.000000	5.535681
2299.000000	5.495065
2298.000000	5.483927
2297.000000	5.232206
2296.000000	5.255369
2295.000000	5.412302
2294.000000	5.537775
2293.000000	5.468207
2292.000000	5.496259
2291.000000	5.489508
2290.000000	5.328517
2289.000000	5.289161
2288.000000	5.420479
2287.000000	5.472857
2286.000000	5.360734
2285.000000	5.410803
2284.000000	5.251572
2283.000000	5.124001
2282.000000	5.193440
2281.000000	5.353747
2280.000000	5.520457
2279.000000	5.565012
2278.000000	5.419370
2277.000000	5.342525
2276.000000	5.363164
2275.000000	5.326073
2274.000000	5.408906
2273.000000	5.322441
2272.000000	5.336703
2271.000000	5.449050
2270.000000	5.424490
2269.000000	5.411978
2268.000000	5.463284
2267.000000	5.504368
2266.000000	5.319315
2265.000000	5.270014
2264.000000	5.499889
2263.000000	5.603510
2262.000000	5.629854
2261.000000	5.718129
2260.000000	5.780396
2259.000000	5.785599
2258.000000	5.919133
2257.000000	5.863773
2256.000000	5.801794
2255.000000	5.816034
2254.000000	5.876134
2253.000000	6.035881
2252.000000	6.203307
2251.000000	6.207585
2250.000000	6.236732
2249.000000	6.196461
2248.000000	6.145806
2247.000000	6.234884
2246.000000	6.393592
2245.000000	6.474212
2244.000000	6.455605
2243.000000	6.558566
2242.000000	6.561530
2241.000000	6.622810
2240.000000	6.750584
2239.000000	6.744443
2238.000000	6.673979
2237.000000	6.734445
2236.000000	6.716666
2235.000000	6.641808
2234.000000	6.665675
2233.000000	6.636841
2232.000000	6.805759
2231.000000	6.938210
2230.000000	6.919485
2229.000000	6.845547
2228.000000	6.921717
2227.000000	6.981943
2226.000000	6.971981
2225.000000	6.964352
2224.000000	6.894683
2223.000000	6.798923
2222.000000	6.722669
2221.000000	6.723662
2220.000000	6.835679
2219.000000	6.828238
2218.000000	6.829969
2217.000000	6.776023
2216.000000	6.754801
2215.000000	6.711059
2214.000000	6.717582
2213.000000	6.733367
2212.000000	6.636791
2211.000000	6.668553
2210.000000	6.682515
2209.000000	6.693558
2208.000000	6.604333
2207.000000	6.605273
2206.000000	6.546718
2205.000000	6.492926
2204.000000	6.562303
2203.000000	6.508937
2202.000000	6.475899
2201.000000	6.468023
2200.000000	6.490180
2199.000000	6.443688
2198.000000	6.510102
2197.000000	6.581698
2196.000000	6.524937
2195.000000	6.465178
2194.000000	6.187794
2193.000000	6.163928
2192.000000	6.125389
2191.000000	6.103911
2190.000000	6.098427
2189.000000	6.140572
2188.000000	6.254694
2187.000000	6.151350
2186.000000	6.110279
2185.000000	6.161930
2184.000000	6.053294
2183.000000	6.158345
2182.000000	6.194770
2181.000000	6.216896
2180.000000	6.105848
2179.000000	6.118808
2178.000000	5.915982
2177.000000	5.995532
2176.000000	5.987102
2175.000000	6.009175
2174.000000	6.007480
2173.000000	6.120354
2172.000000	6.129067
2171.000000	6.247741
2170.000000	6.287027
2169.000000	6.231186
2168.000000	6.131713
2167.000000	6.210832
2166.000000	6.330394
2165.000000	6.325216
2164.000000	6.268551
2163.000000	6.238759
2162.000000	6.200199
2161.000000	6.282244
2160.000000	6.583471
2159.000000	6.612934
2158.000000	6.602630
2157.000000	6.601216
2156.000000	6.475869
2155.000000	6.482240
2154.000000	6.470459
2153.000000	6.672027
2152.000000	6.778860
2151.000000	6.564058
2150.000000	6.650760
2149.000000	6.659731
2148.000000	6.518553
2147.000000	6.781295
2146.000000	6.817236
2145.000000	6.856703
2144.000000	6.815770
2143.000000	6.814048
2142.000000	6.824227
2141.000000	6.935951
2140.000000	6.898192
2139.000000	6.989937
2138.000000	6.939020
2137.000000	7.161685
2136.000000	7.044196
2135.000000	7.065414
2134.000000	7.102373
2133.000000	6.811257
2132.000000	7.202265
2131.000000	7.092350
2130.000000	7.053429
2129.000000	7.210052
2128.000000	7.179012
2127.000000	7.017581
2126.000000	7.104564
2125.000000	7.037335
2124.000000	7.147835
2123.000000	7.028743
2122.000000	7.198926
2121.000000	7.176489
2120.000000	7.198467
2119.000000	7.168285
2118.000000	7.235557
2117.000000	7.207486
2116.000000	7.219079
2115.000000	7.179155
2114.000000	7.283163
2113.000000	7.283202
2112.000000	7.250909
2111.000000	7.105014
2110.000000	6.986618
2109.000000	7.131929
2108.000000	7.045636
2107.000000	7.136327
2106.000000	7.190738
2105.000000	7.095128
2104.000000	7.302587
2103.000000	7.193962
2102.000000	7.252656
2101.000000	7.189777
2100.000000	7.149269
2099.000000	7.203964
2098.000000	7.209878
2097.000000	7.183994
2096.000000	7.127373
2095.000000	7.076253
2094.000000	7.150176
2093.000000	7.110077
2092.000000	7.155418
2091.000000	7.127930
2090.000000	7.043237
2089.000000	6.965849
2088.000000	7.037609
2087.000000	7.065853
2086.000000	7.040063
2085.000000	7.123512
2084.000000	7.019134
2083.000000	7.045142
2082.000000	6.998619
2081.000000	6.983188
2080.000000	6.988475
2079.000000	7.008095
2078.000000	6.970357
2077.000000	6.878018
2076.000000	6.814781
2075.000000	6.801395
2074.000000	6.778910
2073.000000	6.712899
2072.000000	6.703586
2071.000000	6.786339
2070.000000	6.668720
2069.000000	6.580578
2068.000000	6.557979
2067.000000	6.553831
2066.000000	6.507293
2065.000000	6.470999
2064.000000	6.422798
2063.000000	6.324088
2062.000000	6.314116
2061.000000	6.311533
2060.000000	6.249041
2059.000000	6.189413
2058.000000	6.148925
2057.000000	6.150803
2056.000000	6.085206
2055.000000	6.005153
2054.000000	5.944152
2053.000000	5.960889
2052.000000	5.941904
2051.000000	5.857853
2050.000000	5.848253
2049.000000	5.901661
2048.000000	5.871724
2047.000000	5.810525
2046.000000	5.792920
2045.000000	5.771384
2044.000000	5.779669
2043.000000	5.778006
2042.000000	5.718678
2041.000000	5.710005
2040.000000	5.759092
2039.000000	5.755787
2038.000000	5.762799
2037.000000	5.736165
2036.000000	5.689521
2035.000000	5.740837
2034.000000	5.810439
2033.000000	5.797387
2032.000000	5.837960
2031.000000	5.857067
2030.000000	5.894289
2029.000000	5.922201
2028.000000	5.915079
2027.000000	6.000469
2026.000000	6.022947
2025.000000	5.989066
2024.000000	5.986383
2023.000000	5.986757
2022.000000	5.990100
2021.000000	5.987415
2020.000000	5.947828
2019.000000	5.954884
2018.000000	5.992971
2017.000000	5.966549
2016.000000	5.933736
2015.000000	5.970636
2014.000000	5.960511
2013.000000	5.952554
2012.000000	5.960918
2011.000000	5.952747
2010.000000	5.947486
2009.000000	5.874417
2008.000000	5.819306
2007.000000	5.832732
2006.000000	5.829240
2005.000000	5.788626
2004.000000	5.743336
2003.000000	5.710065
2002.000000	5.694422
2001.000000	5.687200
2000.000000	5.649776
1999.000000	5.626738
1998.000000	5.604055
1997.000000	5.573876
1996.000000	5.544825
1995.000000	5.513715
1994.000000	5.464369
1993.000000	5.406186
1992.000000	5.353123
1991.000000	5.367154
1990.000000	5.346556
1989.000000	5.312863
1988.000000	5.284462
1987.000000	5.282754
1986.000000	5.186751
1985.000000	5.167066
1984.000000	5.165997
1983.000000	5.187697
1982.000000	5.146694
1981.000000	5.121092
1980.000000	5.101235
1979.000000	5.042735
1978.000000	5.030446
1977.000000	4.966040
1976.000000	4.973724
1975.000000	4.958924
1974.000000	4.930097
1973.000000	4.895567
1972.000000	4.894761
1971.000000	4.825540
1970.000000	4.805806
1969.000000	4.802073
1968.000000	4.755335
1967.000000	4.762720
1966.000000	4.791003
1965.000000	4.756142
1964.000000	4.675579
1963.000000	4.674279
1962.000000	4.611608
1961.000000	4.626354
1960.000000	4.619766
1959.000000	4.490004
1958.000000	4.574634
1957.000000	4.565713
1956.000000	4.523467
1955.000000	4.520531
1954.000000	4.559382
1953.000000	4.592902
1952.000000	4.529507
1951.000000	4.537807
1950.000000	4.540523
1949.000000	4.514179
1948.000000	4.553265
1947.000000	4.532498
1946.000000	4.506989
1945.000000	4.452745
1944.000000	4.469192
1943.000000	4.574583
1942.000000	4.551761
1941.000000	4.558271
1940.000000	4.534021
1939.000000	4.632582
1938.000000	4.634574
1937.000000	4.627025
1936.000000	4.727387
1935.000000	4.704988
1934.000000	4.754632
1933.000000	4.748992
1932.000000	4.769009
1931.000000	4.752405
1930.000000	4.763701
1929.000000	4.815414
1928.000000	4.877171
1927.000000	4.983161
1926.000000	5.036856
1925.000000	5.167572
1924.000000	5.106099
1923.000000	5.093426
1922.000000	5.220187
1921.000000	5.311530
1920.000000	5.416103
1919.000000	5.460624
1918.000000	5.560101
1917.000000	5.514920
1916.000000	5.542675
1915.000000	5.623327
1914.000000	5.889279
1913.000000	5.989281
1912.000000	5.986118
1911.000000	6.065599
1910.000000	6.171076
1909.000000	6.250575
1908.000000	6.451841
1907.000000	6.525438
1906.000000	6.611794
1905.000000	6.663402
1904.000000	6.849920
1903.000000	6.958649
1902.000000	7.135489
1901.000000	7.196521
1900.000000	7.369000
1899.000000	7.496442
1898.000000	7.686695
1897.000000	7.722609
1896.000000	7.870806
1895.000000	7.983933
1894.000000	8.139342
1893.000000	8.223510
1892.000000	8.354622
1891.000000	8.493930
1890.000000	8.559473
1889.000000	8.713210
1888.000000	8.833863
1887.000000	8.872368
1886.000000	9.042779
1885.000000	9.210734
1884.000000	9.271679
1883.000000	9.412004
1882.000000	9.489438
1881.000000	9.624753
1880.000000	9.715386
1879.000000	9.749156
1878.000000	9.872413
1877.000000	9.987366
1876.000000	10.019431
1875.000000	10.125986
1874.000000	10.078524
1873.000000	10.149420
1872.000000	10.204273
1871.000000	10.316627
1870.000000	10.346830
1869.000000	10.354732
1868.000000	10.337978
1867.000000	10.393031
1866.000000	10.421951
1865.000000	10.467301
1864.000000	10.475881
1863.000000	10.509045
1862.000000	10.470682
1861.000000	10.467612
1860.000000	10.520149
1859.000000	10.512252
1858.000000	10.494081
1857.000000	10.492353
1856.000000	10.522827
1855.000000	10.516369
1854.000000	10.530151
1853.000000	10.543209
1852.000000	10.534380
1851.000000	10.536657
1850.000000	10.526848
1849.000000	10.551801
1848.000000	10.533277
1847.000000	10.555456
1846.000000	10.595951
1845.000000	10.573696
1844.000000	10.533418
1843.000000	10.477372
1842.000000	10.529985
1841.000000	10.524997
1840.000000	10.498098
1839.000000	10.490467
1838.000000	10.461529
1837.000000	10.439377
1836.000000	10.440406
1835.000000	10.398721
1834.000000	10.362238
1833.000000	10.365235
1832.000000	10.345965
1831.000000	10.317796
1830.000000	10.301125
1829.000000	10.272112
1828.000000	10.253252
1827.000000	10.229431
1826.000000	10.235270
1825.000000	10.246353
1824.000000	10.215804
1823.000000	10.191224
1822.000000	10.165586
1821.000000	10.155904
1820.000000	10.157221
1819.000000	10.146005
1818.000000	10.117881
1817.000000	10.094332
1816.000000	10.086932
1815.000000	10.091830
1814.000000	10.094146
1813.000000	10.084546
1812.000000	10.071565
1811.000000	10.064160
1810.000000	10.043716
1809.000000	10.024194
1808.000000	10.020473
1807.000000	10.018882
1806.000000	10.011721
1805.000000	9.983555
1804.000000	9.961480
1803.000000	9.950478
1802.000000	9.936987
1801.000000	9.946732
1800.000000	9.957307
1799.000000	9.937015
1798.000000	9.925402
1797.000000	9.949300
1796.000000	9.942821
1795.000000	9.924991
1794.000000	9.918668
1793.000000	9.916369
1792.000000	9.936770
1791.000000	9.942488
1790.000000	9.922508
1789.000000	9.914289
1788.000000	9.917329
1787.000000	9.901494
1786.000000	9.922818
1785.000000	9.929612
1784.000000	9.922819
1783.000000	9.901926
1782.000000	9.916662
1781.000000	9.927818
1780.000000	9.904867
1779.000000	9.885090
1778.000000	9.878791
1777.000000	9.867769
1776.000000	9.857575
1775.000000	9.851656
1774.000000	9.822284
1773.000000	9.807900
1772.000000	9.801838
1771.000000	9.783717
1770.000000	9.780187
1769.000000	9.755306
1768.000000	9.710660
1767.000000	9.699072
1766.000000	9.675093
1765.000000	9.664301
1764.000000	9.665688
1763.000000	9.631590
1762.000000	9.604547
1761.000000	9.602516
1760.000000	9.560362
1759.000000	9.560320
1758.000000	9.512959
1757.000000	9.495779
1756.000000	9.498505
1755.000000	9.486322
1754.000000	9.490554
1753.000000	9.462441
1752.000000	9.449021
1751.000000	9.432003
1750.000000	9.415849
1749.000000	9.417094
1748.000000	9.418556
1747.000000	9.389674
1746.000000	9.335138
1745.000000	9.342084
1744.000000	9.320212
1743.000000	9.277416
1742.000000	9.302929
1741.000000	9.263982
1740.000000	9.250360
1739.000000	9.258775
1738.000000	9.246563
1737.000000	9.238145
1736.000000	9.243945
1735.000000	9.221212
1734.000000	9.210813
1733.000000	9.180281
1732.000000	9.178046
1731.000000	9.200591
1730.000000	9.192961
1729.000000	9.206567
1728.000000	9.243423
1727.000000	9.227221
1726.000000	9.220042
1725.000000	9.224410
1724.000000	9.261665
1723.000000	9.288306
1722.000000	9.303715
1721.000000	9.333279
1720.000000	9.332586
1719.000000	9.345648
1718.000000	9.355013
1717.000000	9.396102
1716.000000	9.417860
1715.000000	9.418716
1714.000000	9.438993
1713.000000	9.445706
1712.000000	9.455940
1711.000000	9.495515
1710.000000	9.510809
1709.000000	9.516711
1708.000000	9.552030
1707.000000	9.506278
1706.000000	9.550507
1705.000000	9.548448
1704.000000	9.573674
1703.000000	9.576023
1702.000000	9.564505
1701.000000	9.553662
1700.000000	9.566600
1699.000000	9.534244
1698.000000	9.581822
1697.000000	9.582870
1696.000000	9.595228
1695.000000	9.601172
1694.000000	9.598299
1693.000000	9.601190
1692.000000	9.592077
1691.000000	9.632511
1690.000000	9.640006
1689.000000	9.667222
1688.000000	9.696451
1687.000000	9.703112
1686.000000	9.737115
1685.000000	9.738802
1684.000000	9.808909
1683.000000	9.879434
1682.000000	9.896608
1681.000000	9.929316
1680.000000	9.939880
1679.000000	9.987004
1678.000000	10.006144
1677.000000	10.045070
1676.000000	10.081736
1675.000000	10.138585
1674.000000	10.166615
1673.000000	10.188927
1672.000000	10.216036
1671.000000	10.271380
1670.000000	10.296956
1669.000000	10.303044
1668.000000	10.306787
1667.000000	10.385326
1666.000000	10.349780
1665.000000	10.344129
1664.000000	10.359463
1663.000000	10.359512
1662.000000	10.413417
1661.000000	10.420079
1660.000000	10.445069
1659.000000	10.473354
1658.000000	10.489557
1657.000000	10.514145
1656.000000	10.515453
1655.000000	10.511835
1654.000000	10.526113
1653.000000	10.551037
1652.000000	10.553810
1651.000000	10.533815
1650.000000	10.521179
1649.000000	10.513089
1648.000000	10.484452
1647.000000	10.490715
1646.000000	10.486967
1645.000000	10.466173
1644.000000	10.445763
1643.000000	10.445367
1642.000000	10.447557
1641.000000	10.444765
1640.000000	10.430390
1639.000000	10.421815
1638.000000	10.402056
1637.000000	10.388796
1636.000000	10.365376
1635.000000	10.354887
1634.000000	10.342389
1633.000000	10.333365
1632.000000	10.339366
1631.000000	10.306665
1630.000000	10.270728
1629.000000	10.268058
1628.000000	10.253155
1627.000000	10.249331
1626.000000	10.226934
1625.000000	10.212354
1624.000000	10.210600
1623.000000	10.208237
1622.000000	10.201453
1621.000000	10.165021
1620.000000	10.157704
1619.000000	10.136064
1618.000000	10.115293
1617.000000	10.104651
1616.000000	10.086049
1615.000000	10.072717
1614.000000	10.058899
1613.000000	10.040400
1612.000000	10.019383
1611.000000	9.995319
1610.000000	9.973127
1609.000000	9.952216
1608.000000	9.955111
1607.000000	9.959888
1606.000000	9.935364
1605.000000	9.913743
1604.000000	9.884737
1603.000000	9.863157
1602.000000	9.856125
1601.000000	9.836399
1600.000000	9.820961
1599.000000	9.814364
1598.000000	9.795011
1597.000000	9.767643
1596.000000	9.748180
1595.000000	9.738369
1594.000000	9.730146
1593.000000	9.714608
1592.000000	9.699970
1591.000000	9.693263
1590.000000	9.681880
1589.000000	9.656531
1588.000000	9.638802
1587.000000	9.639165
1586.000000	9.622662
1585.000000	9.614186
1584.000000	9.602578
1583.000000	9.575968
1582.000000	9.573740
1581.000000	9.571881
1580.000000	9.560024
1579.000000	9.557049
1578.000000	9.544664
1577.000000	9.515840
1576.000000	9.494688
1575.000000	9.482286
1574.000000	9.457417
1573.000000	9.446149
1572.000000	9.435598
1571.000000	9.420956
1570.000000	9.402055
1569.000000	9.394653
1568.000000	9.386431
1567.000000	9.369619
1566.000000	9.363164
1565.000000	9.356170
1564.000000	9.328923
1563.000000	9.329656
1562.000000	9.336696
1561.000000	9.318615
1560.000000	9.290409
1559.000000	9.280724
1558.000000	9.270282
1557.000000	9.272909
1556.000000	9.262103
1555.000000	9.244647
1554.000000	9.221242
1553.000000	9.212095
1552.000000	9.206585
1551.000000	9.194279
1550.000000	9.170804
1549.000000	9.149586
1548.000000	9.130629
1547.000000	9.104478
1546.000000	9.094647
1545.000000	9.074945
1544.000000	9.069182
1543.000000	9.036667
1542.000000	8.988618
1541.000000	8.976186
1540.000000	8.959242
1539.000000	8.928387
1538.000000	8.915561
1537.000000	8.895859
1536.000000	8.853411
1535.000000	8.823836
1534.000000	8.807876
1533.000000	8.798650
1532.000000	8.761868
1531.000000	8.734823
1530.000000	8.713857
1529.000000	8.685603
1528.000000	8.677400
1527.000000	8.652924
1526.000000	8.637065
1525.000000	8.628934
1524.000000	8.601003
1523.000000	8.582655
1522.000000	8.556757
1521.000000	8.552184
1520.000000	8.545867
1519.000000	8.534965
1518.000000	8.534811
1517.000000	8.515390
1516.000000	8.489840
1515.000000	8.487709
1514.000000	8.489611
1513.000000	8.468750
1512.000000	8.466939
1511.000000	8.449303
1510.000000	8.430159
1509.000000	8.439325
1508.000000	8.444721
1507.000000	8.419123
1506.000000	8.411195
1505.000000	8.419916
1504.000000	8.425413
1503.000000	8.420566
1502.000000	8.418376
1501.000000	8.427740
1500.000000	8.435977
1499.000000	8.443958
1498.000000	8.456548
1497.000000	8.448108
1496.000000	8.446602
1495.000000	8.423064
1494.000000	8.420337
1493.000000	8.408664
1492.000000	8.407752
1491.000000	8.399875
1490.000000	8.406803
1489.000000	8.408372
1488.000000	8.417943
1487.000000	8.427024
1486.000000	8.397882
1485.000000	8.406454
1484.000000	8.398164
1483.000000	8.415212
1482.000000	8.414528
1481.000000	8.447380
1480.000000	8.436301
1479.000000	8.454380
1478.000000	8.447406
1477.000000	8.440091
1476.000000	8.453271
1475.000000	8.441883
1474.000000	8.440814
1473.000000	8.439995
1472.000000	8.449224
1471.000000	8.462242
1470.000000	8.471324
1469.000000	8.479123
1468.000000	8.493362
1467.000000	8.501853
1466.000000	8.524943
1465.000000	8.503879
1464.000000	8.514411
1463.000000	8.535014
1462.000000	8.526572
1461.000000	8.520689
1460.000000	8.540989
1459.000000	8.579984
1458.000000	8.571027
1457.000000	8.566593
1456.000000	8.589564
1455.000000	8.603171
1454.000000	8.596048
1453.000000	8.599830
1452.000000	8.607052
1451.000000	8.621044
1450.000000	8.654565
1449.000000	8.668805
1448.000000	8.669470
1447.000000	8.671475
1446.000000	8.692462
1445.000000	8.702131
1444.000000	8.739454
1443.000000	8.759251
1442.000000	8.749991
1441.000000	8.765253
1440.000000	8.787237
1439.000000	8.795112
1438.000000	8.809852
1437.000000	8.832899
1436.000000	8.857617
1435.000000	8.881513
1434.000000	8.897552
