PE UV       SUBTECH     SPECTRUM    ASCII       PEDS        4.00        
   -1
TTms499171.Sample.asc
18/03/15
14:23:30.00
18/03/15
14:23:30.00
Administrator

200.000000
1
Lambda 750
750N8071901
PerkinElmer UV WinLab 6.0.4.0738 / 1.61.00 Lambda 900

0
0
3350/servo 860.8/2
0
0
UV/VIS
1
1
1
CommonBeamDepol,150mm sphere / downward view
0
0
0
0
Program
Program
3350/servo 860.8/2
3350/0.2 860.8/0.2
3350/0.2 860.8/0.2
0
1
 
 
 
0
 
860.8
319.2
860.8
Front
100
on
 
 
0
0
0
 
0
 
 
 
0
 
 
0
0
0
0
0
 
 
 
 
0
0


0
0
#HDR
-1
-1
#GR
nm
%T
1.0
0.0
2350.000000
-1.000000
2151
8
9.298391
-0.017551
#DATA
2350.000000	4.302436
2349.000000	4.194384
2348.000000	4.456693
2347.000000	5.119558
2346.000000	4.533642
2345.000000	4.665345
2344.000000	4.517232
2343.000000	3.979649
2342.000000	4.605916
2341.000000	4.260482
2340.000000	4.576586
2339.000000	4.697773
2338.000000	4.806426
2337.000000	5.062529
2336.000000	5.409388
2335.000000	5.472715
2334.000000	5.322744
2333.000000	5.331157
2332.000000	5.359359
2331.000000	5.282397
2330.000000	5.223292
2329.000000	5.149023
2328.000000	5.068019
2327.000000	5.115478
2326.000000	4.839999
2325.000000	5.075183
2324.000000	5.340116
2323.000000	5.173434
2322.000000	4.948083
2321.000000	5.052613
2320.000000	5.294830
2319.000000	5.093243
2318.000000	5.001913
2317.000000	4.822387
2316.000000	4.789788
2315.000000	4.793813
2314.000000	4.630786
2313.000000	4.783221
2312.000000	4.742789
2311.000000	4.822663
2310.000000	4.917991
2309.000000	4.951581
2308.000000	4.546837
2307.000000	4.498571
2306.000000	4.613885
2305.000000	4.577364
2304.000000	4.814144
2303.000000	4.684833
2302.000000	4.761283
2301.000000	4.555201
2300.000000	4.517459
2299.000000	4.642481
2298.000000	4.624481
2297.000000	4.481497
2296.000000	4.511774
2295.000000	4.322522
2294.000000	4.476947
2293.000000	4.505439
2292.000000	4.406354
2291.000000	4.397058
2290.000000	4.526241
2289.000000	4.486984
2288.000000	4.493608
2287.000000	4.553865
2286.000000	4.564608
2285.000000	4.352172
2284.000000	4.417828
2283.000000	4.435904
2282.000000	4.423843
2281.000000	4.252308
2280.000000	4.316556
2279.000000	4.407158
2278.000000	4.425886
2277.000000	4.356438
2276.000000	4.539685
2275.000000	4.616213
2274.000000	4.568552
2273.000000	4.645036
2272.000000	4.764337
2271.000000	4.643449
2270.000000	4.588357
2269.000000	4.585968
2268.000000	4.492703
2267.000000	4.575521
2266.000000	4.615411
2265.000000	4.729409
2264.000000	4.631757
2263.000000	4.651504
2262.000000	4.811749
2261.000000	4.942038
2260.000000	5.008371
2259.000000	5.012927
2258.000000	5.022031
2257.000000	5.062166
2256.000000	5.196430
2255.000000	5.055142
2254.000000	5.040733
2253.000000	5.093312
2252.000000	5.127738
2251.000000	5.237663
2250.000000	5.244468
2249.000000	5.296928
2248.000000	5.328365
2247.000000	5.325735
2246.000000	5.453494
2245.000000	5.604539
2244.000000	5.592519
2243.000000	5.641373
2242.000000	5.736627
2241.000000	5.693385
2240.000000	5.663697
2239.000000	5.714708
2238.000000	5.683725
2237.000000	5.715135
2236.000000	5.782411
2235.000000	5.879247
2234.000000	5.887619
2233.000000	5.893875
2232.000000	5.916646
2231.000000	5.915177
2230.000000	5.909819
2229.000000	5.914751
2228.000000	5.928990
2227.000000	5.942857
2226.000000	5.919851
2225.000000	5.844644
2224.000000	5.780318
2223.000000	5.760906
2222.000000	5.744506
2221.000000	5.653311
2220.000000	5.800264
2219.000000	5.941483
2218.000000	6.038295
2217.000000	5.932102
2216.000000	5.873155
2215.000000	5.831203
2214.000000	5.753928
2213.000000	5.819206
2212.000000	5.854732
2211.000000	5.868525
2210.000000	5.835188
2209.000000	5.792980
2208.000000	5.761235
2207.000000	5.758298
2206.000000	5.608222
2205.000000	5.616979
2204.000000	5.651468
2203.000000	5.690592
2202.000000	5.732635
2201.000000	5.761069
2200.000000	5.738440
2199.000000	5.554893
2198.000000	5.567866
2197.000000	5.509824
2196.000000	5.522732
2195.000000	5.519429
2194.000000	5.414761
2193.000000	5.473131
2192.000000	5.507796
2191.000000	5.434504
2190.000000	5.423911
2189.000000	5.488318
2188.000000	5.515865
2187.000000	5.435973
2186.000000	5.436524
2185.000000	5.489358
2184.000000	5.387369
2183.000000	5.475138
2182.000000	5.506216
2181.000000	5.449695
2180.000000	5.335995
2179.000000	5.331116
2178.000000	5.318084
2177.000000	5.324452
2176.000000	5.233039
2175.000000	5.285004
2174.000000	5.390469
2173.000000	5.371952
2172.000000	5.347601
2171.000000	5.584159
2170.000000	5.369598
2169.000000	5.380018
2168.000000	5.516900
2167.000000	5.306690
2166.000000	5.382260
2165.000000	5.398997
2164.000000	5.486756
2163.000000	5.603279
2162.000000	5.494273
2161.000000	5.732509
2160.000000	5.704358
2159.000000	5.717810
2158.000000	5.642986
2157.000000	5.568073
2156.000000	5.673191
2155.000000	5.568134
2154.000000	5.771529
2153.000000	5.685313
2152.000000	5.817059
2151.000000	5.968259
2150.000000	5.788721
2149.000000	5.744763
2148.000000	5.841516
2147.000000	5.828943
2146.000000	5.974883
2145.000000	6.005261
2144.000000	5.976723
2143.000000	5.967684
2142.000000	5.984997
2141.000000	6.096407
2140.000000	6.071322
2139.000000	6.079709
2138.000000	6.067168
2137.000000	6.176890
2136.000000	5.992058
2135.000000	6.160783
2134.000000	6.275644
2133.000000	6.103555
2132.000000	6.225573
2131.000000	6.227228
2130.000000	6.316107
2129.000000	6.126613
2128.000000	6.166266
2127.000000	6.147845
2126.000000	6.158100
2125.000000	6.016605
2124.000000	6.035959
2123.000000	6.105315
2122.000000	6.146337
2121.000000	6.201293
2120.000000	6.323687
2119.000000	6.251471
2118.000000	6.297821
2117.000000	6.327306
2116.000000	6.350126
2115.000000	6.185470
2114.000000	6.385350
2113.000000	6.299328
2112.000000	6.215842
2111.000000	6.251731
2110.000000	6.288017
2109.000000	6.114566
2108.000000	6.212309
2107.000000	6.212536
2106.000000	6.246233
2105.000000	6.318219
2104.000000	6.183721
2103.000000	6.230638
2102.000000	6.176162
2101.000000	6.284157
2100.000000	6.412354
2099.000000	6.265346
2098.000000	6.278938
2097.000000	6.316589
2096.000000	6.319975
2095.000000	6.306652
2094.000000	6.249653
2093.000000	6.176497
2092.000000	6.261659
2091.000000	6.107133
2090.000000	6.213042
2089.000000	6.291842
2088.000000	6.287821
2087.000000	6.225258
2086.000000	6.223759
2085.000000	6.258309
2084.000000	6.236911
2083.000000	6.187716
2082.000000	6.161844
2081.000000	6.129381
2080.000000	6.092447
2079.000000	6.202207
2078.000000	6.147272
2077.000000	6.070033
2076.000000	6.037388
2075.000000	5.995365
2074.000000	6.030026
2073.000000	6.013963
2072.000000	5.958362
2071.000000	5.896165
2070.000000	5.862617
2069.000000	5.795424
2068.000000	5.758625
2067.000000	5.830571
2066.000000	5.797607
2065.000000	5.697692
2064.000000	5.695678
2063.000000	5.598764
2062.000000	5.591196
2061.000000	5.619599
2060.000000	5.640920
2059.000000	5.619406
2058.000000	5.513940
2057.000000	5.467381
2056.000000	5.460631
2055.000000	5.436247
2054.000000	5.432497
2053.000000	5.397202
2052.000000	5.344672
2051.000000	5.280341
2050.000000	5.249855
2049.000000	5.307057
2048.000000	5.327604
2047.000000	5.261897
2046.000000	5.221824
2045.000000	5.265307
2044.000000	5.187279
2043.000000	5.180170
2042.000000	5.199294
2041.000000	5.213615
2040.000000	5.235640
2039.000000	5.234509
2038.000000	5.235563
2037.000000	5.241633
2036.000000	5.191952
2035.000000	5.206728
2034.000000	5.248514
2033.000000	5.255340
2032.000000	5.293269
2031.000000	5.354064
2030.000000	5.344918
2029.000000	5.341414
2028.000000	5.361476
2027.000000	5.353840
2026.000000	5.415635
2025.000000	5.460599
2024.000000	5.425862
2023.000000	5.422297
2022.000000	5.454599
2021.000000	5.464169
2020.000000	5.421670
2019.000000	5.404070
2018.000000	5.426054
2017.000000	5.417905
2016.000000	5.409486
2015.000000	5.416270
2014.000000	5.402769
2013.000000	5.428135
2012.000000	5.437503
2011.000000	5.407400
2010.000000	5.414960
2009.000000	5.393156
2008.000000	5.319461
2007.000000	5.299483
2006.000000	5.294008
2005.000000	5.279387
2004.000000	5.264438
2003.000000	5.232994
2002.000000	5.199326
2001.000000	5.126839
2000.000000	5.119495
1999.000000	5.140195
1998.000000	5.111819
1997.000000	5.084488
1996.000000	5.072341
1995.000000	5.036684
1994.000000	5.003212
1993.000000	4.967455
1992.000000	4.883981
1991.000000	4.848367
1990.000000	4.833470
1989.000000	4.816179
1988.000000	4.799200
1987.000000	4.778307
1986.000000	4.751261
1985.000000	4.713191
1984.000000	4.698859
1983.000000	4.697718
1982.000000	4.698432
1981.000000	4.654976
1980.000000	4.609274
1979.000000	4.604747
1978.000000	4.624665
1977.000000	4.585542
1976.000000	4.533658
1975.000000	4.489861
1974.000000	4.479252
1973.000000	4.491075
1972.000000	4.452935
1971.000000	4.406686
1970.000000	4.408092
1969.000000	4.425915
1968.000000	4.373976
1967.000000	4.323757
1966.000000	4.348756
1965.000000	4.351224
1964.000000	4.303244
1963.000000	4.262901
1962.000000	4.233549
1961.000000	4.227434
1960.000000	4.224588
1959.000000	4.203697
1958.000000	4.168766
1957.000000	4.155606
1956.000000	4.144966
1955.000000	4.148127
1954.000000	4.112350
1953.000000	4.128637
1952.000000	4.163758
1951.000000	4.171541
1950.000000	4.134103
1949.000000	4.101423
1948.000000	4.089671
1947.000000	4.110668
1946.000000	4.114593
1945.000000	4.099054
1944.000000	4.093350
1943.000000	4.129547
1942.000000	4.153948
1941.000000	4.156234
1940.000000	4.152704
1939.000000	4.160615
1938.000000	4.196350
1937.000000	4.220681
1936.000000	4.180895
1935.000000	4.249800
1934.000000	4.301294
1933.000000	4.336924
1932.000000	4.325900
1931.000000	4.299886
1930.000000	4.344127
1929.000000	4.345477
1928.000000	4.415904
1927.000000	4.476120
1926.000000	4.500753
1925.000000	4.554708
1924.000000	4.585512
1923.000000	4.639742
1922.000000	4.755060
1921.000000	4.847287
1920.000000	4.820695
1919.000000	4.929053
1918.000000	4.974683
1917.000000	5.075737
1916.000000	5.048852
1915.000000	5.194419
1914.000000	5.306046
1913.000000	5.362313
1912.000000	5.370427
1911.000000	5.409301
1910.000000	5.553300
1909.000000	5.603085
1908.000000	5.613142
1907.000000	5.753369
1906.000000	5.885574
1905.000000	5.988210
1904.000000	6.049141
1903.000000	6.211338
1902.000000	6.267394
1901.000000	6.390501
1900.000000	6.564268
1899.000000	6.693851
1898.000000	6.772331
1897.000000	6.910076
1896.000000	7.003521
1895.000000	7.046069
1894.000000	7.081667
1893.000000	7.237353
1892.000000	7.350593
1891.000000	7.392552
1890.000000	7.494219
1889.000000	7.624413
1888.000000	7.711092
1887.000000	7.795344
1886.000000	7.898970
1885.000000	7.990588
1884.000000	8.050905
1883.000000	8.189273
1882.000000	8.255227
1881.000000	8.314051
1880.000000	8.414791
1879.000000	8.461702
1878.000000	8.582699
1877.000000	8.677306
1876.000000	8.706956
1875.000000	8.778118
1874.000000	8.822926
1873.000000	8.877878
1872.000000	8.967707
1871.000000	8.988023
1870.000000	8.999651
1869.000000	8.979551
1868.000000	9.038973
1867.000000	9.003926
1866.000000	8.985046
1865.000000	9.021026
1864.000000	8.996804
1863.000000	9.015563
1862.000000	9.019911
1861.000000	9.005635
1860.000000	9.004143
1859.000000	9.018041
1858.000000	9.024000
1857.000000	9.065198
1856.000000	9.074326
1855.000000	9.084469
1854.000000	9.072158
1853.000000	9.108861
1852.000000	9.095393
1851.000000	9.100970
1850.000000	9.105096
1849.000000	9.085102
1848.000000	9.094620
1847.000000	9.085075
1846.000000	9.082590
1845.000000	9.097269
1844.000000	9.058244
1843.000000	9.039082
1842.000000	9.060746
1841.000000	9.062833
1840.000000	9.061996
1839.000000	9.068499
1838.000000	9.034626
1837.000000	8.999596
1836.000000	8.991492
1835.000000	8.977828
1834.000000	8.921861
1833.000000	8.903991
1832.000000	8.904217
1831.000000	8.905617
1830.000000	8.908654
1829.000000	8.863885
1828.000000	8.822029
1827.000000	8.832033
1826.000000	8.841184
1825.000000	8.834976
1824.000000	8.840280
1823.000000	8.809470
1822.000000	8.762710
1821.000000	8.744735
1820.000000	8.746522
1819.000000	8.737814
1818.000000	8.725578
1817.000000	8.713650
1816.000000	8.706559
1815.000000	8.689660
1814.000000	8.672538
1813.000000	8.676524
1812.000000	8.670366
1811.000000	8.660741
1810.000000	8.661591
1809.000000	8.676756
1808.000000	8.676020
1807.000000	8.651122
1806.000000	8.639486
1805.000000	8.617875
1804.000000	8.612199
1803.000000	8.610448
1802.000000	8.599727
1801.000000	8.601186
1800.000000	8.610083
1799.000000	8.612201
1798.000000	8.605335
1797.000000	8.595938
1796.000000	8.610058
1795.000000	8.629982
1794.000000	8.636870
1793.000000	8.632999
1792.000000	8.616891
1791.000000	8.612264
1790.000000	8.620623
1789.000000	8.629580
1788.000000	8.617655
1787.000000	8.631138
1786.000000	8.630999
1785.000000	8.625450
1784.000000	8.637894
1783.000000	8.645469
1782.000000	8.657262
1781.000000	8.647598
1780.000000	8.652380
1779.000000	8.659812
1778.000000	8.646910
1777.000000	8.636061
1776.000000	8.618239
1775.000000	8.604195
1774.000000	8.588958
1773.000000	8.576713
1772.000000	8.569619
1771.000000	8.547105
1770.000000	8.533794
1769.000000	8.527421
1768.000000	8.515568
1767.000000	8.508079
1766.000000	8.501312
1765.000000	8.474903
1764.000000	8.457756
1763.000000	8.449883
1762.000000	8.428708
1761.000000	8.403875
1760.000000	8.393235
1759.000000	8.409941
1758.000000	8.393286
1757.000000	8.363317
1756.000000	8.353141
1755.000000	8.353507
1754.000000	8.361654
1753.000000	8.341659
1752.000000	8.340450
1751.000000	8.314832
1750.000000	8.304271
1749.000000	8.281269
1748.000000	8.296561
1747.000000	8.291431
1746.000000	8.264549
1745.000000	8.240707
1744.000000	8.224247
1743.000000	8.216841
1742.000000	8.216749
1741.000000	8.205039
1740.000000	8.171334
1739.000000	8.146359
1738.000000	8.166545
1737.000000	8.158992
1736.000000	8.122997
1735.000000	8.143295
1734.000000	8.136977
1733.000000	8.136539
1732.000000	8.097441
1731.000000	8.104110
1730.000000	8.117957
1729.000000	8.128638
1728.000000	8.147745
1727.000000	8.139702
1726.000000	8.133022
1725.000000	8.141638
1724.000000	8.150699
1723.000000	8.179957
1722.000000	8.185622
1721.000000	8.208844
1720.000000	8.229373
1719.000000	8.263396
1718.000000	8.263468
1717.000000	8.280848
1716.000000	8.304227
1715.000000	8.320200
1714.000000	8.304768
1713.000000	8.329717
1712.000000	8.321953
1711.000000	8.360186
1710.000000	8.382554
1709.000000	8.365733
1708.000000	8.386538
1707.000000	8.407891
1706.000000	8.405687
1705.000000	8.402987
1704.000000	8.429992
1703.000000	8.431982
1702.000000	8.423349
1701.000000	8.399821
1700.000000	8.423598
1699.000000	8.400072
1698.000000	8.413856
1697.000000	8.451180
1696.000000	8.462887
1695.000000	8.449814
1694.000000	8.459389
1693.000000	8.466079
1692.000000	8.454897
1691.000000	8.481409
1690.000000	8.507050
1689.000000	8.532676
1688.000000	8.539822
1687.000000	8.546891
1686.000000	8.587910
1685.000000	8.606973
1684.000000	8.632538
1683.000000	8.648838
1682.000000	8.672700
1681.000000	8.706799
1680.000000	8.704226
1679.000000	8.723473
1678.000000	8.769039
1677.000000	8.801538
1676.000000	8.824624
1675.000000	8.864976
1674.000000	8.895649
1673.000000	8.889229
1672.000000	8.932922
1671.000000	8.956507
1670.000000	8.974796
1669.000000	8.959358
1668.000000	8.996647
1667.000000	8.997535
1666.000000	8.995235
1665.000000	9.007241
1664.000000	9.026298
1663.000000	9.017598
1662.000000	9.040361
1661.000000	9.063665
1660.000000	9.067059
1659.000000	9.079319
1658.000000	9.094530
1657.000000	9.112651
1656.000000	9.109644
1655.000000	9.125890
1654.000000	9.142325
1653.000000	9.158473
1652.000000	9.155047
1651.000000	9.132772
1650.000000	9.127727
1649.000000	9.119505
1648.000000	9.110536
1647.000000	9.114382
1646.000000	9.105013
1645.000000	9.092871
1644.000000	9.093526
1643.000000	9.073627
1642.000000	9.074473
1641.000000	9.075064
1640.000000	9.056146
1639.000000	9.046161
1638.000000	9.039918
1637.000000	9.029409
1636.000000	9.021472
1635.000000	9.005479
1634.000000	8.985174
1633.000000	8.986993
1632.000000	8.970533
1631.000000	8.967489
1630.000000	8.947587
1629.000000	8.939774
1628.000000	8.920858
1627.000000	8.923043
1626.000000	8.919296
1625.000000	8.910266
1624.000000	8.899925
1623.000000	8.908126
1622.000000	8.899977
1621.000000	8.872292
1620.000000	8.855093
1619.000000	8.845344
1618.000000	8.825779
1617.000000	8.814569
1616.000000	8.809348
1615.000000	8.799025
1614.000000	8.781310
1613.000000	8.770531
1612.000000	8.757930
1611.000000	8.742978
1610.000000	8.741749
1609.000000	8.736648
1608.000000	8.724930
1607.000000	8.713965
1606.000000	8.703335
1605.000000	8.687013
1604.000000	8.674450
1603.000000	8.670730
1602.000000	8.662502
1601.000000	8.654941
1600.000000	8.635540
1599.000000	8.610629
1598.000000	8.595973
1597.000000	8.597345
1596.000000	8.603367
1595.000000	8.593441
1594.000000	8.567144
1593.000000	8.568053
1592.000000	8.577769
1591.000000	8.563011
1590.000000	8.552014
1589.000000	8.536257
1588.000000	8.517441
1587.000000	8.523173
1586.000000	8.526644
1585.000000	8.514597
1584.000000	8.499319
1583.000000	8.494410
1582.000000	8.486713
1581.000000	8.478105
1580.000000	8.479102
1579.000000	8.469729
1578.000000	8.463209
1577.000000	8.448236
1576.000000	8.431450
1575.000000	8.422361
1574.000000	8.409249
1573.000000	8.413371
1572.000000	8.401696
1571.000000	8.390379
1570.000000	8.386690
1569.000000	8.377164
1568.000000	8.365724
1567.000000	8.346974
1566.000000	8.331738
1565.000000	8.322504
1564.000000	8.319846
1563.000000	8.309717
1562.000000	8.302718
1561.000000	8.302853
1560.000000	8.286648
1559.000000	8.266267
1558.000000	8.251729
1557.000000	8.249575
1556.000000	8.245069
1555.000000	8.249023
1554.000000	8.239032
1553.000000	8.219858
1552.000000	8.217272
1551.000000	8.191482
1550.000000	8.168523
1549.000000	8.151035
1548.000000	8.144702
1547.000000	8.139381
1546.000000	8.132790
1545.000000	8.107498
1544.000000	8.060753
1543.000000	8.048920
1542.000000	8.039527
1541.000000	8.027566
1540.000000	8.012317
1539.000000	7.990619
1538.000000	7.982640
1537.000000	7.961888
1536.000000	7.929972
1535.000000	7.911190
1534.000000	7.884781
1533.000000	7.882785
1532.000000	7.867157
1531.000000	7.860034
1530.000000	7.879176
1529.000000	7.885045
1528.000000	7.902909
1527.000000	7.891578
1526.000000	7.859586
1525.000000	7.821006
1524.000000	7.785968
1523.000000	7.773496
1522.000000	7.756969
1521.000000	7.752715
1520.000000	7.761494
1519.000000	7.732827
1518.000000	7.706411
1517.000000	7.674153
1516.000000	7.670523
1515.000000	7.678527
1514.000000	7.653990
1513.000000	7.634164
1512.000000	7.643221
1511.000000	7.650376
1510.000000	7.643668
1509.000000	7.632445
1508.000000	7.610378
1507.000000	7.589056
1506.000000	7.587176
1505.000000	7.583394
1504.000000	7.573878
1503.000000	7.568847
1502.000000	7.561401
1501.000000	7.580539
1500.000000	7.591873
1499.000000	7.577430
1498.000000	7.571855
1497.000000	7.562293
1496.000000	7.554602
1495.000000	7.564508
1494.000000	7.554487
1493.000000	7.537520
1492.000000	7.546325
1491.000000	7.546681
1490.000000	7.548771
1489.000000	7.542144
1488.000000	7.555154
1487.000000	7.524856
1486.000000	7.526359
1485.000000	7.531338
1484.000000	7.535329
1483.000000	7.564709
1482.000000	7.545191
1481.000000	7.556568
1480.000000	7.562512
1479.000000	7.557577
1478.000000	7.582991
1477.000000	7.563488
1476.000000	7.577150
1475.000000	7.586307
1474.000000	7.578672
1473.000000	7.576779
1472.000000	7.569375
1471.000000	7.571906
1470.000000	7.574783
1469.000000	7.565815
1468.000000	7.588117
1467.000000	7.614950
1466.000000	7.596368
1465.000000	7.592380
1464.000000	7.577441
1463.000000	7.612737
1462.000000	7.615566
1461.000000	7.614011
1460.000000	7.586355
1459.000000	7.581401
1458.000000	7.613640
1457.000000	7.615908
1456.000000	7.620658
1455.000000	7.631441
1454.000000	7.626290
1453.000000	7.655258
1452.000000	7.660013
1451.000000	7.657009
1450.000000	7.661692
1449.000000	7.657406
1448.000000	7.655646
1447.000000	7.665171
1446.000000	7.705075
1445.000000	7.726657
1444.000000	7.711760
1443.000000	7.714700
1442.000000	7.724016
1441.000000	7.735083
1440.000000	7.752784
1439.000000	7.759399
1438.000000	7.787169
1437.000000	7.799967
1436.000000	7.832731
1435.000000	7.880061
1434.000000	7.883375
1433.000000	7.892678
1432.000000	7.921021
1431.000000	7.937483
1430.000000	7.946886
1429.000000	7.948161
1428.000000	7.987712
