PE UV       SUBTECH     SPECTRUM    ASCII       PEDS        4.00        
   -1
TTms1556131.Sample.asc
18/03/15
09:19:33.00
18/03/15
09:19:33.00
Administrator

200.000000
1
Lambda 750
750N8071901
PerkinElmer UV WinLab 6.0.4.0738 / 1.61.00 Lambda 900

0
0
3350/servo 860.8/2
0
0
UV/VIS
1
1
1
CommonBeamDepol,150mm sphere / downward view
0
0
0
0
Program
Program
3350/servo 860.8/2
3350/0.2 860.8/0.2
3350/0.2 860.8/0.2
0
1
 
 
 
0
 
860.8
319.2
860.8
Front
100
on
 
 
0
0
0
 
0
 
 
 
0
 
 
0
0
0
0
0
 
 
 
 
0
0


0
0
#HDR
-1
-1
#GR
nm
%T
1.0
0.0
2350.000000
-1.000000
2151
8
10.938276
-0.018526
#DATA
2350.000000	5.520477
2349.000000	5.910571
2348.000000	5.383714
2347.000000	5.863273
2346.000000	5.772033
2345.000000	5.480015
2344.000000	5.468796
2343.000000	5.209162
2342.000000	5.097462
2341.000000	5.623234
2340.000000	5.686705
2339.000000	5.727556
2338.000000	5.982982
2337.000000	5.830943
2336.000000	6.112625
2335.000000	6.128563
2334.000000	5.939655
2333.000000	6.331322
2332.000000	6.116785
2331.000000	6.290145
2330.000000	6.283599
2329.000000	6.121141
2328.000000	6.216389
2327.000000	5.873513
2326.000000	6.217535
2325.000000	6.167682
2324.000000	5.954920
2323.000000	5.939514
2322.000000	5.969168
2321.000000	5.960403
2320.000000	5.978005
2319.000000	5.815863
2318.000000	6.026810
2317.000000	5.858846
2316.000000	5.812812
2315.000000	5.827323
2314.000000	5.784331
2313.000000	5.805856
2312.000000	5.590304
2311.000000	5.746254
2310.000000	5.763762
2309.000000	5.534334
2308.000000	5.460652
2307.000000	5.646922
2306.000000	5.798893
2305.000000	5.785818
2304.000000	5.549000
2303.000000	5.631103
2302.000000	5.556870
2301.000000	5.449701
2300.000000	5.371419
2299.000000	5.443990
2298.000000	5.345147
2297.000000	5.142602
2296.000000	5.362161
2295.000000	5.379548
2294.000000	5.350481
2293.000000	5.445223
2292.000000	5.534093
2291.000000	5.522016
2290.000000	5.459958
2289.000000	5.325784
2288.000000	5.497019
2287.000000	5.443604
2286.000000	5.436474
2285.000000	5.284766
2284.000000	5.329222
2283.000000	5.408999
2282.000000	5.164839
2281.000000	5.471614
2280.000000	5.548356
2279.000000	5.466420
2278.000000	5.493601
2277.000000	5.432316
2276.000000	5.375988
2275.000000	5.307084
2274.000000	5.250273
2273.000000	5.353430
2272.000000	5.397664
2271.000000	5.318439
2270.000000	5.308065
2269.000000	5.346399
2268.000000	5.358103
2267.000000	5.394427
2266.000000	5.406873
2265.000000	5.512048
2264.000000	5.625354
2263.000000	5.584108
2262.000000	5.555196
2261.000000	5.566344
2260.000000	5.586936
2259.000000	5.707332
2258.000000	5.857082
2257.000000	5.951550
2256.000000	5.918420
2255.000000	5.985132
2254.000000	6.021707
2253.000000	6.077122
2252.000000	6.158201
2251.000000	6.157335
2250.000000	6.073781
2249.000000	6.091341
2248.000000	6.165406
2247.000000	6.280326
2246.000000	6.432241
2245.000000	6.522398
2244.000000	6.506256
2243.000000	6.575362
2242.000000	6.611646
2241.000000	6.547514
2240.000000	6.587419
2239.000000	6.753745
2238.000000	6.756475
2237.000000	6.641744
2236.000000	6.695429
2235.000000	6.729617
2234.000000	6.806074
2233.000000	6.891576
2232.000000	6.795655
2231.000000	6.676318
2230.000000	6.708427
2229.000000	6.816787
2228.000000	6.935960
2227.000000	6.907260
2226.000000	6.835411
2225.000000	6.810258
2224.000000	6.791244
2223.000000	6.691458
2222.000000	6.717103
2221.000000	6.740342
2220.000000	6.742120
2219.000000	6.794886
2218.000000	6.811064
2217.000000	6.733787
2216.000000	6.748636
2215.000000	6.779891
2214.000000	6.765289
2213.000000	6.796960
2212.000000	6.649829
2211.000000	6.622670
2210.000000	6.598855
2209.000000	6.635818
2208.000000	6.583503
2207.000000	6.571592
2206.000000	6.542066
2205.000000	6.428734
2204.000000	6.435506
2203.000000	6.420560
2202.000000	6.492382
2201.000000	6.443052
2200.000000	6.533229
2199.000000	6.496416
2198.000000	6.497073
2197.000000	6.460424
2196.000000	6.297420
2195.000000	6.214791
2194.000000	6.203331
2193.000000	6.059366
2192.000000	6.192202
2191.000000	6.179615
2190.000000	6.184914
2189.000000	6.203931
2188.000000	6.058116
2187.000000	6.056040
2186.000000	6.022657
2185.000000	5.935889
2184.000000	5.956273
2183.000000	6.112549
2182.000000	6.118409
2181.000000	6.107253
2180.000000	6.075070
2179.000000	5.977828
2178.000000	5.905399
2177.000000	6.029233
2176.000000	6.134303
2175.000000	6.126962
2174.000000	6.013835
2173.000000	6.044880
2172.000000	6.081635
2171.000000	6.146945
2170.000000	6.202480
2169.000000	6.202777
2168.000000	6.202432
2167.000000	6.159948
2166.000000	5.975611
2165.000000	6.166798
2164.000000	6.337618
2163.000000	6.160154
2162.000000	6.213873
2161.000000	6.210470
2160.000000	6.434433
2159.000000	6.446242
2158.000000	6.428506
2157.000000	6.478356
2156.000000	6.419116
2155.000000	6.608195
2154.000000	6.612620
2153.000000	6.639766
2152.000000	6.681735
2151.000000	6.534459
2150.000000	6.508059
2149.000000	6.796161
2148.000000	6.684520
2147.000000	6.843390
2146.000000	6.765362
2145.000000	6.869980
2144.000000	6.860169
2143.000000	6.711093
2142.000000	6.757430
2141.000000	6.736634
2140.000000	6.846814
2139.000000	6.975056
2138.000000	7.034027
2137.000000	6.985955
2136.000000	6.885570
2135.000000	6.840564
2134.000000	7.186444
2133.000000	6.899041
2132.000000	7.107821
2131.000000	7.093254
2130.000000	7.167576
2129.000000	7.050850
2128.000000	7.199625
2127.000000	7.019997
2126.000000	7.030190
2125.000000	7.036430
2124.000000	7.272116
2123.000000	7.119042
2122.000000	7.158411
2121.000000	7.082923
2120.000000	7.053107
2119.000000	7.080696
2118.000000	7.145240
2117.000000	7.142958
2116.000000	7.263403
2115.000000	7.192354
2114.000000	7.271375
2113.000000	7.135223
2112.000000	7.125269
2111.000000	7.186615
2110.000000	7.301125
2109.000000	7.176706
2108.000000	7.222701
2107.000000	7.175839
2106.000000	7.100017
2105.000000	7.068710
2104.000000	7.165863
2103.000000	7.131419
2102.000000	7.225545
2101.000000	7.257864
2100.000000	7.272223
2099.000000	7.159431
2098.000000	7.209777
2097.000000	7.140190
2096.000000	7.106492
2095.000000	7.053246
2094.000000	7.169156
2093.000000	7.160105
2092.000000	7.192040
2091.000000	7.203574
2090.000000	7.176693
2089.000000	7.109407
2088.000000	7.023396
2087.000000	6.994452
2086.000000	7.088282
2085.000000	7.067386
2084.000000	7.088000
2083.000000	7.023755
2082.000000	6.912651
2081.000000	6.907882
2080.000000	6.946970
2079.000000	6.871559
2078.000000	6.832233
2077.000000	6.880945
2076.000000	6.878899
2075.000000	6.842575
2074.000000	6.785772
2073.000000	6.780502
2072.000000	6.684615
2071.000000	6.653187
2070.000000	6.647416
2069.000000	6.585017
2068.000000	6.569791
2067.000000	6.509847
2066.000000	6.451831
2065.000000	6.467266
2064.000000	6.478544
2063.000000	6.329441
2062.000000	6.278571
2061.000000	6.234977
2060.000000	6.179463
2059.000000	6.174774
2058.000000	6.147714
2057.000000	6.094744
2056.000000	6.051461
2055.000000	6.005962
2054.000000	5.964057
2053.000000	5.920575
2052.000000	5.875814
2051.000000	5.860884
2050.000000	5.881604
2049.000000	5.914499
2048.000000	5.842112
2047.000000	5.828415
2046.000000	5.791202
2045.000000	5.743695
2044.000000	5.741564
2043.000000	5.790541
2042.000000	5.795186
2041.000000	5.796241
2040.000000	5.785381
2039.000000	5.761447
2038.000000	5.738839
2037.000000	5.743952
2036.000000	5.733927
2035.000000	5.767851
2034.000000	5.812059
2033.000000	5.798500
2032.000000	5.804378
2031.000000	5.826211
2030.000000	5.885185
2029.000000	5.910565
2028.000000	5.925906
2027.000000	5.959189
2026.000000	5.970652
2025.000000	6.007579
2024.000000	6.010269
2023.000000	5.992325
2022.000000	6.002751
2021.000000	5.981949
2020.000000	5.984181
2019.000000	5.999528
2018.000000	6.021818
2017.000000	6.047226
2016.000000	6.037068
2015.000000	6.016571
2014.000000	5.968302
2013.000000	5.928676
2012.000000	5.951404
2011.000000	5.967530
2010.000000	5.926023
2009.000000	5.923504
2008.000000	5.906496
2007.000000	5.863105
2006.000000	5.798060
2005.000000	5.758337
2004.000000	5.727832
2003.000000	5.700947
2002.000000	5.647304
2001.000000	5.598450
2000.000000	5.594074
1999.000000	5.615597
1998.000000	5.580258
1997.000000	5.565065
1996.000000	5.542496
1995.000000	5.510168
1994.000000	5.455959
1993.000000	5.421493
1992.000000	5.403595
1991.000000	5.357020
1990.000000	5.310573
1989.000000	5.310227
1988.000000	5.303824
1987.000000	5.261258
1986.000000	5.233179
1985.000000	5.210548
1984.000000	5.169039
1983.000000	5.127805
1982.000000	5.115269
1981.000000	5.091180
1980.000000	5.073059
1979.000000	5.019528
1978.000000	4.992230
1977.000000	4.975872
1976.000000	4.942703
1975.000000	4.894334
1974.000000	4.848181
1973.000000	4.867486
1972.000000	4.879956
1971.000000	4.841353
1970.000000	4.830739
1969.000000	4.838970
1968.000000	4.768615
1967.000000	4.735963
1966.000000	4.698437
1965.000000	4.660766
1964.000000	4.615686
1963.000000	4.647617
1962.000000	4.615155
1961.000000	4.616520
1960.000000	4.610135
1959.000000	4.612533
1958.000000	4.558010
1957.000000	4.542805
1956.000000	4.556614
1955.000000	4.563294
1954.000000	4.581267
1953.000000	4.558350
1952.000000	4.476519
1951.000000	4.561306
1950.000000	4.495140
1949.000000	4.470624
1948.000000	4.473129
1947.000000	4.465164
1946.000000	4.477833
1945.000000	4.453657
1944.000000	4.503829
1943.000000	4.564763
1942.000000	4.583866
1941.000000	4.570613
1940.000000	4.576805
1939.000000	4.544581
1938.000000	4.617887
1937.000000	4.621561
1936.000000	4.634449
1935.000000	4.707617
1934.000000	4.724166
1933.000000	4.715513
1932.000000	4.728855
1931.000000	4.779821
1930.000000	4.760970
1929.000000	4.804690
1928.000000	4.919637
1927.000000	4.936046
1926.000000	5.039586
1925.000000	5.101431
1924.000000	5.100034
1923.000000	5.158425
1922.000000	5.267226
1921.000000	5.269446
1920.000000	5.381829
1919.000000	5.380681
1918.000000	5.493155
1917.000000	5.528370
1916.000000	5.591714
1915.000000	5.777520
1914.000000	5.868239
1913.000000	5.981796
1912.000000	6.058766
1911.000000	6.084718
1910.000000	6.205796
1909.000000	6.231570
1908.000000	6.387808
1907.000000	6.486166
1906.000000	6.587499
1905.000000	6.732500
1904.000000	6.851135
1903.000000	6.989716
1902.000000	7.142676
1901.000000	7.281594
1900.000000	7.388331
1899.000000	7.497150
1898.000000	7.616266
1897.000000	7.731817
1896.000000	7.828024
1895.000000	7.993244
1894.000000	8.083978
1893.000000	8.219360
1892.000000	8.336700
1891.000000	8.412759
1890.000000	8.575158
1889.000000	8.705315
1888.000000	8.774077
1887.000000	8.874998
1886.000000	9.003951
1885.000000	9.170774
1884.000000	9.229434
1883.000000	9.383601
1882.000000	9.496209
1881.000000	9.557327
1880.000000	9.657155
1879.000000	9.756531
1878.000000	9.792892
1877.000000	9.960179
1876.000000	10.067731
1875.000000	10.103555
1874.000000	10.138228
1873.000000	10.206777
1872.000000	10.291929
1871.000000	10.272892
1870.000000	10.322891
1869.000000	10.366452
1868.000000	10.382537
1867.000000	10.421621
1866.000000	10.405891
1865.000000	10.397978
1864.000000	10.434155
1863.000000	10.428398
1862.000000	10.415287
1861.000000	10.432931
1860.000000	10.481026
1859.000000	10.500119
1858.000000	10.516626
1857.000000	10.544106
1856.000000	10.527880
1855.000000	10.509093
1854.000000	10.549049
1853.000000	10.543007
1852.000000	10.568540
1851.000000	10.564249
1850.000000	10.591128
1849.000000	10.584648
1848.000000	10.558740
1847.000000	10.530492
1846.000000	10.544383
1845.000000	10.531536
1844.000000	10.526545
1843.000000	10.546488
1842.000000	10.525236
1841.000000	10.502569
1840.000000	10.477885
1839.000000	10.454183
1838.000000	10.465978
1837.000000	10.457984
1836.000000	10.424232
1835.000000	10.391039
1834.000000	10.364260
1833.000000	10.370089
1832.000000	10.367413
1831.000000	10.369207
1830.000000	10.330274
1829.000000	10.300348
1828.000000	10.299097
1827.000000	10.277718
1826.000000	10.240533
1825.000000	10.225604
1824.000000	10.209831
1823.000000	10.207526
1822.000000	10.189285
1821.000000	10.163095
1820.000000	10.130083
1819.000000	10.129495
1818.000000	10.141287
1817.000000	10.114903
1816.000000	10.096760
1815.000000	10.092742
1814.000000	10.078742
1813.000000	10.056884
1812.000000	10.051703
1811.000000	10.045308
1810.000000	10.033580
1809.000000	10.037066
1808.000000	10.036595
1807.000000	10.016245
1806.000000	10.004421
1805.000000	9.993288
1804.000000	9.963305
1803.000000	9.948044
1802.000000	9.940740
1801.000000	9.935776
1800.000000	9.951627
1799.000000	9.948375
1798.000000	9.938585
1797.000000	9.938752
1796.000000	9.928924
1795.000000	9.917385
1794.000000	9.931447
1793.000000	9.928137
1792.000000	9.914050
1791.000000	9.908603
1790.000000	9.923725
1789.000000	9.920071
1788.000000	9.914184
1787.000000	9.904335
1786.000000	9.910439
1785.000000	9.924437
1784.000000	9.924037
1783.000000	9.913389
1782.000000	9.907229
1781.000000	9.906923
1780.000000	9.893202
1779.000000	9.877990
1778.000000	9.865599
1777.000000	9.863406
1776.000000	9.846620
1775.000000	9.838569
1774.000000	9.825936
1773.000000	9.811654
1772.000000	9.790067
1771.000000	9.779050
1770.000000	9.744776
1769.000000	9.723450
1768.000000	9.712182
1767.000000	9.699376
1766.000000	9.684121
1765.000000	9.658417
1764.000000	9.670760
1763.000000	9.638184
1762.000000	9.615402
1761.000000	9.599168
1760.000000	9.581358
1759.000000	9.568740
1758.000000	9.559223
1757.000000	9.529456
1756.000000	9.504389
1755.000000	9.486221
1754.000000	9.499989
1753.000000	9.500273
1752.000000	9.482390
1751.000000	9.452896
1750.000000	9.459569
1749.000000	9.432311
1748.000000	9.409530
1747.000000	9.386733
1746.000000	9.377032
1745.000000	9.352935
1744.000000	9.338061
1743.000000	9.333604
1742.000000	9.289946
1741.000000	9.286293
1740.000000	9.267497
1739.000000	9.250255
1738.000000	9.244129
1737.000000	9.245445
1736.000000	9.215559
1735.000000	9.201946
1734.000000	9.227140
1733.000000	9.203507
1732.000000	9.218305
1731.000000	9.201200
1730.000000	9.205944
1729.000000	9.221678
1728.000000	9.230033
1727.000000	9.231888
1726.000000	9.243772
1725.000000	9.245102
1724.000000	9.284181
1723.000000	9.319240
1722.000000	9.322379
1721.000000	9.329223
1720.000000	9.352159
1719.000000	9.389766
1718.000000	9.399944
1717.000000	9.383730
1716.000000	9.386320
1715.000000	9.428147
1714.000000	9.457957
1713.000000	9.456251
1712.000000	9.474899
1711.000000	9.495718
1710.000000	9.517300
1709.000000	9.524012
1708.000000	9.523139
1707.000000	9.533553
1706.000000	9.533576
1705.000000	9.544290
1704.000000	9.564955
1703.000000	9.560714
1702.000000	9.564200
1701.000000	9.565829
1700.000000	9.570149
1699.000000	9.562637
1698.000000	9.598959
1697.000000	9.603249
1696.000000	9.591678
1695.000000	9.597217
1694.000000	9.598705
1693.000000	9.606767
1692.000000	9.609920
1691.000000	9.606246
1690.000000	9.627736
1689.000000	9.678175
1688.000000	9.681237
1687.000000	9.744482
1686.000000	9.749180
1685.000000	9.785231
1684.000000	9.811343
1683.000000	9.846388
1682.000000	9.890323
1681.000000	9.929722
1680.000000	9.967051
1679.000000	9.988018
1678.000000	10.034738
1677.000000	10.055613
1676.000000	10.094813
1675.000000	10.135341
1674.000000	10.181222
1673.000000	10.201297
1672.000000	10.233069
1671.000000	10.272394
1670.000000	10.298173
1669.000000	10.310138
1668.000000	10.330505
1667.000000	10.386137
1666.000000	10.357989
1665.000000	10.369871
1664.000000	10.363618
1663.000000	10.410478
1662.000000	10.422742
1661.000000	10.452408
1660.000000	10.468679
1659.000000	10.476293
1658.000000	10.496449
1657.000000	10.519009
1656.000000	10.513528
1655.000000	10.515280
1654.000000	10.518107
1653.000000	10.534215
1652.000000	10.555938
1651.000000	10.529255
1650.000000	10.507395
1649.000000	10.504576
1648.000000	10.493773
1647.000000	10.499835
1646.000000	10.492844
1645.000000	10.475190
1644.000000	10.457519
1643.000000	10.453170
1642.000000	10.447557
1641.000000	10.443042
1640.000000	10.426033
1639.000000	10.422220
1638.000000	10.432755
1637.000000	10.407137
1636.000000	10.379663
1635.000000	10.365324
1634.000000	10.361741
1633.000000	10.344513
1632.000000	10.329637
1631.000000	10.304841
1630.000000	10.306392
1629.000000	10.297141
1628.000000	10.273117
1627.000000	10.266352
1626.000000	10.255002
1625.000000	10.228970
1624.000000	10.222050
1623.000000	10.205196
1622.000000	10.201453
1621.000000	10.182449
1620.000000	10.159021
1619.000000	10.137382
1618.000000	10.119245
1617.000000	10.114885
1616.000000	10.095674
1615.000000	10.070995
1614.000000	10.049071
1613.000000	10.045062
1612.000000	10.044004
1611.000000	10.020244
1610.000000	10.000081
1609.000000	9.979877
1608.000000	9.966356
1607.000000	9.960496
1606.000000	9.933540
1605.000000	9.915161
1604.000000	9.904697
1603.000000	9.889401
1602.000000	9.870717
1601.000000	9.850788
1600.000000	9.832410
1599.000000	9.821354
1598.000000	9.807471
1597.000000	9.802495
1596.000000	9.777056
1595.000000	9.750629
1594.000000	9.749193
1593.000000	9.745612
1592.000000	9.729152
1591.000000	9.707447
1590.000000	9.691404
1589.000000	9.684597
1588.000000	9.665446
1587.000000	9.647776
1586.000000	9.637052
1585.000000	9.622293
1584.000000	9.604908
1583.000000	9.592584
1582.000000	9.592988
1581.000000	9.589102
1580.000000	9.577144
1579.000000	9.552491
1578.000000	9.543651
1577.000000	9.525768
1576.000000	9.514948
1575.000000	9.493633
1574.000000	9.478084
1573.000000	9.468132
1572.000000	9.452719
1571.000000	9.438075
1570.000000	9.431126
1569.000000	9.412077
1568.000000	9.393421
1567.000000	9.385623
1566.000000	9.372787
1565.000000	9.356473
1564.000000	9.349382
1563.000000	9.348191
1562.000000	9.346927
1561.000000	9.330263
1560.000000	9.310261
1559.000000	9.284775
1558.000000	9.285068
1557.000000	9.278379
1556.000000	9.258760
1555.000000	9.236340
1554.000000	9.238866
1553.000000	9.238731
1552.000000	9.232103
1551.000000	9.198532
1550.000000	9.182044
1549.000000	9.167813
1548.000000	9.146324
1547.000000	9.133033
1546.000000	9.113789
1545.000000	9.090136
1544.000000	9.055207
1543.000000	9.027351
1542.000000	9.017784
1541.000000	8.989858
1540.000000	8.969570
1539.000000	8.952386
1538.000000	8.913738
1537.000000	8.885937
1536.000000	8.870420
1535.000000	8.850566
1534.000000	8.830153
1533.000000	8.814549
1532.000000	8.779186
1531.000000	8.759536
1530.000000	8.766119
1529.000000	8.798131
1528.000000	8.810887
1527.000000	8.805152
1526.000000	8.767338
1525.000000	8.718670
1524.000000	8.702477
1523.000000	8.675521
1522.000000	8.643338
1521.000000	8.616401
1520.000000	8.616151
1519.000000	8.594214
1518.000000	8.584953
1517.000000	8.579408
1516.000000	8.565907
1515.000000	8.533688
1514.000000	8.518884
1513.000000	8.504208
1512.000000	8.518706
1511.000000	8.518885
1510.000000	8.499245
1509.000000	8.458976
1508.000000	8.431553
1507.000000	8.441415
1506.000000	8.427505
1505.000000	8.410598
1504.000000	8.400496
1503.000000	8.418541
1502.000000	8.438032
1501.000000	8.425511
1500.000000	8.412377
1499.000000	8.418332
1498.000000	8.402052
1497.000000	8.386318
1496.000000	8.377223
1495.000000	8.373425
1494.000000	8.376472
1493.000000	8.373210
1492.000000	8.373518
1491.000000	8.372631
1490.000000	8.383506
1489.000000	8.372823
1488.000000	8.388167
1487.000000	8.397651
1486.000000	8.399705
1485.000000	8.394201
1484.000000	8.407481
1483.000000	8.412276
1482.000000	8.338691
1481.000000	8.364363
1480.000000	8.381329
1479.000000	8.403258
1478.000000	8.399613
1477.000000	8.402031
1476.000000	8.417132
1475.000000	8.412122
1474.000000	8.422490
1473.000000	8.437869
1472.000000	8.429888
1471.000000	8.461128
1470.000000	8.477602
1469.000000	8.477200
1468.000000	8.462077
1467.000000	8.461663
1466.000000	8.464293
1465.000000	8.453864
1464.000000	8.464815
1463.000000	8.495540
1462.000000	8.488820
1461.000000	8.501146
1460.000000	8.540989
1459.000000	8.542527
1458.000000	8.525070
1457.000000	8.519119
1456.000000	8.526799
1455.000000	8.545683
1454.000000	8.588558
1453.000000	8.579488
1452.000000	8.568086
1451.000000	8.563645
1450.000000	8.583913
1449.000000	8.624373
1448.000000	8.645584
1447.000000	8.641217
1446.000000	8.652181
1445.000000	8.657690
1444.000000	8.657154
1443.000000	8.676254
1442.000000	8.719116
1441.000000	8.751893
1440.000000	8.749992
1439.000000	8.765564
1438.000000	8.782627
1437.000000	8.793229
1436.000000	8.792948
1435.000000	8.829497
1434.000000	8.866786
