PE UV       SUBTECH     SPECTRUM    ASCII       PEDS        4.00        
   -1
TTms1482161.Sample.asc
18/03/15
12:09:13.00
18/03/15
12:09:13.00
Administrator

200.000000
1
Lambda 750
750N8071901
PerkinElmer UV WinLab 6.0.4.0738 / 1.61.00 Lambda 900

0
0
3350/servo 860.8/2
0
0
UV/VIS
1
1
1
CommonBeamDepol,150mm sphere / downward view
0
0
0
0
Program
Program
3350/servo 860.8/2
3350/0.2 860.8/0.2
3350/0.2 860.8/0.2
0
1
 
 
 
0
 
860.8
319.2
860.8
Front
100
on
 
 
0
0
0
 
0
 
 
 
0
 
 
0
0
0
0
0
 
 
 
 
0
0


0
0
#HDR
-1
-1
#GR
nm
%T
1.0
0.0
2350.000000
-1.000000
2151
8
10.212196
-0.047808
#DATA
2350.000000	2.959019
2349.000000	3.062346
2348.000000	2.949720
2347.000000	3.869734
2346.000000	3.618563
2345.000000	3.154342
2344.000000	2.744464
2343.000000	3.070112
2342.000000	2.965714
2341.000000	2.963791
2340.000000	3.341996
2339.000000	3.297708
2338.000000	3.658152
2337.000000	3.717577
2336.000000	3.927723
2335.000000	3.961356
2334.000000	3.905960
2333.000000	3.864537
2332.000000	4.056414
2331.000000	4.152467
2330.000000	3.986790
2329.000000	3.753933
2328.000000	3.704921
2327.000000	3.617484
2326.000000	3.546573
2325.000000	3.854523
2324.000000	3.889016
2323.000000	4.022550
2322.000000	4.025235
2321.000000	3.685476
2320.000000	3.496460
2319.000000	3.433052
2318.000000	3.655543
2317.000000	3.520421
2316.000000	3.759381
2315.000000	3.454969
2314.000000	3.380344
2313.000000	3.354799
2312.000000	3.276566
2311.000000	3.430536
2310.000000	3.276908
2309.000000	3.489230
2308.000000	3.357494
2307.000000	3.328632
2306.000000	3.442815
2305.000000	3.479438
2304.000000	3.285030
2303.000000	3.250261
2302.000000	3.389488
2301.000000	3.197062
2300.000000	2.976731
2299.000000	3.237894
2298.000000	3.035078
2297.000000	3.063514
2296.000000	3.194339
2295.000000	2.985672
2294.000000	3.093541
2293.000000	3.085333
2292.000000	3.040989
2291.000000	2.995782
2290.000000	3.163574
2289.000000	3.113467
2288.000000	3.159974
2287.000000	3.264199
2286.000000	2.996624
2285.000000	3.137385
2284.000000	3.081938
2283.000000	3.094667
2282.000000	3.055952
2281.000000	2.996408
2280.000000	3.040381
2279.000000	2.971811
2278.000000	3.091041
2277.000000	3.120572
2276.000000	3.083678
2275.000000	3.054076
2274.000000	3.017174
2273.000000	3.190497
2272.000000	3.079838
2271.000000	3.055297
2270.000000	3.115430
2269.000000	3.185636
2268.000000	3.160907
2267.000000	3.177299
2266.000000	3.334189
2265.000000	3.280244
2264.000000	3.231819
2263.000000	3.308630
2262.000000	3.336674
2261.000000	3.391371
2260.000000	3.436771
2259.000000	3.580085
2258.000000	3.742926
2257.000000	3.693494
2256.000000	3.554064
2255.000000	3.508564
2254.000000	3.625265
2253.000000	3.693154
2252.000000	3.646012
2251.000000	3.612464
2250.000000	3.708762
2249.000000	3.884313
2248.000000	3.865944
2247.000000	3.819273
2246.000000	3.975030
2245.000000	4.072382
2244.000000	3.969468
2243.000000	4.066815
2242.000000	4.097937
2241.000000	4.079424
2240.000000	4.170315
2239.000000	4.258578
2238.000000	4.319105
2237.000000	4.310967
2236.000000	4.413795
2235.000000	4.484624
2234.000000	4.463710
2233.000000	4.456887
2232.000000	4.469108
2231.000000	4.527676
2230.000000	4.517908
2229.000000	4.506347
2228.000000	4.464343
2227.000000	4.453151
2226.000000	4.444361
2225.000000	4.336062
2224.000000	4.423384
2223.000000	4.498447
2222.000000	4.461843
2221.000000	4.431424
2220.000000	4.413851
2219.000000	4.407196
2218.000000	4.443726
2217.000000	4.308120
2216.000000	4.275925
2215.000000	4.353693
2214.000000	4.314814
2213.000000	4.331092
2212.000000	4.314061
2211.000000	4.191457
2210.000000	4.229049
2209.000000	4.201448
2208.000000	4.173526
2207.000000	4.314981
2206.000000	4.276832
2205.000000	4.186249
2204.000000	4.127072
2203.000000	3.962291
2202.000000	4.076826
2201.000000	4.084519
2200.000000	4.079339
2199.000000	4.162155
2198.000000	4.143150
2197.000000	3.919735
2196.000000	3.879097
2195.000000	3.969699
2194.000000	3.981593
2193.000000	3.853476
2192.000000	3.837970
2191.000000	3.897180
2190.000000	3.901603
2189.000000	3.857128
2188.000000	3.790922
2187.000000	3.777486
2186.000000	3.787226
2185.000000	3.754697
2184.000000	3.862688
2183.000000	3.845145
2182.000000	3.854996
2181.000000	3.843776
2180.000000	3.727164
2179.000000	3.784573
2178.000000	3.838660
2177.000000	3.939408
2176.000000	3.749026
2175.000000	3.807216
2174.000000	3.859040
2173.000000	3.932910
2172.000000	3.900883
2171.000000	3.852401
2170.000000	3.827534
2169.000000	3.841892
2168.000000	4.020918
2167.000000	3.929209
2166.000000	4.007339
2165.000000	3.978277
2164.000000	3.943606
2163.000000	3.765176
2162.000000	4.049746
2161.000000	4.043842
2160.000000	3.970519
2159.000000	4.056830
2158.000000	3.977290
2157.000000	4.114675
2156.000000	4.146786
2155.000000	4.173893
2154.000000	4.027273
2153.000000	4.298105
2152.000000	4.412463
2151.000000	4.468795
2150.000000	4.358498
2149.000000	4.375026
2148.000000	4.168376
2147.000000	4.314016
2146.000000	4.418054
2145.000000	4.294530
2144.000000	4.490421
2143.000000	4.368761
2142.000000	4.451281
2141.000000	4.489516
2140.000000	4.550299
2139.000000	4.735835
2138.000000	4.463613
2137.000000	4.621220
2136.000000	4.555477
2135.000000	4.771544
2134.000000	4.815869
2133.000000	4.454562
2132.000000	4.887782
2131.000000	4.748023
2130.000000	4.967588
2129.000000	4.760875
2128.000000	4.750011
2127.000000	4.789487
2126.000000	4.716041
2125.000000	4.761196
2124.000000	4.774724
2123.000000	4.776295
2122.000000	4.879410
2121.000000	4.642066
2120.000000	4.764987
2119.000000	4.915820
2118.000000	4.814362
2117.000000	4.910896
2116.000000	4.856707
2115.000000	4.885106
2114.000000	4.859741
2113.000000	4.858926
2112.000000	4.836527
2111.000000	4.710987
2110.000000	4.685171
2109.000000	4.819163
2108.000000	4.814530
2107.000000	4.961461
2106.000000	4.974024
2105.000000	4.828934
2104.000000	4.975348
2103.000000	4.935362
2102.000000	4.874511
2101.000000	4.909892
2100.000000	5.025166
2099.000000	4.935704
2098.000000	4.964278
2097.000000	4.928278
2096.000000	4.994992
2095.000000	4.904579
2094.000000	4.885744
2093.000000	4.865288
2092.000000	4.850349
2091.000000	4.781236
2090.000000	4.821584
2089.000000	4.830333
2088.000000	4.875138
2087.000000	4.809932
2086.000000	4.855654
2085.000000	4.895749
2084.000000	4.927258
2083.000000	4.859053
2082.000000	4.775863
2081.000000	4.684027
2080.000000	4.700487
2079.000000	4.668192
2078.000000	4.650441
2077.000000	4.626258
2076.000000	4.575903
2075.000000	4.564778
2074.000000	4.596035
2073.000000	4.558980
2072.000000	4.573769
2071.000000	4.575340
2070.000000	4.548461
2069.000000	4.397545
2068.000000	4.331739
2067.000000	4.334708
2066.000000	4.368637
2065.000000	4.213031
2064.000000	4.182257
2063.000000	4.166296
2062.000000	4.208973
2061.000000	4.078984
2060.000000	3.996005
2059.000000	4.025890
2058.000000	4.009523
2057.000000	3.924478
2056.000000	3.941830
2055.000000	3.954342
2054.000000	3.903998
2053.000000	3.845777
2052.000000	3.769939
2051.000000	3.716402
2050.000000	3.742894
2049.000000	3.745034
2048.000000	3.717781
2047.000000	3.697984
2046.000000	3.672154
2045.000000	3.737373
2044.000000	3.730005
2043.000000	3.685377
2042.000000	3.667724
2041.000000	3.668031
2040.000000	3.694705
2039.000000	3.664409
2038.000000	3.655775
2037.000000	3.658727
2036.000000	3.681139
2035.000000	3.728140
2034.000000	3.724171
2033.000000	3.754667
2032.000000	3.798680
2031.000000	3.793461
2030.000000	3.789764
2029.000000	3.832381
2028.000000	3.910837
2027.000000	3.950398
2026.000000	3.939940
2025.000000	3.922336
2024.000000	3.945207
2023.000000	3.946056
2022.000000	3.953860
2021.000000	4.004061
2020.000000	3.996306
2019.000000	3.947415
2018.000000	3.945144
2017.000000	3.923105
2016.000000	3.927520
2015.000000	3.939952
2014.000000	3.960857
2013.000000	3.953125
2012.000000	3.908354
2011.000000	3.932756
2010.000000	3.971369
2009.000000	3.909497
2008.000000	3.825800
2007.000000	3.814445
2006.000000	3.799165
2005.000000	3.809717
2004.000000	3.743940
2003.000000	3.728228
2002.000000	3.760647
2001.000000	3.714638
2000.000000	3.679150
1999.000000	3.631244
1998.000000	3.640782
1997.000000	3.625946
1996.000000	3.602425
1995.000000	3.586037
1994.000000	3.568164
1993.000000	3.522521
1992.000000	3.487805
1991.000000	3.490439
1990.000000	3.442198
1989.000000	3.437246
1988.000000	3.370276
1987.000000	3.325397
1986.000000	3.337337
1985.000000	3.333320
1984.000000	3.276458
1983.000000	3.273283
1982.000000	3.259069
1981.000000	3.225905
1980.000000	3.200992
1979.000000	3.187925
1978.000000	3.156434
1977.000000	3.151730
1976.000000	3.140067
1975.000000	3.101533
1974.000000	3.073593
1973.000000	3.093500
1972.000000	3.072294
1971.000000	3.011654
1970.000000	3.055522
1969.000000	3.028322
1968.000000	3.004346
1967.000000	2.998352
1966.000000	2.980854
1965.000000	2.945210
1964.000000	2.955072
1963.000000	2.921716
1962.000000	2.923824
1961.000000	2.850629
1960.000000	2.786924
1959.000000	2.843916
1958.000000	2.883753
1957.000000	2.850479
1956.000000	2.815548
1955.000000	2.853173
1954.000000	2.867003
1953.000000	2.838887
1952.000000	2.792961
1951.000000	2.860946
1950.000000	2.837447
1949.000000	2.776959
1948.000000	2.820666
1947.000000	2.808624
1946.000000	2.818754
1945.000000	2.863463
1944.000000	2.837200
1943.000000	2.826428
1942.000000	2.849206
1941.000000	2.846630
1940.000000	2.802218
1939.000000	2.874994
1938.000000	2.880869
1937.000000	2.901275
1936.000000	2.944354
1935.000000	2.930757
1934.000000	2.923467
1933.000000	2.933730
1932.000000	2.952677
1931.000000	2.958416
1930.000000	3.053240
1929.000000	3.028338
1928.000000	3.115015
1927.000000	3.180358
1926.000000	3.108929
1925.000000	3.239985
1924.000000	3.330543
1923.000000	3.247557
1922.000000	3.411370
1921.000000	3.442115
1920.000000	3.454562
1919.000000	3.579430
1918.000000	3.630013
1917.000000	3.671625
1916.000000	3.689926
1915.000000	3.762400
1914.000000	4.009095
1913.000000	3.968273
1912.000000	3.977963
1911.000000	4.108237
1910.000000	4.175022
1909.000000	4.263828
1908.000000	4.385998
1907.000000	4.517938
1906.000000	4.589738
1905.000000	4.717950
1904.000000	4.821691
1903.000000	4.976781
1902.000000	5.033636
1901.000000	5.255012
1900.000000	5.375843
1899.000000	5.495125
1898.000000	5.643238
1897.000000	5.731042
1896.000000	5.817135
1895.000000	5.974413
1894.000000	6.139779
1893.000000	6.291484
1892.000000	6.417543
1891.000000	6.545416
1890.000000	6.676078
1889.000000	6.739854
1888.000000	6.895341
1887.000000	7.033081
1886.000000	7.162755
1885.000000	7.338076
1884.000000	7.419850
1883.000000	7.600802
1882.000000	7.689766
1881.000000	7.791832
1880.000000	7.853306
1879.000000	7.956984
1878.000000	7.979977
1877.000000	8.078066
1876.000000	8.166163
1875.000000	8.269990
1874.000000	8.356105
1873.000000	8.421144
1872.000000	8.508829
1871.000000	8.576938
1870.000000	8.548032
1869.000000	8.644318
1868.000000	8.676937
1867.000000	8.670541
1866.000000	8.694958
1865.000000	8.755761
1864.000000	8.745543
1863.000000	8.727337
1862.000000	8.712916
1861.000000	8.771359
1860.000000	8.758383
1859.000000	8.740410
1858.000000	8.767006
1857.000000	8.771761
1856.000000	8.834206
1855.000000	8.816158
1854.000000	8.809705
1853.000000	8.861264
1852.000000	8.871631
1851.000000	8.847186
1850.000000	8.891434
1849.000000	8.907020
1848.000000	8.898394
1847.000000	8.899508
1846.000000	8.870354
1845.000000	8.856641
1844.000000	8.871864
1843.000000	8.834867
1842.000000	8.831398
1841.000000	8.838048
1840.000000	8.839254
1839.000000	8.842706
1838.000000	8.827850
1837.000000	8.770857
1836.000000	8.734826
1835.000000	8.732185
1834.000000	8.697270
1833.000000	8.656827
1832.000000	8.619327
1831.000000	8.596949
1830.000000	8.614230
1829.000000	8.611082
1828.000000	8.576104
1827.000000	8.555975
1826.000000	8.548034
1825.000000	8.529501
1824.000000	8.511179
1823.000000	8.485751
1822.000000	8.478226
1821.000000	8.477754
1820.000000	8.464503
1819.000000	8.454008
1818.000000	8.441160
1817.000000	8.423124
1816.000000	8.418610
1815.000000	8.406936
1814.000000	8.377433
1813.000000	8.380247
1812.000000	8.395234
1811.000000	8.374299
1810.000000	8.350725
1809.000000	8.370759
1808.000000	8.371214
1807.000000	8.352381
1806.000000	8.335310
1805.000000	8.313816
1804.000000	8.300101
1803.000000	8.283985
1802.000000	8.278066
1801.000000	8.277176
1800.000000	8.293513
1799.000000	8.300218
1798.000000	8.271490
1797.000000	8.272608
1796.000000	8.282320
1795.000000	8.283841
1794.000000	8.289696
1793.000000	8.284437
1792.000000	8.285426
1791.000000	8.295433
1790.000000	8.296268
1789.000000	8.305563
1788.000000	8.306610
1787.000000	8.306472
1786.000000	8.307537
1785.000000	8.319931
1784.000000	8.300684
1783.000000	8.299147
1782.000000	8.304577
1781.000000	8.274112
1780.000000	8.253041
1779.000000	8.262104
1778.000000	8.242642
1777.000000	8.210036
1776.000000	8.213513
1775.000000	8.214008
1774.000000	8.184003
1773.000000	8.163679
1772.000000	8.137333
1771.000000	8.135645
1770.000000	8.128442
1769.000000	8.100000
1768.000000	8.102124
1767.000000	8.093092
1766.000000	8.046448
1765.000000	8.035358
1764.000000	8.010919
1763.000000	7.992578
1762.000000	7.972372
1761.000000	7.952217
1760.000000	7.923016
1759.000000	7.905661
1758.000000	7.887323
1757.000000	7.859268
1756.000000	7.868112
1755.000000	7.850970
1754.000000	7.854318
1753.000000	7.812305
1752.000000	7.796408
1751.000000	7.812181
1750.000000	7.771509
1749.000000	7.763316
1748.000000	7.754883
1747.000000	7.740231
1746.000000	7.706127
1745.000000	7.679523
1744.000000	7.653397
1743.000000	7.635183
1742.000000	7.613203
1741.000000	7.610562
1740.000000	7.589790
1739.000000	7.581631
1738.000000	7.556373
1737.000000	7.551836
1736.000000	7.533174
1735.000000	7.528385
1734.000000	7.560053
1733.000000	7.505284
1732.000000	7.506637
1731.000000	7.484024
1730.000000	7.512247
1729.000000	7.520356
1728.000000	7.534424
1727.000000	7.544149
1726.000000	7.565428
1725.000000	7.593304
1724.000000	7.597448
1723.000000	7.601441
1722.000000	7.620540
1721.000000	7.650277
1720.000000	7.685778
1719.000000	7.734795
1718.000000	7.711914
1717.000000	7.749180
1716.000000	7.760341
1715.000000	7.764858
1714.000000	7.778627
1713.000000	7.852073
1712.000000	7.807933
1711.000000	7.851686
1710.000000	7.876690
1709.000000	7.884756
1708.000000	7.870039
1707.000000	7.945946
1706.000000	7.931822
1705.000000	7.905962
1704.000000	7.936424
1703.000000	7.920692
1702.000000	7.956135
1701.000000	7.940718
1700.000000	7.954471
1699.000000	7.936669
1698.000000	7.939288
1697.000000	7.970703
1696.000000	8.001026
1695.000000	7.994504
1694.000000	7.978658
1693.000000	7.979342
1692.000000	8.010750
1691.000000	8.044028
1690.000000	8.062305
1689.000000	8.071637
1688.000000	8.124191
1687.000000	8.132383
1686.000000	8.167122
1685.000000	8.225506
1684.000000	8.255689
1683.000000	8.284931
1682.000000	8.313293
1681.000000	8.388467
1680.000000	8.428059
1679.000000	8.475511
1678.000000	8.521943
1677.000000	8.562502
1676.000000	8.613263
1675.000000	8.655293
1674.000000	8.703127
1673.000000	8.723560
1672.000000	8.750823
1671.000000	8.814049
1670.000000	8.845226
1669.000000	8.883752
1668.000000	8.916575
1667.000000	8.964700
1666.000000	8.950438
1665.000000	8.968019
1664.000000	8.990423
1663.000000	9.003514
1662.000000	9.025664
1661.000000	9.049072
1660.000000	9.075774
1659.000000	9.107696
1658.000000	9.119463
1657.000000	9.136769
1656.000000	9.156758
1655.000000	9.134707
1654.000000	9.132495
1653.000000	9.159486
1652.000000	9.171565
1651.000000	9.165100
1650.000000	9.168672
1649.000000	9.142204
1648.000000	9.131711
1647.000000	9.122894
1646.000000	9.133791
1645.000000	9.113032
1644.000000	9.099201
1643.000000	9.097947
1642.000000	9.093120
1641.000000	9.085704
1640.000000	9.073168
1639.000000	9.069972
1638.000000	9.044173
1637.000000	9.040454
1636.000000	9.030490
1635.000000	9.021692
1634.000000	9.000373
1633.000000	8.972602
1632.000000	8.968708
1631.000000	8.941853
1630.000000	8.920129
1629.000000	8.904206
1628.000000	8.892181
1627.000000	8.873197
1626.000000	8.862958
1625.000000	8.859305
1624.000000	8.856455
1623.000000	8.837693
1622.000000	8.832795
1621.000000	8.803693
1620.000000	8.773212
1619.000000	8.771267
1618.000000	8.760326
1617.000000	8.742633
1616.000000	8.719479
1615.000000	8.697097
1614.000000	8.674819
1613.000000	8.669809
1612.000000	8.653670
1611.000000	8.627775
1610.000000	8.615288
1609.000000	8.595202
1608.000000	8.571449
1607.000000	8.560972
1606.000000	8.537971
1605.000000	8.529252
1604.000000	8.518921
1603.000000	8.484185
1602.000000	8.472094
1601.000000	8.458167
1600.000000	8.437564
1599.000000	8.426553
1598.000000	8.419704
1597.000000	8.404440
1596.000000	8.383504
1595.000000	8.368813
1594.000000	8.357421
1593.000000	8.346564
1592.000000	8.328909
1591.000000	8.308309
1590.000000	8.295889
1589.000000	8.281340
1588.000000	8.269443
1587.000000	8.261070
1586.000000	8.253121
1585.000000	8.237343
1584.000000	8.216741
1583.000000	8.197045
1582.000000	8.190389
1581.000000	8.183311
1580.000000	8.167793
1579.000000	8.146390
1578.000000	8.142774
1577.000000	8.139038
1576.000000	8.110433
1575.000000	8.083169
1574.000000	8.073503
1573.000000	8.057900
1572.000000	8.041664
1571.000000	8.032605
1570.000000	8.017070
1569.000000	8.003558
1568.000000	7.995875
1567.000000	7.990122
1566.000000	7.978610
1565.000000	7.955530
1564.000000	7.931732
1563.000000	7.926455
1562.000000	7.925511
1561.000000	7.906191
1560.000000	7.894361
1559.000000	7.886250
1558.000000	7.868493
1557.000000	7.855961
1556.000000	7.846055
1555.000000	7.830980
1554.000000	7.816349
1553.000000	7.804713
1552.000000	7.784992
1551.000000	7.773878
1550.000000	7.758719
1549.000000	7.746795
1548.000000	7.716998
1547.000000	7.696779
1546.000000	7.675410
1545.000000	7.640433
1544.000000	7.605451
1543.000000	7.586134
1542.000000	7.573488
1541.000000	7.539636
1540.000000	7.516072
1539.000000	7.472979
1538.000000	7.451524
1537.000000	7.432486
1536.000000	7.401685
1535.000000	7.375691
1534.000000	7.337162
1533.000000	7.323078
1532.000000	7.308798
1531.000000	7.291831
1530.000000	7.294161
1529.000000	7.333042
1528.000000	7.358324
1527.000000	7.332293
1526.000000	7.286125
1525.000000	7.234988
1524.000000	7.195251
1523.000000	7.150778
1522.000000	7.152217
1521.000000	7.149340
1520.000000	7.130957
1519.000000	7.126262
1518.000000	7.120717
1517.000000	7.093846
1516.000000	7.076977
1515.000000	7.056803
1514.000000	7.067839
1513.000000	7.066021
1512.000000	7.057673
1511.000000	7.025961
1510.000000	7.002036
1509.000000	7.018118
1508.000000	7.035748
1507.000000	7.017675
1506.000000	6.991297
1505.000000	6.986515
1504.000000	6.974551
1503.000000	6.967407
1502.000000	6.968773
1501.000000	6.945366
1500.000000	6.957326
1499.000000	6.953895
1498.000000	6.935735
1497.000000	6.930929
1496.000000	6.939408
1495.000000	6.958403
1494.000000	6.954966
1493.000000	6.960843
1492.000000	6.965963
1491.000000	6.964616
1490.000000	6.976582
1489.000000	6.962937
1488.000000	6.975437
1487.000000	7.010822
1486.000000	7.004195
1485.000000	7.011251
1484.000000	7.016716
1483.000000	7.026094
1482.000000	7.019498
1481.000000	7.014629
1480.000000	7.037186
1479.000000	7.038872
1478.000000	7.038543
1477.000000	7.070525
1476.000000	7.075266
1475.000000	7.070957
1474.000000	7.067218
1473.000000	7.073085
1472.000000	7.060863
1471.000000	7.071661
1470.000000	7.073814
1469.000000	7.075857
1468.000000	7.077430
1467.000000	7.080237
1466.000000	7.129904
1465.000000	7.144376
1464.000000	7.128340
1463.000000	7.127509
1462.000000	7.163352
1461.000000	7.189531
1460.000000	7.174739
1459.000000	7.184559
1458.000000	7.173716
1457.000000	7.223872
1456.000000	7.235363
1455.000000	7.220016
1454.000000	7.227437
1453.000000	7.240913
1452.000000	7.248587
1451.000000	7.298343
1450.000000	7.312886
1449.000000	7.309544
1448.000000	7.319426
1447.000000	7.332739
1446.000000	7.348013
1445.000000	7.361107
1444.000000	7.411003
1443.000000	7.444857
1442.000000	7.457678
1441.000000	7.461700
1440.000000	7.465048
1439.000000	7.502469
1438.000000	7.522921
1437.000000	7.539179
1436.000000	7.556750
1435.000000	7.568473
1434.000000	7.596661
1433.000000	7.633178
1432.000000	7.668037
1431.000000	7.695009
1430.000000	7.724970
1429.000000	7.773908
1428.000000	7.801234
