PE UV       SUBTECH     SPECTRUM    ASCII       PEDS        4.00        
   -1
TTms1556141.Sample.asc
18/03/15
10:15:55.00
18/03/15
10:15:55.00
Administrator

200.000000
1
Lambda 750
750N8071901
PerkinElmer UV WinLab 6.0.4.0738 / 1.61.00 Lambda 900

0
0
3350/servo 860.8/2
0
0
UV/VIS
1
1
1
CommonBeamDepol,150mm sphere / downward view
0
0
0
0
Program
Program
3350/servo 860.8/2
3350/0.2 860.8/0.2
3350/0.2 860.8/0.2
0
1
 
 
 
0
 
860.8
319.2
860.8
Front
100
on
 
 
0
0
0
 
0
 
 
 
0
 
 
0
0
0
0
0
 
 
 
 
0
0


0
0
#HDR
-1
-1
#GR
nm
%T
1.0
0.0
2350.000000
-1.000000
2151
8
11.774837
-0.020710
#DATA
2350.000000	6.293463
2349.000000	6.473065
2348.000000	6.264097
2347.000000	7.077773
2346.000000	6.777470
2345.000000	6.524110
2344.000000	6.322112
2343.000000	6.316962
2342.000000	6.177251
2341.000000	6.379308
2340.000000	6.620845
2339.000000	7.180821
2338.000000	6.911156
2337.000000	6.871208
2336.000000	7.002229
2335.000000	6.767404
2334.000000	7.196222
2333.000000	7.218453
2332.000000	7.233897
2331.000000	7.209235
2330.000000	7.101700
2329.000000	7.030877
2328.000000	6.870656
2327.000000	6.944822
2326.000000	6.861971
2325.000000	7.084718
2324.000000	6.857340
2323.000000	7.157137
2322.000000	7.250163
2321.000000	6.859310
2320.000000	6.780849
2319.000000	6.822427
2318.000000	7.054130
2317.000000	7.116139
2316.000000	6.886805
2315.000000	6.799504
2314.000000	6.740336
2313.000000	6.616118
2312.000000	6.566170
2311.000000	6.657068
2310.000000	6.679711
2309.000000	6.593839
2308.000000	6.540937
2307.000000	6.376104
2306.000000	6.383267
2305.000000	6.498507
2304.000000	6.390943
2303.000000	6.775363
2302.000000	6.671157
2301.000000	6.384442
2300.000000	6.308370
2299.000000	6.343501
2298.000000	6.395288
2297.000000	6.437911
2296.000000	6.499822
2295.000000	6.266535
2294.000000	6.231401
2293.000000	6.167325
2292.000000	6.075201
2291.000000	6.037701
2290.000000	6.075673
2289.000000	6.112626
2288.000000	6.322274
2287.000000	6.250645
2286.000000	6.101143
2285.000000	6.019562
2284.000000	6.192350
2283.000000	6.161248
2282.000000	6.142829
2281.000000	6.136663
2280.000000	6.153845
2279.000000	6.188790
2278.000000	6.217126
2277.000000	6.218620
2276.000000	6.109293
2275.000000	6.100879
2274.000000	6.135995
2273.000000	6.256940
2272.000000	6.266559
2271.000000	6.229377
2270.000000	6.356801
2269.000000	6.309437
2268.000000	6.191170
2267.000000	6.287704
2266.000000	6.385685
2265.000000	6.408673
2264.000000	6.449371
2263.000000	6.344016
2262.000000	6.423714
2261.000000	6.517952
2260.000000	6.555448
2259.000000	6.521208
2258.000000	6.687485
2257.000000	6.903055
2256.000000	6.790691
2255.000000	6.719208
2254.000000	6.713964
2253.000000	6.762645
2252.000000	6.928040
2251.000000	7.032722
2250.000000	7.004990
2249.000000	7.068326
2248.000000	7.123481
2247.000000	7.144841
2246.000000	7.292921
2245.000000	7.388637
2244.000000	7.402199
2243.000000	7.524832
2242.000000	7.537489
2241.000000	7.489774
2240.000000	7.522276
2239.000000	7.624733
2238.000000	7.630467
2237.000000	7.584831
2236.000000	7.612593
2235.000000	7.664862
2234.000000	7.795739
2233.000000	7.783398
2232.000000	7.771053
2231.000000	7.763058
2230.000000	7.736161
2229.000000	7.763931
2228.000000	7.844646
2227.000000	7.829522
2226.000000	7.721756
2225.000000	7.721171
2224.000000	7.788116
2223.000000	7.783006
2222.000000	7.875193
2221.000000	7.805841
2220.000000	7.734090
2219.000000	7.733792
2218.000000	7.719199
2217.000000	7.658442
2216.000000	7.673843
2215.000000	7.668439
2214.000000	7.662739
2213.000000	7.628116
2212.000000	7.622400
2211.000000	7.598753
2210.000000	7.571420
2209.000000	7.503734
2208.000000	7.508908
2207.000000	7.457608
2206.000000	7.472371
2205.000000	7.492911
2204.000000	7.426930
2203.000000	7.327079
2202.000000	7.303298
2201.000000	7.296492
2200.000000	7.363992
2199.000000	7.320160
2198.000000	7.399009
2197.000000	7.361848
2196.000000	7.272246
2195.000000	7.236151
2194.000000	7.210433
2193.000000	7.154294
2192.000000	7.173073
2191.000000	7.231787
2190.000000	7.278325
2189.000000	7.155122
2188.000000	6.903097
2187.000000	6.965969
2186.000000	7.035911
2185.000000	7.155096
2184.000000	7.139410
2183.000000	7.053384
2182.000000	6.840509
2181.000000	6.872236
2180.000000	6.963898
2179.000000	6.996453
2178.000000	6.913217
2177.000000	7.045489
2176.000000	7.044445
2175.000000	7.106373
2174.000000	7.076353
2173.000000	7.156162
2172.000000	7.158668
2171.000000	7.261742
2170.000000	7.049957
2169.000000	7.018484
2168.000000	6.979638
2167.000000	7.190494
2166.000000	7.176413
2165.000000	7.217877
2164.000000	7.408168
2163.000000	7.210096
2162.000000	7.281257
2161.000000	7.200618
2160.000000	7.358288
2159.000000	7.247609
2158.000000	7.388451
2157.000000	7.469675
2156.000000	7.455537
2155.000000	7.471216
2154.000000	7.484697
2153.000000	7.642057
2152.000000	7.734327
2151.000000	7.616723
2150.000000	7.532120
2149.000000	7.556288
2148.000000	7.636895
2147.000000	7.640254
2146.000000	7.619678
2145.000000	7.970368
2144.000000	7.679684
2143.000000	7.809416
2142.000000	7.956358
2141.000000	7.856226
2140.000000	7.988385
2139.000000	7.823147
2138.000000	8.103231
2137.000000	8.062632
2136.000000	7.936200
2135.000000	8.160487
2134.000000	7.988234
2133.000000	7.942797
2132.000000	8.075571
2131.000000	8.096602
2130.000000	8.207880
2129.000000	8.093659
2128.000000	8.158878
2127.000000	8.020596
2126.000000	8.011329
2125.000000	7.889303
2124.000000	8.018201
2123.000000	8.100958
2122.000000	8.170485
2121.000000	8.022906
2120.000000	8.088348
2119.000000	8.182743
2118.000000	8.221516
2117.000000	8.075906
2116.000000	8.144343
2115.000000	8.129116
2114.000000	8.179768
2113.000000	8.168154
2112.000000	8.112237
2111.000000	7.999903
2110.000000	7.916744
2109.000000	8.036039
2108.000000	8.074672
2107.000000	8.103763
2106.000000	8.245519
2105.000000	8.147206
2104.000000	8.207608
2103.000000	8.176724
2102.000000	8.120826
2101.000000	8.109921
2100.000000	8.202193
2099.000000	8.130995
2098.000000	8.056801
2097.000000	8.116499
2096.000000	8.026970
2095.000000	8.034748
2094.000000	8.116220
2093.000000	8.149966
2092.000000	8.178615
2091.000000	8.076108
2090.000000	8.026155
2089.000000	8.119862
2088.000000	8.108563
2087.000000	8.026993
2086.000000	7.971064
2085.000000	7.956412
2084.000000	7.973873
2083.000000	7.975005
2082.000000	8.034169
2081.000000	7.962674
2080.000000	7.957615
2079.000000	7.884574
2078.000000	7.885390
2077.000000	7.813484
2076.000000	7.746965
2075.000000	7.722688
2074.000000	7.759594
2073.000000	7.742385
2072.000000	7.729645
2071.000000	7.638859
2070.000000	7.627985
2069.000000	7.580735
2068.000000	7.571761
2067.000000	7.523807
2066.000000	7.379525
2065.000000	7.318469
2064.000000	7.367853
2063.000000	7.313341
2062.000000	7.256367
2061.000000	7.183444
2060.000000	7.090735
2059.000000	7.067543
2058.000000	7.052585
2057.000000	6.981193
2056.000000	7.050457
2055.000000	7.045418
2054.000000	6.974030
2053.000000	6.863857
2052.000000	6.823907
2051.000000	6.781145
2050.000000	6.756411
2049.000000	6.756265
2048.000000	6.754604
2047.000000	6.702400
2046.000000	6.629705
2045.000000	6.643983
2044.000000	6.685284
2043.000000	6.656261
2042.000000	6.658500
2041.000000	6.701168
2040.000000	6.669700
2039.000000	6.651976
2038.000000	6.656321
2037.000000	6.642503
2036.000000	6.681826
2035.000000	6.695030
2034.000000	6.668408
2033.000000	6.701575
2032.000000	6.749016
2031.000000	6.765244
2030.000000	6.781214
2029.000000	6.804713
2028.000000	6.850364
2027.000000	6.881427
2026.000000	6.892241
2025.000000	6.932398
2024.000000	6.948621
2023.000000	6.941460
2022.000000	6.915562
2021.000000	6.931161
2020.000000	6.954676
2019.000000	6.935436
2018.000000	6.933178
2017.000000	6.917261
2016.000000	6.862002
2015.000000	6.861222
2014.000000	6.932511
2013.000000	6.919436
2012.000000	6.878489
2011.000000	6.889335
2010.000000	6.870093
2009.000000	6.821554
2008.000000	6.825275
2007.000000	6.787153
2006.000000	6.758683
2005.000000	6.717857
2004.000000	6.656040
2003.000000	6.653875
2002.000000	6.601120
2001.000000	6.567914
2000.000000	6.561563
1999.000000	6.533890
1998.000000	6.497592
1997.000000	6.480135
1996.000000	6.481893
1995.000000	6.430793
1994.000000	6.371584
1993.000000	6.355926
1992.000000	6.324649
1991.000000	6.301255
1990.000000	6.267820
1989.000000	6.224210
1988.000000	6.176829
1987.000000	6.165511
1986.000000	6.144504
1985.000000	6.125293
1984.000000	6.100579
1983.000000	6.072497
1982.000000	6.058827
1981.000000	6.026049
1980.000000	5.987049
1979.000000	5.943943
1978.000000	5.913879
1977.000000	5.854038
1976.000000	5.868250
1975.000000	5.849697
1974.000000	5.784138
1973.000000	5.788085
1972.000000	5.748396
1971.000000	5.689604
1970.000000	5.685660
1969.000000	5.660213
1968.000000	5.646998
1967.000000	5.647945
1966.000000	5.656942
1965.000000	5.582905
1964.000000	5.537607
1963.000000	5.544579
1962.000000	5.514489
1961.000000	5.528814
1960.000000	5.511703
1959.000000	5.411253
1958.000000	5.412928
1957.000000	5.436608
1956.000000	5.421572
1955.000000	5.374578
1954.000000	5.329732
1953.000000	5.352424
1952.000000	5.335369
1951.000000	5.348434
1950.000000	5.349515
1949.000000	5.342628
1948.000000	5.332336
1947.000000	5.300116
1946.000000	5.342704
1945.000000	5.283596
1944.000000	5.301494
1943.000000	5.359066
1942.000000	5.318727
1941.000000	5.319753
1940.000000	5.337212
1939.000000	5.384027
1938.000000	5.394209
1937.000000	5.391046
1936.000000	5.429788
1935.000000	5.499569
1934.000000	5.439851
1933.000000	5.517497
1932.000000	5.510895
1931.000000	5.557792
1930.000000	5.575842
1929.000000	5.571158
1928.000000	5.637523
1927.000000	5.715970
1926.000000	5.764062
1925.000000	5.822304
1924.000000	5.863730
1923.000000	5.926695
1922.000000	5.989194
1921.000000	6.100308
1920.000000	6.168730
1919.000000	6.234859
1918.000000	6.307825
1917.000000	6.376298
1916.000000	6.292005
1915.000000	6.475380
1914.000000	6.637084
1913.000000	6.724690
1912.000000	6.789704
1911.000000	6.815568
1910.000000	7.029059
1909.000000	7.131585
1908.000000	7.146795
1907.000000	7.265320
1906.000000	7.375569
1905.000000	7.623179
1904.000000	7.701235
1903.000000	7.759290
1902.000000	7.928163
1901.000000	8.045735
1900.000000	8.184257
1899.000000	8.317241
1898.000000	8.424684
1897.000000	8.526947
1896.000000	8.677306
1895.000000	8.808143
1894.000000	8.892872
1893.000000	9.080096
1892.000000	9.225199
1891.000000	9.329022
1890.000000	9.498439
1889.000000	9.589469
1888.000000	9.727203
1887.000000	9.897589
1886.000000	9.980515
1885.000000	10.112616
1884.000000	10.239283
1883.000000	10.387196
1882.000000	10.421362
1881.000000	10.601360
1880.000000	10.661438
1879.000000	10.720405
1878.000000	10.813225
1877.000000	10.883750
1876.000000	11.018767
1875.000000	11.078588
1874.000000	11.124906
1873.000000	11.158920
1872.000000	11.211805
1871.000000	11.261820
1870.000000	11.330271
1869.000000	11.349317
1868.000000	11.358508
1867.000000	11.363586
1866.000000	11.358878
1865.000000	11.399517
1864.000000	11.410911
1863.000000	11.381304
1862.000000	11.419364
1861.000000	11.439096
1860.000000	11.438791
1859.000000	11.454437
1858.000000	11.462812
1857.000000	11.511547
1856.000000	11.459354
1855.000000	11.475821
1854.000000	11.522358
1853.000000	11.549567
1852.000000	11.553233
1851.000000	11.562508
1850.000000	11.564028
1849.000000	11.566827
1848.000000	11.570589
1847.000000	11.569704
1846.000000	11.551875
1845.000000	11.534592
1844.000000	11.517675
1843.000000	11.529970
1842.000000	11.523151
1841.000000	11.501929
1840.000000	11.482146
1839.000000	11.483895
1838.000000	11.457490
1837.000000	11.414299
1836.000000	11.373764
1835.000000	11.361281
1834.000000	11.369814
1833.000000	11.360568
1832.000000	11.315460
1831.000000	11.294400
1830.000000	11.267191
1829.000000	11.248004
1828.000000	11.253449
1827.000000	11.216639
1826.000000	11.195399
1825.000000	11.176644
1824.000000	11.176787
1823.000000	11.165014
1822.000000	11.136925
1821.000000	11.129128
1820.000000	11.118110
1819.000000	11.111674
1818.000000	11.103872
1817.000000	11.104029
1816.000000	11.082089
1815.000000	11.076196
1814.000000	11.060734
1813.000000	11.028902
1812.000000	11.024445
1811.000000	11.041466
1810.000000	11.039361
1809.000000	11.029147
1808.000000	11.024527
1807.000000	11.008500
1806.000000	11.001912
1805.000000	10.991137
1804.000000	10.987509
1803.000000	10.988182
1802.000000	10.968714
1801.000000	10.967456
1800.000000	10.967877
1799.000000	10.963842
1798.000000	10.974398
1797.000000	10.980447
1796.000000	10.981420
1795.000000	10.967571
1794.000000	10.982810
1793.000000	10.984982
1792.000000	10.966971
1791.000000	10.961866
1790.000000	10.972984
1789.000000	10.980077
1788.000000	10.991885
1787.000000	10.994705
1786.000000	10.985940
1785.000000	10.984671
1784.000000	11.016518
1783.000000	11.007235
1782.000000	10.977354
1781.000000	10.960434
1780.000000	10.959763
1779.000000	10.966945
1778.000000	10.963434
1777.000000	10.937448
1776.000000	10.925992
1775.000000	10.906053
1774.000000	10.889856
1773.000000	10.854942
1772.000000	10.837702
1771.000000	10.827232
1770.000000	10.797168
1769.000000	10.778661
1768.000000	10.760804
1767.000000	10.753832
1766.000000	10.726433
1765.000000	10.714217
1764.000000	10.686872
1763.000000	10.689639
1762.000000	10.686035
1761.000000	10.646850
1760.000000	10.609428
1759.000000	10.600632
1758.000000	10.585454
1757.000000	10.554799
1756.000000	10.555304
1755.000000	10.568000
1754.000000	10.526834
1753.000000	10.511411
1752.000000	10.521890
1751.000000	10.518138
1750.000000	10.504399
1749.000000	10.486578
1748.000000	10.440756
1747.000000	10.428689
1746.000000	10.425912
1745.000000	10.386572
1744.000000	10.358676
1743.000000	10.355131
1742.000000	10.328958
1741.000000	10.326273
1740.000000	10.301602
1739.000000	10.297354
1738.000000	10.270511
1737.000000	10.272683
1736.000000	10.274058
1735.000000	10.273779
1734.000000	10.242260
1733.000000	10.233252
1732.000000	10.233908
1731.000000	10.241504
1730.000000	10.241797
1729.000000	10.230950
1728.000000	10.212907
1727.000000	10.246663
1726.000000	10.243882
1725.000000	10.248252
1724.000000	10.265023
1723.000000	10.283365
1722.000000	10.324230
1721.000000	10.313408
1720.000000	10.338337
1719.000000	10.356400
1718.000000	10.382862
1717.000000	10.379326
1716.000000	10.383225
1715.000000	10.384785
1714.000000	10.439958
1713.000000	10.455744
1712.000000	10.454781
1711.000000	10.461817
1710.000000	10.467468
1709.000000	10.487994
1708.000000	10.507679
1707.000000	10.507633
1706.000000	10.531188
1705.000000	10.529721
1704.000000	10.519138
1703.000000	10.520841
1702.000000	10.516989
1701.000000	10.531690
1700.000000	10.532134
1699.000000	10.534060
1698.000000	10.552254
1697.000000	10.574240
1696.000000	10.574426
1695.000000	10.582574
1694.000000	10.546985
1693.000000	10.561988
1692.000000	10.593104
1691.000000	10.599555
1690.000000	10.632622
1689.000000	10.633316
1688.000000	10.678226
1687.000000	10.685945
1686.000000	10.701072
1685.000000	10.739455
1684.000000	10.776428
1683.000000	10.795285
1682.000000	10.826706
1681.000000	10.874675
1680.000000	10.896833
1679.000000	10.913566
1678.000000	10.987332
1677.000000	10.996347
1676.000000	11.031286
1675.000000	11.072424
1674.000000	11.116949
1673.000000	11.133259
1672.000000	11.158574
1671.000000	11.200653
1670.000000	11.233246
1669.000000	11.297886
1668.000000	11.300288
1667.000000	11.351936
1666.000000	11.342099
1665.000000	11.330553
1664.000000	11.356879
1663.000000	11.361895
1662.000000	11.369093
1661.000000	11.377797
1660.000000	11.421907
1659.000000	11.446189
1658.000000	11.442987
1657.000000	11.453237
1656.000000	11.457827
1655.000000	11.469612
1654.000000	11.477284
1653.000000	11.468333
1652.000000	11.460377
1651.000000	11.471526
1650.000000	11.479235
1649.000000	11.454001
1648.000000	11.436801
1647.000000	11.442454
1646.000000	11.440798
1645.000000	11.420747
1644.000000	11.403264
1643.000000	11.389078
1642.000000	11.384464
1641.000000	11.367086
1640.000000	11.367526
1639.000000	11.346990
1638.000000	11.335714
1637.000000	11.331297
1636.000000	11.297992
1635.000000	11.293707
1634.000000	11.281952
1633.000000	11.255810
1632.000000	11.247090
1631.000000	11.255923
1630.000000	11.246238
1629.000000	11.217759
1628.000000	11.190566
1627.000000	11.172597
1626.000000	11.163205
1625.000000	11.156905
1624.000000	11.146666
1623.000000	11.125783
1622.000000	11.113926
1621.000000	11.088009
1620.000000	11.085765
1619.000000	11.070588
1618.000000	11.042280
1617.000000	11.027557
1616.000000	11.017561
1615.000000	11.013473
1614.000000	10.989759
1613.000000	10.976792
1612.000000	10.960863
1611.000000	10.952306
1610.000000	10.947022
1609.000000	10.918733
1608.000000	10.896462
1607.000000	10.882704
1606.000000	10.870202
1605.000000	10.854030
1604.000000	10.829662
1603.000000	10.816652
1602.000000	10.814448
1601.000000	10.810241
1600.000000	10.784901
1599.000000	10.767566
1598.000000	10.754464
1597.000000	10.738956
1596.000000	10.731286
1595.000000	10.722196
1594.000000	10.714326
1593.000000	10.702290
1592.000000	10.681629
1591.000000	10.663947
1590.000000	10.646401
1589.000000	10.636075
1588.000000	10.624311
1587.000000	10.613415
1586.000000	10.622607
1585.000000	10.612744
1584.000000	10.598743
1583.000000	10.589138
1582.000000	10.562802
1581.000000	10.541053
1580.000000	10.540754
1579.000000	10.527777
1578.000000	10.511338
1577.000000	10.503206
1576.000000	10.491879
1575.000000	10.469570
1574.000000	10.446115
1573.000000	10.435773
1572.000000	10.425839
1571.000000	10.402709
1570.000000	10.392502
1569.000000	10.384486
1568.000000	10.366314
1567.000000	10.357723
1566.000000	10.331481
1565.000000	10.312956
1564.000000	10.305387
1563.000000	10.294800
1562.000000	10.281842
1561.000000	10.268638
1560.000000	10.247983
1559.000000	10.238564
1558.000000	10.220573
1557.000000	10.202550
1556.000000	10.194959
1555.000000	10.179190
1554.000000	10.172254
1553.000000	10.156933
1552.000000	10.136762
1551.000000	10.120016
1550.000000	10.116177
1549.000000	10.094873
1548.000000	10.069573
1547.000000	10.044361
1546.000000	10.013663
1545.000000	9.992465
1544.000000	9.965913
1543.000000	9.934086
1542.000000	9.911076
1541.000000	9.887132
1540.000000	9.861211
1539.000000	9.835979
1538.000000	9.811927
1537.000000	9.783157
1536.000000	9.760449
1535.000000	9.725953
1534.000000	9.709503
1533.000000	9.686364
1532.000000	9.670251
1531.000000	9.661874
1530.000000	9.678687
1529.000000	9.717090
1528.000000	9.724436
1527.000000	9.687430
1526.000000	9.640850
1525.000000	9.594456
1524.000000	9.577160
1523.000000	9.567419
1522.000000	9.543783
1521.000000	9.537315
1520.000000	9.524687
1519.000000	9.516064
1518.000000	9.488616
1517.000000	9.489322
1516.000000	9.486309
1515.000000	9.454880
1514.000000	9.436548
1513.000000	9.424908
1512.000000	9.441400
1511.000000	9.436720
1510.000000	9.406080
1509.000000	9.386595
1508.000000	9.371746
1507.000000	9.363588
1506.000000	9.360630
1505.000000	9.345469
1504.000000	9.382796
1503.000000	9.374383
1502.000000	9.365526
1501.000000	9.351222
1500.000000	9.331736
1499.000000	9.326084
1498.000000	9.342254
1497.000000	9.329769
1496.000000	9.328980
1495.000000	9.321027
1494.000000	9.317187
1493.000000	9.314754
1492.000000	9.308984
1491.000000	9.317485
1490.000000	9.332293
1489.000000	9.332226
1488.000000	9.313749
1487.000000	9.316228
1486.000000	9.320153
1485.000000	9.325720
1484.000000	9.333510
1483.000000	9.325764
1482.000000	9.337022
1481.000000	9.307618
1480.000000	9.295512
1479.000000	9.305527
1478.000000	9.325692
1477.000000	9.322262
1476.000000	9.319572
1475.000000	9.331270
1474.000000	9.342946
1473.000000	9.341077
1472.000000	9.327150
1471.000000	9.366144
1470.000000	9.392772
1469.000000	9.360745
1468.000000	9.353552
1467.000000	9.360207
1466.000000	9.346900
1465.000000	9.348151
1464.000000	9.385084
1463.000000	9.403445
1462.000000	9.394664
1461.000000	9.393344
1460.000000	9.419900
1459.000000	9.425804
1458.000000	9.408664
1457.000000	9.405225
1456.000000	9.405607
1455.000000	9.458711
1454.000000	9.468546
1453.000000	9.456959
1452.000000	9.465632
1451.000000	9.477570
1450.000000	9.486801
1449.000000	9.516445
1448.000000	9.531073
1447.000000	9.537621
1446.000000	9.542509
1445.000000	9.560480
1444.000000	9.566611
