PE UV       SUBTECH     SPECTRUM    ASCII       PEDS        4.00        
   -1
histo1_veau_slide1_1.Sample.asc
23/09/14
15:09:29.00
23/09/14
15:09:29.00
Administrator

250.000000
1
Lambda 750
750N8071901
PerkinElmer UV WinLab 6.0.4.0738 / 1.61.00 Lambda 900

0
0
3350/servo 860.8/2
0
0
UV/VIS
1
1
1
CommonBeamDepol,150mm sphere / downward view
0
0
0
0
Program
Program
3350/servo 860.8/2
3350/0.2 860.8/0.2
3350/0.2 860.8/0.2
0
1
 
 
 
0
 
860.8
319.2
860.8
Front
100
on
 
 
0
0
0
 
0
 
 
 
0
 
 
0
0
0
0
0
 
 
 
 
0
0


0
0
#HDR
-1
-1
#GR
nm
%R
1.0
0.0
2500.000000
-10.000000
226
8
37.686706
0.940981
#DATA
2500.000000	9.002168
2490.000000	10.180334
2480.000000	10.816254
2470.000000	11.430755
2460.000000	12.018857
2450.000000	13.077745
2440.000000	12.369939
2430.000000	13.145488
2420.000000	13.597533
2410.000000	14.095229
2400.000000	13.979417
2390.000000	14.367008
2380.000000	14.470290
2370.000000	14.365875
2360.000000	14.992961
2350.000000	14.476329
2340.000000	14.520211
2330.000000	14.501239
2320.000000	13.646456
2310.000000	13.449075
2300.000000	13.362203
2290.000000	13.386393
2280.000000	14.213275
2270.000000	15.032952
2260.000000	16.634306
2250.000000	17.432036
2240.000000	17.547247
2230.000000	17.171755
2220.000000	17.055583
2210.000000	16.370496
2200.000000	15.963282
2190.000000	15.936636
2180.000000	16.704111
2170.000000	17.230328
2160.000000	18.145824
2150.000000	19.133620
2140.000000	19.769064
2130.000000	19.761188
2120.000000	20.021070
2110.000000	19.857230
2100.000000	19.772884
2090.000000	18.848197
2080.000000	18.026326
2070.000000	17.091223
2060.000000	16.360134
2050.000000	16.916463
2040.000000	17.312708
2030.000000	17.120290
2020.000000	16.483830
2010.000000	15.521803
2000.000000	14.638876
1990.000000	13.885591
1980.000000	13.082367
1970.000000	12.506175
1960.000000	12.323190
1950.000000	12.746650
1940.000000	14.053629
1930.000000	16.302598
1920.000000	19.906003
1910.000000	23.951106
1900.000000	27.472671
1890.000000	30.500670
1880.000000	32.079612
1870.000000	32.588364
1860.000000	32.723063
1850.000000	32.542287
1840.000000	32.229504
1830.000000	31.977530
1820.000000	31.612990
1810.000000	31.429201
1800.000000	31.207209
1790.000000	31.033813
1780.000000	30.716096
1770.000000	30.493772
1760.000000	30.176890
1750.000000	29.877741
1740.000000	30.172764
1730.000000	30.762934
1720.000000	31.205397
1710.000000	31.337478
1700.000000	31.785327
1690.000000	32.801478
1680.000000	33.713845
1670.000000	34.061364
1660.000000	34.168798
1650.000000	33.968507
1640.000000	33.557885
1630.000000	33.093313
1620.000000	32.578458
1610.000000	32.080546
1600.000000	31.636972
1590.000000	31.221881
1580.000000	30.885672
1570.000000	30.605842
1560.000000	30.257317
1550.000000	29.623435
1540.000000	28.993576
1530.000000	28.577573
1520.000000	28.324618
1510.000000	28.157195
1500.000000	28.148068
1490.000000	28.232331
1480.000000	28.364060
1470.000000	28.582040
1460.000000	28.988566
1450.000000	29.637884
1440.000000	30.606938
1430.000000	31.886564
1420.000000	33.455450
1410.000000	34.819210
1400.000000	35.833363
1390.000000	36.371048
1380.000000	36.719035
1370.000000	36.969047
1360.000000	37.167781
1350.000000	37.373545
1340.000000	37.553991
1330.000000	37.645134
1320.000000	37.686706
1310.000000	37.630725
1300.000000	37.459057
1290.000000	37.273924
1280.000000	37.185587
1270.000000	37.096611
1260.000000	37.010863
1250.000000	36.863520
1240.000000	36.763091
1230.000000	36.598507
1220.000000	36.283337
1210.000000	36.013066
1200.000000	35.862933
1190.000000	35.915027
1180.000000	36.137200
1170.000000	36.416190
1160.000000	36.570476
1150.000000	36.713434
1140.000000	36.760865
1130.000000	36.716482
1120.000000	36.602120
1110.000000	36.560612
1100.000000	36.504030
1090.000000	36.410206
1080.000000	36.275263
1070.000000	36.158182
1060.000000	36.039379
1050.000000	35.905813
1040.000000	35.790931
1030.000000	35.645162
1020.000000	35.577511
1010.000000	35.511482
1000.000000	35.430097
990.000000	35.327631
980.000000	35.269976
970.000000	35.234540
960.000000	35.216041
950.000000	35.046476
940.000000	34.931645
930.000000	34.895890
920.000000	34.832236
910.000000	34.688551
900.000000	34.795907
890.000000	34.520899
880.000000	34.363770
870.000000	34.419218
860.000000	34.301986
850.000000	32.179722
840.000000	32.250948
830.000000	31.804719
820.000000	31.375747
810.000000	31.078437
800.000000	30.770647
790.000000	30.495042
780.000000	30.245149
770.000000	29.848496
760.000000	29.417267
750.000000	28.956101
740.000000	28.553056
730.000000	28.041453
720.000000	27.654647
710.000000	27.043944
700.000000	26.564324
690.000000	25.960957
680.000000	25.284423
670.000000	24.668428
660.000000	23.985073
650.000000	23.382528
640.000000	22.742060
630.000000	22.076785
620.000000	21.458707
610.000000	20.739676
600.000000	20.083080
590.000000	19.344737
580.000000	18.535675
570.000000	17.733851
560.000000	16.863598
550.000000	15.915211
540.000000	15.021674
530.000000	14.124420
520.000000	13.188802
510.000000	12.280355
500.000000	11.434369
490.000000	10.544620
480.000000	9.701611
470.000000	8.931526
460.000000	8.157966
450.000000	7.290185
440.000000	6.491265
430.000000	5.643494
420.000000	4.853745
410.000000	4.155150
400.000000	3.499309
390.000000	2.940238
380.000000	2.479747
370.000000	2.043676
360.000000	1.702210
350.000000	1.421317
340.000000	1.129618
330.000000	1.299972
320.000000	1.396621
310.000000	1.271369
300.000000	1.046518
290.000000	0.940981
280.000000	0.986513
270.000000	1.015900
260.000000	1.226496
250.000000	1.383868
