PE UV       SUBTECH     SPECTRUM    ASCII       PEDS        4.00        
   -1
Empty Chamber.Sample.asc
18/03/19
10:25:03.00
18/03/19
10:25:03.00
Administrator

200.000000
1
Lambda 750
750N8071901
PerkinElmer UV WinLab 6.0.4.0738 / 1.61.00 Lambda 900

0
0
3350/servo 860.8/2
0
0
UV/VIS
1
1
1
CommonBeamDepol,150mm sphere / downward view
0
0
0
0
Program
Program
3350/servo 860.8/2
3350/0.2 860.8/0.2
3350/0.2 860.8/0.2
0
1
 
 
 
0
 
860.8
319.2
860.8
Front
100
on
 
 
0
0
0
 
0
 
 
 
0
 
 
0
0
0
0
0
 
 
 
 
0
0


0
0
#HDR
-1
-1
#GR
nm
%T
1.0
0.0
2350.000000
-1.000000
2151
8
100.632374
99.311534
#DATA
2350.000000	99.988224
2349.000000	99.836115
2348.000000	99.812441
2347.000000	99.622317
2346.000000	99.676980
2345.000000	99.807719
2344.000000	99.757987
2343.000000	99.771369
2342.000000	100.170871
2341.000000	100.463825
2340.000000	100.447097
2339.000000	100.219906
2338.000000	100.162748
2337.000000	99.989887
2336.000000	100.100544
2335.000000	100.141468
2334.000000	99.592721
2333.000000	99.810249
2332.000000	100.256234
2331.000000	99.936259
2330.000000	100.079341
2329.000000	99.964707
2328.000000	100.022288
2327.000000	99.827867
2326.000000	99.781533
2325.000000	100.081217
2324.000000	100.062885
2323.000000	100.146141
2322.000000	99.981785
2321.000000	100.061202
2320.000000	100.038969
2319.000000	100.154864
2318.000000	100.277393
2317.000000	100.222058
2316.000000	99.960067
2315.000000	99.858414
2314.000000	100.044540
2313.000000	100.087858
2312.000000	99.845467
2311.000000	100.220295
2310.000000	100.177618
2309.000000	100.254524
2308.000000	99.764046
2307.000000	99.757834
2306.000000	100.061619
2305.000000	100.186043
2304.000000	100.259417
2303.000000	99.767810
2302.000000	100.056178
2301.000000	99.940019
2300.000000	99.851754
2299.000000	99.653490
2298.000000	99.761732
2297.000000	100.131121
2296.000000	100.181011
2295.000000	100.005373
2294.000000	100.267605
2293.000000	100.064029
2292.000000	100.053861
2291.000000	100.103485
2290.000000	100.027815
2289.000000	99.944845
2288.000000	100.179508
2287.000000	100.280758
2286.000000	100.013156
2285.000000	100.069501
2284.000000	100.080578
2283.000000	99.924092
2282.000000	99.949713
2281.000000	100.022789
2280.000000	99.871562
2279.000000	100.127121
2278.000000	100.128946
2277.000000	99.967712
2276.000000	100.057861
2275.000000	99.989179
2274.000000	99.945606
2273.000000	100.025507
2272.000000	100.129900
2271.000000	100.137788
2270.000000	100.170162
2269.000000	100.102249
2268.000000	99.837541
2267.000000	99.984294
2266.000000	100.284273
2265.000000	100.034583
2264.000000	99.908904
2263.000000	99.989452
2262.000000	99.942643
2261.000000	100.091836
2260.000000	100.088372
2259.000000	99.935110
2258.000000	100.154456
2257.000000	100.224248
2256.000000	100.093215
2255.000000	100.128418
2254.000000	100.041562
2253.000000	99.968311
2252.000000	100.041031
2251.000000	99.812200
2250.000000	99.767773
2249.000000	100.027789
2248.000000	99.974669
2247.000000	99.892356
2246.000000	99.910707
2245.000000	99.897758
2244.000000	100.012255
2243.000000	100.122958
2242.000000	100.124076
2241.000000	100.012966
2240.000000	99.963527
2239.000000	99.898533
2238.000000	99.902400
2237.000000	99.982163
2236.000000	100.099967
2235.000000	100.203820
2234.000000	100.065388
2233.000000	100.058779
2232.000000	100.042670
2231.000000	99.975986
2230.000000	99.979541
2229.000000	99.976707
2228.000000	100.083400
2227.000000	100.035887
2226.000000	99.999696
2225.000000	100.095341
2224.000000	100.056405
2223.000000	100.008921
2222.000000	99.977907
2221.000000	99.934920
2220.000000	99.973638
2219.000000	100.060656
2218.000000	99.941125
2217.000000	99.863546
2216.000000	99.855916
2215.000000	99.968679
2214.000000	100.086556
2213.000000	99.909800
2212.000000	99.796487
2211.000000	99.950363
2210.000000	99.965031
2209.000000	99.904585
2208.000000	99.962694
2207.000000	100.019067
2206.000000	99.890276
2205.000000	100.079808
2204.000000	100.032439
2203.000000	99.940584
2202.000000	99.929756
2201.000000	100.012053
2200.000000	100.092612
2199.000000	100.049826
2198.000000	100.101673
2197.000000	100.101845
2196.000000	100.064828
2195.000000	100.143407
2194.000000	100.141736
2193.000000	100.010328
2192.000000	100.021865
2191.000000	100.018432
2190.000000	100.053150
2189.000000	99.910841
2188.000000	100.064812
2187.000000	99.958139
2186.000000	99.937130
2185.000000	99.902048
2184.000000	99.902257
2183.000000	100.055926
2182.000000	100.043868
2181.000000	99.993726
2180.000000	99.953742
2179.000000	99.932109
2178.000000	100.013342
2177.000000	100.131030
2176.000000	100.031552
2175.000000	99.940156
2174.000000	99.908143
2173.000000	99.955474
2172.000000	100.025554
2171.000000	100.081054
2170.000000	100.065397
2169.000000	100.016340
2168.000000	100.083505
2167.000000	99.852345
2166.000000	100.018490
2165.000000	99.958087
2164.000000	99.898914
2163.000000	100.026052
2162.000000	100.281058
2161.000000	100.074092
2160.000000	100.038751
2159.000000	100.109168
2158.000000	100.053367
2157.000000	99.965244
2156.000000	99.862207
2155.000000	99.860888
2154.000000	99.860227
2153.000000	100.072635
2152.000000	99.830999
2151.000000	100.044480
2150.000000	100.031393
2149.000000	99.721322
2148.000000	100.029657
2147.000000	100.029039
2146.000000	99.979830
2145.000000	99.845925
2144.000000	100.143800
2143.000000	99.910151
2142.000000	99.992341
2141.000000	100.013722
2140.000000	100.250834
2139.000000	99.929952
2138.000000	100.254072
2137.000000	99.949391
2136.000000	100.036447
2135.000000	99.971545
2134.000000	99.835997
2133.000000	100.141326
2132.000000	100.040803
2131.000000	99.888276
2130.000000	100.174900
2129.000000	99.908617
2128.000000	99.995458
2127.000000	100.031675
2126.000000	99.882786
2125.000000	99.909353
2124.000000	99.979700
2123.000000	99.939076
2122.000000	100.144002
2121.000000	100.101426
2120.000000	100.140356
2119.000000	99.813878
2118.000000	99.852711
2117.000000	99.982637
2116.000000	100.073530
2115.000000	100.097131
2114.000000	99.823567
2113.000000	99.868246
2112.000000	99.987881
2111.000000	100.178184
2110.000000	100.020913
2109.000000	100.065640
2108.000000	100.243579
2107.000000	99.977656
2106.000000	99.936038
2105.000000	100.049741
2104.000000	100.016676
2103.000000	100.118787
2102.000000	99.952232
2101.000000	99.947168
2100.000000	99.940920
2099.000000	99.943412
2098.000000	99.897310
2097.000000	100.094298
2096.000000	100.069301
2095.000000	100.050480
2094.000000	99.905892
2093.000000	99.939735
2092.000000	99.882817
2091.000000	99.987871
2090.000000	100.008692
2089.000000	99.935722
2088.000000	99.875379
2087.000000	100.031852
2086.000000	100.116358
2085.000000	100.175321
2084.000000	99.950346
2083.000000	100.044631
2082.000000	99.939503
2081.000000	99.901448
2080.000000	100.032601
2079.000000	100.078865
2078.000000	100.097442
2077.000000	100.074546
2076.000000	100.072992
2075.000000	99.940116
2074.000000	99.978841
2073.000000	99.963764
2072.000000	99.913789
2071.000000	100.106320
2070.000000	100.093876
2069.000000	99.869270
2068.000000	99.968603
2067.000000	100.006383
2066.000000	99.939869
2065.000000	99.922590
2064.000000	100.090164
2063.000000	100.081942
2062.000000	99.991695
2061.000000	100.004152
2060.000000	99.961648
2059.000000	99.956185
2058.000000	99.929559
2057.000000	99.946262
2056.000000	100.033728
2055.000000	100.048928
2054.000000	100.013571
2053.000000	100.053980
2052.000000	100.007291
2051.000000	99.952115
2050.000000	100.001418
2049.000000	100.052987
2048.000000	100.015394
2047.000000	100.004356
2046.000000	100.004255
2045.000000	99.967282
2044.000000	99.975491
2043.000000	100.008510
2042.000000	100.012056
2041.000000	100.096193
2040.000000	100.004763
2039.000000	99.946811
2038.000000	100.049069
2037.000000	100.017237
2036.000000	99.972126
2035.000000	100.018249
2034.000000	100.043086
2033.000000	99.957136
2032.000000	99.934925
2031.000000	99.950541
2030.000000	99.936258
2029.000000	99.988240
2028.000000	100.001926
2027.000000	100.021191
2026.000000	100.064101
2025.000000	99.995741
2024.000000	99.953763
2023.000000	100.007608
2022.000000	100.015114
2021.000000	99.965019
2020.000000	99.973433
2019.000000	100.028599
2018.000000	100.023631
2017.000000	99.997465
2016.000000	100.027986
2015.000000	100.021297
2014.000000	99.992698
2013.000000	100.012984
2012.000000	100.044342
2011.000000	100.075308
2010.000000	100.038578
2009.000000	99.995129
2008.000000	100.016237
2007.000000	99.993099
2006.000000	99.975551
2005.000000	99.974531
2004.000000	99.981227
2003.000000	100.025782
2002.000000	100.002640
2001.000000	100.001726
2000.000000	99.952303
1999.000000	99.973916
1998.000000	100.005787
1997.000000	100.002945
1996.000000	100.026201
1995.000000	100.016044
1994.000000	100.020615
1993.000000	100.027324
1992.000000	99.991163
1991.000000	99.994515
1990.000000	100.045013
1989.000000	100.042162
1988.000000	100.053655
1987.000000	100.056806
1986.000000	100.001016
1985.000000	99.967500
1984.000000	99.984156
1983.000000	99.986999
1982.000000	99.996445
1981.000000	100.008433
1980.000000	99.991974
1979.000000	99.986388
1978.000000	100.038111
1977.000000	100.027848
1976.000000	100.029568
1975.000000	100.042990
1974.000000	100.069419
1973.000000	100.017783
1972.000000	100.033535
1971.000000	100.018798
1970.000000	99.989233
1969.000000	99.960390
1968.000000	99.978871
1967.000000	99.976953
1966.000000	100.008735
1965.000000	99.985881
1964.000000	99.948513
1963.000000	100.003860
1962.000000	100.005182
1961.000000	99.989133
1960.000000	100.071751
1959.000000	100.058725
1958.000000	100.033935
1957.000000	99.982531
1956.000000	100.054341
1955.000000	99.986898
1954.000000	99.991266
1953.000000	100.008223
1952.000000	99.993808
1951.000000	100.095890
1950.000000	99.954214
1949.000000	99.999391
1948.000000	100.085434
1947.000000	99.977259
1946.000000	100.002639
1945.000000	99.992183
1944.000000	99.987216
1943.000000	99.957696
1942.000000	99.961549
1941.000000	99.971389
1940.000000	100.034199
1939.000000	99.960450
1938.000000	99.970492
1937.000000	99.998581
1936.000000	100.061897
1935.000000	100.022936
1934.000000	100.006697
1933.000000	100.033375
1932.000000	100.028406
1931.000000	99.999188
1930.000000	100.128783
1929.000000	99.996551
1928.000000	100.033081
1927.000000	100.027192
1926.000000	100.048501
1925.000000	99.930963
1924.000000	100.013591
1923.000000	99.979427
1922.000000	100.023006
1921.000000	100.024038
1920.000000	99.940903
1919.000000	100.014101
1918.000000	100.104142
1917.000000	99.975454
1916.000000	99.976168
1915.000000	99.999594
1914.000000	100.007806
1913.000000	99.987929
1912.000000	99.999797
1911.000000	99.997058
1910.000000	99.901847
1909.000000	99.986101
1908.000000	99.981334
1907.000000	100.028318
1906.000000	100.058156
1905.000000	100.069001
1904.000000	99.999594
1903.000000	100.026778
1902.000000	99.934688
1901.000000	99.952749
1900.000000	100.033268
1899.000000	99.970293
1898.000000	99.955165
1897.000000	100.005074
1896.000000	99.993505
1895.000000	100.092204
1894.000000	99.948876
1893.000000	100.022332
1892.000000	100.074640
1891.000000	99.972711
1890.000000	100.009741
1889.000000	100.017254
1888.000000	99.913921
1887.000000	99.981951
1886.000000	99.964932
1885.000000	100.009634
1884.000000	100.070786
1883.000000	100.086292
1882.000000	100.058891
1881.000000	100.045607
1880.000000	100.054442
1879.000000	99.923927
1878.000000	99.952997
1877.000000	99.967379
1876.000000	99.980955
1875.000000	100.071119
1874.000000	100.010636
1873.000000	100.013474
1872.000000	100.002734
1871.000000	99.978938
1870.000000	99.942784
1869.000000	99.984504
1868.000000	100.014182
1867.000000	99.947957
1866.000000	99.950891
1865.000000	100.028874
1864.000000	100.001114
1863.000000	100.000811
1862.000000	100.018240
1861.000000	100.011243
1860.000000	99.972850
1859.000000	100.000203
1858.000000	100.017940
1857.000000	99.971232
1856.000000	99.958574
1855.000000	99.993819
1854.000000	100.026756
1853.000000	100.006687
1852.000000	99.996859
1851.000000	100.024722
1850.000000	100.001418
1849.000000	99.983185
1848.000000	100.018644
1847.000000	100.041349
1846.000000	100.038610
1845.000000	99.992402
1844.000000	99.998177
1843.000000	99.975182
1842.000000	100.008511
1841.000000	100.019354
1840.000000	100.041343
1839.000000	99.992604
1838.000000	99.972241
1837.000000	100.026657
1836.000000	100.036094
1835.000000	100.002129
1834.000000	99.983778
1833.000000	99.995843
1832.000000	100.018052
1831.000000	100.011561
1830.000000	100.005781
1829.000000	100.016739
1828.000000	100.014407
1827.000000	99.975453
1826.000000	99.973016
1825.000000	100.005277
1824.000000	99.997869
1823.000000	100.000609
1822.000000	100.011775
1821.000000	100.038688
1820.000000	100.056868
1819.000000	100.048333
1818.000000	100.019599
1817.000000	99.981926
1816.000000	99.977052
1815.000000	99.996649
1814.000000	99.992383
1813.000000	100.021331
1812.000000	100.001422
1811.000000	99.974508
1810.000000	99.981919
1809.000000	99.991467
1808.000000	99.978667
1807.000000	100.001219
1806.000000	100.028352
1805.000000	100.001016
1804.000000	99.977244
1803.000000	99.974703
1802.000000	99.983540
1801.000000	100.015854
1800.000000	100.020529
1799.000000	99.989940
1798.000000	99.996748
1797.000000	99.996748
1796.000000	99.988720
1795.000000	99.990143
1794.000000	99.988719
1793.000000	99.990955
1792.000000	99.984350
1791.000000	100.016366
1790.000000	99.998882
1789.000000	99.990445
1788.000000	100.015860
1787.000000	100.016572
1786.000000	99.995527
1785.000000	99.978759
1784.000000	99.987499
1783.000000	100.008233
1782.000000	99.998780
1781.000000	100.001728
1780.000000	100.016161
1779.000000	99.995019
1778.000000	99.990650
1777.000000	99.986483
1776.000000	99.995630
1775.000000	100.007216
1774.000000	99.999695
1773.000000	99.987092
1772.000000	99.981197
1771.000000	99.975506
1770.000000	100.008132
1769.000000	100.001829
1768.000000	99.996443
1767.000000	100.003252
1766.000000	100.010369
1765.000000	100.002541
1764.000000	100.018604
1763.000000	100.009046
1762.000000	99.988618
1761.000000	100.017688
1760.000000	100.012808
1759.000000	100.003659
1758.000000	100.016059
1757.000000	100.011790
1756.000000	100.025511
1755.000000	100.031100
1754.000000	99.998069
1753.000000	100.010060
1752.000000	100.008841
1751.000000	100.013923
1750.000000	99.993497
1749.000000	99.984250
1748.000000	99.983944
1747.000000	100.015446
1746.000000	100.038218
1745.000000	99.980593
1744.000000	99.994614
1743.000000	99.993192
1742.000000	100.015141
1741.000000	100.033033
1740.000000	100.014329
1739.000000	100.010162
1738.000000	100.031497
1737.000000	100.004979
1736.000000	100.011483
1735.000000	100.007519
1734.000000	99.990853
1733.000000	99.937728
1732.000000	99.985571
1731.000000	100.023477
1730.000000	99.983743
1729.000000	100.056710
1728.000000	100.048998
1727.000000	100.003863
1726.000000	99.978558
1725.000000	100.018498
1724.000000	99.997561
1723.000000	100.011175
1722.000000	100.016363
1721.000000	99.974091
1720.000000	100.012499
1719.000000	100.013310
1718.000000	99.979785
1717.000000	100.019509
1716.000000	100.019312
1715.000000	100.006199
1714.000000	100.018798
1713.000000	99.970229
1712.000000	99.989943
1711.000000	99.963015
1710.000000	100.052853
1709.000000	100.007317
1708.000000	100.002642
1707.000000	100.018290
1706.000000	99.999797
1705.000000	100.002133
1704.000000	100.018187
1703.000000	100.001524
1702.000000	100.008940
1701.000000	100.021242
1700.000000	99.984966
1699.000000	100.018291
1698.000000	100.012495
1697.000000	100.037394
1696.000000	100.042069
1695.000000	99.976635
1694.000000	100.004165
1693.000000	100.008028
1692.000000	100.018795
1691.000000	99.976838
1690.000000	100.037197
1689.000000	100.007010
1688.000000	99.989839
1687.000000	99.959978
1686.000000	100.021029
1685.000000	99.992890
1684.000000	99.974809
1683.000000	100.018083
1682.000000	100.000914
1681.000000	99.998781
1680.000000	99.976438
1679.000000	99.998781
1678.000000	100.022250
1677.000000	99.974813
1676.000000	99.995429
1675.000000	99.995326
1674.000000	99.990958
1673.000000	99.983544
1672.000000	99.999594
1671.000000	99.992991
1670.000000	100.015034
1669.000000	100.017670
1668.000000	100.028436
1667.000000	100.030775
1666.000000	99.999898
1665.000000	99.989542
1664.000000	99.990353
1663.000000	100.006296
1662.000000	100.007920
1661.000000	100.032603
1660.000000	100.016045
1659.000000	100.017365
1658.000000	100.023968
1657.000000	100.006295
1656.000000	99.947719
1655.000000	99.964672
1654.000000	99.991776
1653.000000	100.016044
1652.000000	100.001219
1651.000000	99.985584
1650.000000	100.024374
1649.000000	100.004772
1648.000000	99.981827
1647.000000	100.024369
1646.000000	99.986699
1645.000000	100.011069
1644.000000	99.999492
1643.000000	100.011067
1642.000000	100.000000
1641.000000	100.008529
1640.000000	99.993299
1639.000000	100.003859
1638.000000	99.973709
1637.000000	99.961123
1636.000000	99.995330
1635.000000	100.011068
1634.000000	99.995430
1633.000000	99.998782
1632.000000	100.001421
1631.000000	99.987208
1630.000000	99.998579
1629.000000	100.015027
1628.000000	100.012490
1627.000000	100.014216
1626.000000	100.016651
1625.000000	99.987716
1624.000000	100.003553
1623.000000	100.012183
1622.000000	99.998985
1621.000000	100.006092
1620.000000	100.015537
1619.000000	100.016653
1618.000000	100.011372
1617.000000	100.014926
1616.000000	99.996853
1615.000000	99.997056
1614.000000	100.024571
1613.000000	100.015128
1612.000000	99.988834
1611.000000	99.989038
1610.000000	99.997564
1609.000000	100.001624
1608.000000	100.008528
1607.000000	100.020711
1606.000000	100.008324
1605.000000	99.987615
1604.000000	99.996954
1603.000000	100.008122
1602.000000	100.007817
1601.000000	99.997157
1600.000000	99.990355
1599.000000	99.995432
1598.000000	99.992793
1597.000000	99.987414
1596.000000	99.984876
1595.000000	99.990255
1594.000000	100.001523
1593.000000	100.009239
1592.000000	100.004568
1591.000000	99.994518
1590.000000	100.000406
1589.000000	99.996751
1588.000000	99.981626
1587.000000	99.993503
1586.000000	100.003960
1585.000000	99.989949
1584.000000	99.991777
1583.000000	99.992894
1582.000000	99.989850
1581.000000	99.975439
1580.000000	99.969045
1579.000000	99.985891
1578.000000	99.996041
1577.000000	99.985383
1576.000000	99.979802
1575.000000	99.981223
1574.000000	99.989444
1573.000000	100.003045
1572.000000	100.004263
1571.000000	100.000914
1570.000000	100.019694
1569.000000	100.016242
1568.000000	99.999086
1567.000000	100.009744
1566.000000	100.003451
1565.000000	99.999696
1564.000000	100.010048
1563.000000	99.999797
1562.000000	99.998579
1561.000000	100.016137
1560.000000	99.996955
1559.000000	99.996245
1558.000000	100.011975
1557.000000	100.013498
1556.000000	100.004466
1555.000000	99.990359
1554.000000	99.985286
1553.000000	99.995738
1552.000000	100.006596
1551.000000	99.994216
1550.000000	100.005277
1549.000000	99.989143
1548.000000	99.983765
1547.000000	100.003653
1546.000000	100.017758
1545.000000	100.022734
1544.000000	100.003856
1543.000000	99.988940
1542.000000	100.004567
1541.000000	100.006494
1540.000000	100.003755
1539.000000	99.982751
1538.000000	99.985389
1537.000000	99.994623
1536.000000	99.995028
1535.000000	99.999087
1534.000000	100.000609
1533.000000	100.019078
1532.000000	100.009033
1531.000000	100.003146
1530.000000	100.007611
1529.000000	100.001116
1528.000000	100.001827
1527.000000	99.997666
1526.000000	100.019895
1525.000000	100.005378
1524.000000	99.995840
1523.000000	100.002740
1522.000000	99.994825
1521.000000	99.986199
1520.000000	99.991273
1519.000000	99.996449
1518.000000	99.993505
1517.000000	99.989854
1516.000000	100.019384
1515.000000	100.009031
1514.000000	99.994520
1513.000000	100.002943
1512.000000	100.002436
1511.000000	99.991882
1510.000000	100.011772
1509.000000	100.011265
1508.000000	100.002029
1507.000000	100.007917
1506.000000	100.019285
1505.000000	99.977067
1504.000000	99.998275
1503.000000	99.996854
1502.000000	100.020706
1501.000000	100.024564
1500.000000	100.011469
1499.000000	100.015933
1498.000000	100.020604
1497.000000	100.013194
1496.000000	100.003248
1495.000000	100.012179
1494.000000	100.005074
1493.000000	100.010859
1492.000000	99.980114
1491.000000	99.996956
