PE UV       SUBTECH     SPECTRUM    ASCII       PEDS        4.00        
   -1
Empty Chamber 2.Sample.asc
18/03/19
12:12:01.00
18/03/19
12:12:01.00
Administrator

200.000000
1
Lambda 750
750N8071901
PerkinElmer UV WinLab 6.0.4.0738 / 1.61.00 Lambda 900

0
0
3350/servo 860.8/2
0
0
UV/VIS
1
1
1
CommonBeamDepol,150mm sphere / downward view
0
0
0
0
Program
Program
3350/servo 860.8/2
3350/0.2 860.8/0.2
3350/0.2 860.8/0.2
0
1
 
 
 
0
 
860.8
319.2
860.8
Front
100
on
 
 
0
0
0
 
0
 
 
 
0
 
 
0
0
0
0
0
 
 
 
 
0
0


0
0
#HDR
-1
-1
#GR
nm
%T
1.0
0.0
2350.000000
-1.000000
2151
8
100.741049
99.309879
#DATA
2350.000000	99.430546
2349.000000	99.985681
2348.000000	100.098178
2347.000000	100.043415
2346.000000	99.768026
2345.000000	99.954609
2344.000000	100.007495
2343.000000	100.250327
2342.000000	100.154591
2341.000000	100.250443
2340.000000	100.267421
2339.000000	99.884529
2338.000000	99.943063
2337.000000	99.993635
2336.000000	100.087831
2335.000000	100.064266
2334.000000	100.049267
2333.000000	100.045857
2332.000000	100.034751
2331.000000	100.009712
2330.000000	100.393218
2329.000000	100.226729
2328.000000	100.233960
2327.000000	100.048724
2326.000000	100.555143
2325.000000	100.050578
2324.000000	99.847835
2323.000000	100.067099
2322.000000	99.791951
2321.000000	99.868873
2320.000000	100.019003
2319.000000	99.884798
2318.000000	99.776852
2317.000000	99.853152
2316.000000	100.051228
2315.000000	99.878915
2314.000000	99.888613
2313.000000	99.946020
2312.000000	100.172911
2311.000000	100.283939
2310.000000	99.968021
2309.000000	100.175779
2308.000000	99.939412
2307.000000	99.964429
2306.000000	99.975497
2305.000000	99.861812
2304.000000	100.143469
2303.000000	100.167719
2302.000000	100.315921
2301.000000	99.950312
2300.000000	99.964124
2299.000000	100.278140
2298.000000	99.903668
2297.000000	99.950982
2296.000000	100.241067
2295.000000	100.104693
2294.000000	100.087215
2293.000000	99.667916
2292.000000	99.594100
2291.000000	99.771740
2290.000000	99.941249
2289.000000	100.066074
2288.000000	100.080800
2287.000000	100.081291
2286.000000	100.023497
2285.000000	99.950364
2284.000000	99.928698
2283.000000	99.955025
2282.000000	100.067196
2281.000000	100.116618
2280.000000	100.083016
2279.000000	100.069383
2278.000000	99.979847
2277.000000	99.916164
2276.000000	99.816933
2275.000000	99.904978
2274.000000	99.906740
2273.000000	100.065038
2272.000000	100.093878
2271.000000	99.973266
2270.000000	100.185294
2269.000000	100.191970
2268.000000	99.987828
2267.000000	100.057209
2266.000000	100.052008
2265.000000	100.049266
2264.000000	99.919490
2263.000000	99.920066
2262.000000	99.844124
2261.000000	99.891814
2260.000000	100.097603
2259.000000	100.046911
2258.000000	100.208361
2257.000000	100.209677
2256.000000	100.032029
2255.000000	100.084884
2254.000000	100.164623
2253.000000	100.143116
2252.000000	100.043572
2251.000000	99.914082
2250.000000	100.088557
2249.000000	100.202016
2248.000000	99.975480
2247.000000	100.050146
2246.000000	100.090099
2245.000000	99.949376
2244.000000	99.897843
2243.000000	99.990075
2242.000000	99.913752
2241.000000	100.001012
2240.000000	100.169974
2239.000000	100.038400
2238.000000	100.065783
2237.000000	100.064798
2236.000000	99.933113
2235.000000	99.894790
2234.000000	99.967090
2233.000000	100.047328
2232.000000	100.030501
2231.000000	100.045685
2230.000000	100.220029
2229.000000	100.180021
2228.000000	100.067102
2227.000000	100.035538
2226.000000	99.963348
2225.000000	99.996048
2224.000000	99.981758
2223.000000	99.904185
2222.000000	100.047653
2221.000000	100.052546
2220.000000	99.981544
2219.000000	99.988740
2218.000000	100.008215
2217.000000	100.046939
2216.000000	100.082590
2215.000000	99.991091
2214.000000	99.977125
2213.000000	100.101348
2212.000000	100.112685
2211.000000	99.932636
2210.000000	99.870968
2209.000000	100.041424
2208.000000	100.120308
2207.000000	100.065191
2206.000000	100.054113
2205.000000	99.915936
2204.000000	99.899988
2203.000000	100.008408
2202.000000	100.057223
2201.000000	100.081114
2200.000000	100.209607
2199.000000	100.174632
2198.000000	100.262560
2197.000000	100.108893
2196.000000	100.083455
2195.000000	100.110454
2194.000000	100.085603
2193.000000	100.015287
2192.000000	99.900680
2191.000000	100.018329
2190.000000	100.019941
2189.000000	100.063031
2188.000000	99.902357
2187.000000	99.900082
2186.000000	99.965118
2185.000000	99.975429
2184.000000	100.025870
2183.000000	100.074419
2182.000000	100.082058
2181.000000	100.168499
2180.000000	100.115418
2179.000000	99.947731
2178.000000	99.984629
2177.000000	100.244912
2176.000000	100.118768
2175.000000	99.940587
2174.000000	99.993129
2173.000000	100.075693
2172.000000	99.843620
2171.000000	100.001111
2170.000000	100.059051
2169.000000	100.290163
2168.000000	100.158962
2167.000000	99.968211
2166.000000	100.090826
2165.000000	100.130900
2164.000000	99.876792
2163.000000	100.087305
2162.000000	99.952583
2161.000000	99.955616
2160.000000	100.122147
2159.000000	100.153361
2158.000000	99.898371
2157.000000	99.893432
2156.000000	100.003427
2155.000000	100.053873
2154.000000	99.916795
2153.000000	100.133318
2152.000000	99.989108
2151.000000	100.294916
2150.000000	100.118440
2149.000000	99.989006
2148.000000	99.814389
2147.000000	99.987296
2146.000000	100.162532
2145.000000	100.104697
2144.000000	99.941145
2143.000000	100.017724
2142.000000	99.835747
2141.000000	99.882940
2140.000000	99.970050
2139.000000	100.168459
2138.000000	100.108961
2137.000000	99.911949
2136.000000	100.092250
2135.000000	100.105893
2134.000000	100.102918
2133.000000	99.903751
2132.000000	100.032853
2131.000000	99.922555
2130.000000	100.114002
2129.000000	99.884924
2128.000000	100.053072
2127.000000	100.130932
2126.000000	99.982860
2125.000000	99.784099
2124.000000	100.093970
2123.000000	100.115161
2122.000000	99.973039
2121.000000	100.164740
2120.000000	100.053340
2119.000000	100.063801
2118.000000	100.023013
2117.000000	99.812217
2116.000000	100.082560
2115.000000	100.281092
2114.000000	99.948051
2113.000000	99.985266
2112.000000	100.018371
2111.000000	100.027962
2110.000000	99.965905
2109.000000	100.014738
2108.000000	100.035927
2107.000000	100.167158
2106.000000	100.009596
2105.000000	100.021112
2104.000000	100.008173
2103.000000	100.035539
2102.000000	100.097086
2101.000000	100.147190
2100.000000	100.091151
2099.000000	99.837912
2098.000000	99.875564
2097.000000	100.064720
2096.000000	99.984127
2095.000000	100.017374
2094.000000	100.048688
2093.000000	100.149080
2092.000000	100.018400
2091.000000	100.083017
2090.000000	100.073503
2089.000000	99.910770
2088.000000	99.941291
2087.000000	99.905732
2086.000000	99.956453
2085.000000	100.097831
2084.000000	99.982801
2083.000000	100.074989
2082.000000	100.139419
2081.000000	99.950879
2080.000000	99.957142
2079.000000	100.113330
2078.000000	100.104680
2077.000000	100.024681
2076.000000	100.058818
2075.000000	100.103173
2074.000000	100.038315
2073.000000	100.008897
2072.000000	100.010110
2071.000000	100.063932
2070.000000	100.086033
2069.000000	100.002327
2068.000000	99.986546
2067.000000	99.946574
2066.000000	99.998583
2065.000000	100.051118
2064.000000	100.078671
2063.000000	100.053037
2062.000000	100.051840
2061.000000	99.961747
2060.000000	99.931994
2059.000000	99.966505
2058.000000	100.000202
2057.000000	100.015479
2056.000000	100.052130
2055.000000	100.035421
2054.000000	99.987349
2053.000000	100.039793
2052.000000	100.101000
2051.000000	99.928965
2050.000000	99.918032
2049.000000	100.030595
2048.000000	100.072350
2047.000000	100.057342
2046.000000	100.043251
2045.000000	99.937443
2044.000000	99.904874
2043.000000	100.013366
2042.000000	100.090027
2041.000000	100.082843
2040.000000	100.033134
2039.000000	100.035055
2038.000000	100.026243
2037.000000	99.947418
2036.000000	99.991694
2035.000000	100.092123
2034.000000	100.085534
2033.000000	100.049144
2032.000000	100.005978
2031.000000	100.032831
2030.000000	100.020676
2029.000000	100.004054
2028.000000	99.981764
2027.000000	99.965961
2026.000000	100.037306
2025.000000	100.007401
2024.000000	99.969591
2023.000000	100.046537
2022.000000	100.016626
2021.000000	99.980742
2020.000000	100.053122
2019.000000	100.035584
2018.000000	99.965242
2017.000000	99.977394
2016.000000	100.015414
2015.000000	99.969586
2014.000000	99.926722
2013.000000	99.979015
2012.000000	100.023723
2011.000000	100.041071
2010.000000	99.991785
2009.000000	99.986715
2008.000000	100.019172
2007.000000	100.003754
2006.000000	100.027291
2005.000000	100.036122
2004.000000	100.033283
2003.000000	100.042623
2002.000000	100.024053
2001.000000	99.982244
2000.000000	99.967126
1999.000000	100.000710
1998.000000	100.056654
1997.000000	100.039186
1996.000000	100.049036
1995.000000	100.020710
1994.000000	99.999188
1993.000000	100.004569
1992.000000	99.962339
1991.000000	99.974524
1990.000000	100.032903
1989.000000	100.030061
1988.000000	99.988425
1987.000000	100.052418
1986.000000	100.026814
1985.000000	99.966795
1984.000000	99.972075
1983.000000	100.003148
1982.000000	100.039921
1981.000000	100.028028
1980.000000	100.016552
1979.000000	100.028349
1978.000000	100.047147
1977.000000	100.044807
1976.000000	100.014123
1975.000000	100.034553
1974.000000	99.999492
1973.000000	99.990453
1972.000000	100.001524
1971.000000	99.981416
1970.000000	99.953907
1969.000000	99.992994
1968.000000	100.024065
1967.000000	100.023257
1966.000000	100.036058
1965.000000	99.980400
1964.000000	99.992487
1963.000000	100.026201
1962.000000	99.989643
1961.000000	99.983146
1960.000000	100.017876
1959.000000	99.977659
1958.000000	99.960816
1957.000000	100.006803
1956.000000	100.045802
1955.000000	100.008935
1954.000000	100.017160
1953.000000	99.950474
1952.000000	99.975028
1951.000000	100.020610
1950.000000	100.009643
1949.000000	100.039282
1948.000000	99.998985
1947.000000	99.987311
1946.000000	100.001826
1945.000000	100.029830
1944.000000	100.007307
1943.000000	100.050843
1942.000000	100.042526
1941.000000	100.065939
1940.000000	99.942416
1939.000000	100.061271
1938.000000	100.135579
1937.000000	100.042083
1936.000000	100.008415
1935.000000	100.030023
1934.000000	99.957936
1933.000000	99.979821
1932.000000	99.913745
1931.000000	100.011457
1930.000000	100.086523
1929.000000	100.017946
1928.000000	100.013185
1927.000000	100.050289
1926.000000	99.987838
1925.000000	99.981045
1924.000000	100.019255
1923.000000	100.011153
1922.000000	100.067214
1921.000000	99.984491
1920.000000	99.935232
1919.000000	99.986011
1918.000000	100.058623
1917.000000	100.026365
1916.000000	100.043291
1915.000000	100.106370
1914.000000	100.062279
1913.000000	100.059630
1912.000000	100.060775
1911.000000	99.985904
1910.000000	100.030433
1909.000000	99.999696
1908.000000	100.006694
1907.000000	99.984684
1906.000000	100.012579
1905.000000	100.009335
1904.000000	100.027199
1903.000000	99.970594
1902.000000	99.939565
1901.000000	99.949724
1900.000000	99.998175
1899.000000	100.052765
1898.000000	100.002230
1897.000000	99.880472
1896.000000	99.988134
1895.000000	100.071005
1894.000000	99.999188
1893.000000	99.998479
1892.000000	100.067482
1891.000000	100.056115
1890.000000	100.047698
1889.000000	100.053767
1888.000000	100.034584
1887.000000	100.038342
1886.000000	99.998073
1885.000000	99.987937
1884.000000	100.002128
1883.000000	100.039830
1882.000000	99.980543
1881.000000	99.996453
1880.000000	99.995339
1879.000000	99.944606
1878.000000	99.999899
1877.000000	100.098589
1876.000000	100.127791
1875.000000	100.001418
1874.000000	99.980559
1873.000000	99.986232
1872.000000	99.924206
1871.000000	99.952429
1870.000000	99.962445
1869.000000	99.974800
1868.000000	99.983806
1867.000000	99.963746
1866.000000	100.041937
1865.000000	100.010635
1864.000000	100.035143
1863.000000	100.033426
1862.000000	100.074372
1861.000000	100.037797
1860.000000	100.012969
1859.000000	100.015093
1858.000000	100.014994
1857.000000	99.999595
1856.000000	100.012159
1855.000000	100.035771
1854.000000	100.052295
1853.000000	99.991996
1852.000000	99.988450
1851.000000	99.979744
1850.000000	99.997570
1849.000000	99.969722
1848.000000	99.994227
1847.000000	100.057549
1846.000000	100.048832
1845.000000	100.016714
1844.000000	99.982682
1843.000000	99.987746
1842.000000	100.019448
1841.000000	100.022890
1840.000000	100.054409
1839.000000	100.010028
1838.000000	100.012158
1837.000000	99.989463
1836.000000	99.994832
1835.000000	100.016623
1834.000000	99.992703
1833.000000	99.990876
1832.000000	100.005476
1831.000000	99.976577
1830.000000	100.011762
1829.000000	100.024743
1828.000000	100.025455
1827.000000	100.018963
1826.000000	100.000000
1825.000000	100.012072
1824.000000	100.006697
1823.000000	100.030755
1822.000000	100.031869
1821.000000	100.031975
1820.000000	99.988632
1819.000000	99.959108
1818.000000	100.002436
1817.000000	100.016550
1816.000000	100.030666
1815.000000	100.053624
1814.000000	100.027926
1813.000000	99.985381
1812.000000	99.987715
1811.000000	99.984060
1810.000000	100.002640
1809.000000	100.014827
1808.000000	99.977861
1807.000000	99.985068
1806.000000	100.029565
1805.000000	100.030683
1804.000000	100.006705
1803.000000	99.995835
1802.000000	100.011889
1801.000000	100.030183
1800.000000	100.019612
1799.000000	100.025000
1798.000000	100.024795
1797.000000	99.993700
1796.000000	99.991058
1795.000000	99.981104
1794.000000	99.989942
1793.000000	100.020632
1792.000000	100.013112
1791.000000	100.013824
1790.000000	100.025415
1789.000000	100.013011
1788.000000	99.985059
1787.000000	99.978452
1786.000000	100.007826
1785.000000	100.024395
1784.000000	99.990345
1783.000000	99.979674
1782.000000	99.981709
1781.000000	99.991972
1780.000000	99.967992
1779.000000	99.991057
1778.000000	99.998171
1777.000000	100.005793
1776.000000	100.026326
1775.000000	100.022766
1774.000000	100.003557
1773.000000	100.008334
1772.000000	99.995223
1771.000000	100.025306
1770.000000	100.004065
1769.000000	99.967692
1768.000000	99.982625
1767.000000	100.007928
1766.000000	99.996342
1765.000000	99.996545
1764.000000	100.018193
1763.000000	99.997053
1762.000000	100.009350
1761.000000	100.025921
1760.000000	100.002033
1759.000000	100.014026
1758.000000	100.016163
1757.000000	99.972965
1756.000000	100.013517
1755.000000	99.988720
1754.000000	99.990548
1753.000000	100.001728
1752.000000	100.003759
1751.000000	99.989128
1750.000000	100.007723
1749.000000	99.983134
1748.000000	99.958140
1747.000000	100.005285
1746.000000	100.000711
1745.000000	99.961397
1744.000000	99.978562
1743.000000	99.997663
1742.000000	100.003150
1741.000000	99.972973
1740.000000	100.038713
1739.000000	99.996545
1738.000000	99.990552
1737.000000	99.943625
1736.000000	99.995022
1735.000000	100.010363
1734.000000	100.020223
1733.000000	100.031200
1732.000000	99.995225
1731.000000	100.014531
1730.000000	99.980187
1729.000000	99.971148
1728.000000	99.989840
1727.000000	99.966570
1726.000000	100.022152
1725.000000	99.996851
1724.000000	99.986389
1723.000000	99.998984
1722.000000	99.987098
1721.000000	99.998679
1720.000000	100.017267
1719.000000	100.011379
1718.000000	99.978359
1717.000000	99.982528
1716.000000	100.001829
1715.000000	99.992989
1714.000000	100.027945
1713.000000	100.017781
1712.000000	99.974601
1711.000000	99.988927
1710.000000	100.019407
1709.000000	99.974298
1708.000000	99.986491
1707.000000	99.976843
1706.000000	99.996444
1705.000000	99.989841
1704.000000	100.002539
1703.000000	100.016762
1702.000000	100.036381
1701.000000	100.028960
1700.000000	100.042268
1699.000000	100.011579
1698.000000	99.960286
1697.000000	99.968205
1696.000000	100.017069
1695.000000	99.958362
1694.000000	99.981612
1693.000000	100.023164
1692.000000	99.973082
1691.000000	100.021944
1690.000000	100.021537
1689.000000	100.016253
1688.000000	100.035250
1687.000000	100.013207
1686.000000	99.982530
1685.000000	99.961211
1684.000000	99.981311
1683.000000	100.012189
1682.000000	100.014119
1681.000000	100.002743
1680.000000	100.002336
1679.000000	100.023264
1678.000000	100.014832
1677.000000	99.989030
1676.000000	99.977453
1675.000000	100.022753
1674.000000	99.998781
1673.000000	100.005689
1672.000000	99.990350
1671.000000	100.001524
1670.000000	99.994211
1669.000000	100.013607
1668.000000	100.021121
1667.000000	100.024778
1666.000000	100.031586
1665.000000	100.023763
1664.000000	100.012896
1663.000000	100.014824
1662.000000	99.990862
1661.000000	100.007108
1660.000000	100.025385
1659.000000	100.016346
1658.000000	100.017973
1657.000000	99.993604
1656.000000	100.017767
1655.000000	99.993705
1654.000000	100.011778
1653.000000	100.009950
1652.000000	100.021932
1651.000000	99.997056
1650.000000	99.977564
1649.000000	99.979898
1648.000000	99.988021
1647.000000	100.003655
1646.000000	99.988425
1645.000000	100.004569
1644.000000	99.989744
1643.000000	99.995939
1642.000000	99.956253
1641.000000	99.996041
1640.000000	99.998883
1639.000000	99.990660
1638.000000	99.983757
1637.000000	100.004569
1636.000000	99.995634
1635.000000	99.979900
1634.000000	99.998579
1633.000000	100.002030
1632.000000	99.995026
1631.000000	100.001117
1630.000000	99.998071
1629.000000	100.015129
1628.000000	99.990761
1627.000000	99.974013
1626.000000	99.998477
1625.000000	99.993707
1624.000000	99.979091
1623.000000	99.981221
1622.000000	100.004061
1621.000000	100.023858
1620.000000	100.018579
1619.000000	100.000711
1618.000000	100.010052
1617.000000	100.022134
1616.000000	100.020712
1615.000000	100.003655
1614.000000	100.006701
1613.000000	100.019087
1612.000000	100.012080
1611.000000	100.005989
1610.000000	100.012184
1609.000000	100.011676
1608.000000	99.999391
1607.000000	99.994417
1606.000000	100.011776
1605.000000	100.009542
1604.000000	100.003655
1603.000000	100.020711
1602.000000	100.019189
1601.000000	100.012488
1600.000000	100.011065
1599.000000	100.001624
1598.000000	100.010456
1597.000000	100.012486
1596.000000	99.987617
1595.000000	99.981122
1594.000000	99.988125
1593.000000	99.992286
1592.000000	100.000508
1591.000000	100.004061
1590.000000	100.008223
1589.000000	100.007918
1588.000000	100.005786
1587.000000	100.016547
1586.000000	100.011472
1585.000000	100.003756
1584.000000	99.992184
1583.000000	99.982645
1582.000000	100.003756
1581.000000	100.027916
1580.000000	100.040809
1579.000000	100.032280
1578.000000	99.998072
1577.000000	99.996245
1576.000000	100.001319
1575.000000	100.001624
1574.000000	100.003552
1573.000000	100.017864
1572.000000	100.012890
1571.000000	100.010048
1570.000000	100.003451
1569.000000	100.004973
1568.000000	100.007106
1567.000000	100.012891
1566.000000	100.005277
1565.000000	99.993404
1564.000000	100.000710
1563.000000	99.998782
1562.000000	100.000406
1561.000000	100.011063
1560.000000	100.003349
1559.000000	99.998376
1558.000000	100.011063
1557.000000	100.013296
1556.000000	100.000507
1555.000000	100.003856
1554.000000	100.007408
1553.000000	99.993506
1552.000000	99.997666
1551.000000	100.011670
1550.000000	100.006292
1549.000000	100.007914
1548.000000	99.993912
1547.000000	99.987113
1546.000000	100.016136
1545.000000	100.001421
1544.000000	100.000609
1543.000000	99.999188
1542.000000	100.006798
1541.000000	100.009944
1540.000000	100.005377
1539.000000	100.013292
1538.000000	99.976970
1537.000000	100.011362
1536.000000	99.995638
1535.000000	100.002333
1534.000000	100.007711
1533.000000	99.998072
1532.000000	99.998884
1531.000000	99.995231
1530.000000	100.014006
1529.000000	99.987012
1528.000000	99.986302
1527.000000	100.002030
1526.000000	100.004465
1525.000000	100.000812
1524.000000	100.016543
1523.000000	100.008727
1522.000000	100.001421
1521.000000	99.995129
1520.000000	99.992187
1519.000000	100.016845
1518.000000	99.976153
1517.000000	99.984373
1516.000000	100.013092
1515.000000	100.017969
1514.000000	99.997564
1513.000000	99.985388
1512.000000	99.975037
1511.000000	100.017255
1510.000000	99.995230
1509.000000	99.993301
1508.000000	99.996245
1507.000000	99.985284
1506.000000	100.010455
1505.000000	99.997462
1504.000000	99.981224
1503.000000	99.985081
1502.000000	100.018472
1501.000000	100.008931
1500.000000	100.020401
1499.000000	100.012383
1498.000000	100.006190
1497.000000	100.011570
1496.000000	100.021618
1495.000000	100.008930
1494.000000	100.007713
1493.000000	99.969154
