PE UV       SUBTECH     SPECTRUM    ASCII       PEDS        4.00        
   -1
RDmsopph201.Sample.asc
18/03/19
14:00:37.00
18/03/19
14:00:37.00
Administrator

200.000000
1
Lambda 750
750N8071901
PerkinElmer UV WinLab 6.0.4.0738 / 1.61.00 Lambda 900

0
0
3350/servo 860.8/2
0
0
UV/VIS
1
1
1
CommonBeamDepol,150mm sphere / downward view
0
0
0
0
Program
Program
3350/servo 860.8/2
3350/0.2 860.8/0.2
3350/0.2 860.8/0.2
0
1
 
 
 
0
 
860.8
319.2
860.8
Front
100
on
 
 
0
0
0
 
0
 
 
 
0
 
 
0
0
0
0
0
 
 
 
 
0
0


0
0
#HDR
-1
-1
#GR
nm
%R
1.0
0.0
2350.000000
-1.000000
2151
8
73.026454
18.344670
#DATA
2350.000000	35.401886
2349.000000	35.720502
2348.000000	35.730528
2347.000000	36.159927
2346.000000	35.894401
2345.000000	35.604627
2344.000000	35.569572
2343.000000	35.522687
2342.000000	35.673798
2341.000000	36.021385
2340.000000	35.739212
2339.000000	35.550495
2338.000000	36.109942
2337.000000	36.181958
2336.000000	36.064427
2335.000000	36.437621
2334.000000	36.419824
2333.000000	36.213284
2332.000000	36.180356
2331.000000	36.220196
2330.000000	36.763262
2329.000000	36.573261
2328.000000	36.362440
2327.000000	36.069435
2326.000000	36.004450
2325.000000	36.042979
2324.000000	36.443393
2323.000000	36.215105
2322.000000	35.979474
2321.000000	36.288464
2320.000000	36.181196
2319.000000	35.813781
2318.000000	35.927874
2317.000000	35.838641
2316.000000	35.783347
2315.000000	35.964836
2314.000000	35.751145
2313.000000	35.896518
2312.000000	35.601286
2311.000000	35.675981
2310.000000	35.259084
2309.000000	35.574854
2308.000000	35.389750
2307.000000	35.250111
2306.000000	35.277876
2305.000000	34.985286
2304.000000	34.838964
2303.000000	35.065315
2302.000000	35.258953
2301.000000	34.957411
2300.000000	34.982366
2299.000000	34.761266
2298.000000	34.671280
2297.000000	34.614271
2296.000000	34.677056
2295.000000	34.604244
2294.000000	34.585133
2293.000000	34.541602
2292.000000	34.307783
2291.000000	34.235795
2290.000000	34.168487
2289.000000	34.062172
2288.000000	34.047437
2287.000000	34.134554
2286.000000	34.144000
2285.000000	34.197064
2284.000000	34.053308
2283.000000	33.964665
2282.000000	33.960931
2281.000000	33.915376
2280.000000	33.976378
2279.000000	33.947621
2278.000000	34.061034
2277.000000	33.939118
2276.000000	33.993998
2275.000000	34.129099
2274.000000	34.212973
2273.000000	34.355464
2272.000000	34.267923
2271.000000	34.352798
2270.000000	34.500542
2269.000000	34.393698
2268.000000	34.471394
2267.000000	34.551450
2266.000000	34.620567
2265.000000	34.831275
2264.000000	34.918259
2263.000000	34.941428
2262.000000	35.040781
2261.000000	35.144118
2260.000000	35.434269
2259.000000	35.495941
2258.000000	35.671728
2257.000000	35.906299
2256.000000	36.051065
2255.000000	36.171179
2254.000000	36.236400
2253.000000	36.446685
2252.000000	36.661749
2251.000000	36.870075
2250.000000	37.043661
2249.000000	37.320763
2248.000000	37.478925
2247.000000	37.628365
2246.000000	37.909346
2245.000000	38.148066
2244.000000	38.331909
2243.000000	38.520756
2242.000000	38.611951
2241.000000	38.648370
2240.000000	38.751495
2239.000000	38.903822
2238.000000	39.085620
2237.000000	39.249433
2236.000000	39.404608
2235.000000	39.419715
2234.000000	39.513437
2233.000000	39.572166
2232.000000	39.575396
2231.000000	39.684056
2230.000000	39.823003
2229.000000	39.774918
2228.000000	39.707869
2227.000000	39.820872
2226.000000	39.843146
2225.000000	39.756117
2224.000000	39.688096
2223.000000	39.654114
2222.000000	39.838792
2221.000000	40.047413
2220.000000	40.038697
2219.000000	39.949077
2218.000000	39.848768
2217.000000	39.792982
2216.000000	39.767694
2215.000000	39.736253
2214.000000	39.637985
2213.000000	39.610621
2212.000000	39.534933
2211.000000	39.474948
2210.000000	39.328954
2209.000000	39.318243
2208.000000	39.348956
2207.000000	39.395156
2206.000000	39.298515
2205.000000	39.195436
2204.000000	39.049057
2203.000000	39.058128
2202.000000	38.974380
2201.000000	38.972389
2200.000000	39.022771
2199.000000	38.815261
2198.000000	38.816057
2197.000000	38.775922
2196.000000	38.582062
2195.000000	38.378124
2194.000000	38.429580
2193.000000	38.343955
2192.000000	38.286938
2191.000000	38.335767
2190.000000	38.292471
2189.000000	38.312844
2188.000000	38.052111
2187.000000	37.997721
2186.000000	38.025277
2185.000000	38.026711
2184.000000	37.981388
2183.000000	38.017935
2182.000000	37.979120
2181.000000	37.896403
2180.000000	37.971699
2179.000000	38.006756
2178.000000	37.837698
2177.000000	37.850403
2176.000000	37.906755
2175.000000	37.979270
2174.000000	37.964128
2173.000000	37.906082
2172.000000	37.902187
2171.000000	38.077579
2170.000000	38.190363
2169.000000	38.269574
2168.000000	38.246534
2167.000000	38.285904
2166.000000	38.382031
2165.000000	38.611023
2164.000000	38.456288
2163.000000	38.569830
2162.000000	38.915876
2161.000000	38.995892
2160.000000	39.211262
2159.000000	39.412054
2158.000000	39.185517
2157.000000	39.353399
2156.000000	39.515486
2155.000000	39.620656
2154.000000	39.752640
2153.000000	40.326720
2152.000000	40.217170
2151.000000	40.159630
2150.000000	40.397127
2149.000000	40.516265
2148.000000	40.755598
2147.000000	40.848500
2146.000000	41.018193
2145.000000	41.079748
2144.000000	41.225911
2143.000000	41.058855
2142.000000	41.260247
2141.000000	41.422171
2140.000000	41.686667
2139.000000	41.837025
2138.000000	41.954725
2137.000000	42.166495
2136.000000	42.048486
2135.000000	42.091861
2134.000000	42.475914
2133.000000	42.271924
2132.000000	42.463320
2131.000000	42.592882
2130.000000	42.784569
2129.000000	42.776586
2128.000000	42.778111
2127.000000	42.749441
2126.000000	42.913792
2125.000000	42.809914
2124.000000	42.992741
2123.000000	43.005885
2122.000000	43.263420
2121.000000	43.225562
2120.000000	43.114842
2119.000000	43.328743
2118.000000	43.313432
2117.000000	43.070011
2116.000000	43.396713
2115.000000	43.546610
2114.000000	43.380376
2113.000000	43.363871
2112.000000	43.321948
2111.000000	43.450303
2110.000000	43.384365
2109.000000	43.446831
2108.000000	43.476782
2107.000000	43.523868
2106.000000	43.532990
2105.000000	43.467057
2104.000000	43.481621
2103.000000	43.596125
2102.000000	43.716207
2101.000000	43.678544
2100.000000	43.773369
2099.000000	43.650140
2098.000000	43.540110
2097.000000	43.573903
2096.000000	43.619240
2095.000000	43.654784
2094.000000	43.692176
2093.000000	43.759716
2092.000000	43.759731
2091.000000	43.817242
2090.000000	43.732799
2089.000000	43.660916
2088.000000	43.595169
2087.000000	43.590456
2086.000000	43.531367
2085.000000	43.684954
2084.000000	43.543214
2083.000000	43.429179
2082.000000	43.416179
2081.000000	43.199687
2080.000000	43.113856
2079.000000	43.229050
2078.000000	43.049642
2077.000000	43.009288
2076.000000	43.032280
2075.000000	42.931401
2074.000000	42.833111
2073.000000	42.671756
2072.000000	42.600900
2071.000000	42.503766
2070.000000	42.377990
2069.000000	42.303922
2068.000000	42.174086
2067.000000	42.008817
2066.000000	41.926036
2065.000000	41.784754
2064.000000	41.685946
2063.000000	41.483643
2062.000000	41.345510
2061.000000	41.220064
2060.000000	41.141015
2059.000000	41.005716
2058.000000	40.834070
2057.000000	40.712012
2056.000000	40.559685
2055.000000	40.484316
2054.000000	40.375088
2053.000000	40.236203
2052.000000	40.036976
2051.000000	39.880212
2050.000000	39.799188
2049.000000	39.713199
2048.000000	39.675599
2047.000000	39.631370
2046.000000	39.560178
2045.000000	39.455999
2044.000000	39.415179
2043.000000	39.395922
2042.000000	39.381600
2041.000000	39.415907
2040.000000	39.422157
2039.000000	39.393562
2038.000000	39.446649
2037.000000	39.553306
2036.000000	39.631618
2035.000000	39.677194
2034.000000	39.713847
2033.000000	39.783542
2032.000000	39.935499
2031.000000	39.984557
2030.000000	40.069507
2029.000000	40.269446
2028.000000	40.335558
2027.000000	40.385083
2026.000000	40.523515
2025.000000	40.613927
2024.000000	40.640901
2023.000000	40.686495
2022.000000	40.765672
2021.000000	40.879748
2020.000000	40.932753
2019.000000	40.935477
2018.000000	40.913425
2017.000000	40.915030
2016.000000	40.921126
2015.000000	40.921256
2014.000000	40.895993
2013.000000	40.890723
2012.000000	40.877935
2011.000000	40.883554
2010.000000	40.821460
2009.000000	40.757748
2008.000000	40.710312
2007.000000	40.627473
2006.000000	40.546853
2005.000000	40.459154
2004.000000	40.347418
2003.000000	40.315266
2002.000000	40.228023
2001.000000	40.126360
2000.000000	40.063415
1999.000000	40.025210
1998.000000	39.909150
1997.000000	39.796863
1996.000000	39.711430
1995.000000	39.649270
1994.000000	39.494511
1993.000000	39.412155
1992.000000	39.300724
1991.000000	39.163523
1990.000000	39.147867
1989.000000	39.041920
1988.000000	38.946583
1987.000000	38.856100
1986.000000	38.782419
1985.000000	38.678585
1984.000000	38.579848
1983.000000	38.446884
1982.000000	38.417695
1981.000000	38.370635
1980.000000	38.220023
1979.000000	38.110954
1978.000000	37.980544
1977.000000	37.926469
1976.000000	37.816257
1975.000000	37.719362
1974.000000	37.586707
1973.000000	37.556151
1972.000000	37.479356
1971.000000	37.393231
1970.000000	37.280815
1969.000000	37.181867
1968.000000	37.094404
1967.000000	37.019738
1966.000000	36.951472
1965.000000	36.867649
1964.000000	36.752083
1963.000000	36.697837
1962.000000	36.605625
1961.000000	36.486971
1960.000000	36.473775
1959.000000	36.385415
1958.000000	36.308303
1957.000000	36.243589
1956.000000	36.139601
1955.000000	36.059777
1954.000000	36.034595
1953.000000	35.981635
1952.000000	35.931911
1951.000000	35.844963
1950.000000	35.816600
1949.000000	35.764516
1948.000000	35.772779
1947.000000	35.751447
1946.000000	35.668054
1945.000000	35.678013
1944.000000	35.740171
1943.000000	35.736532
1942.000000	35.797823
1941.000000	35.780304
1940.000000	35.809779
1939.000000	35.854492
1938.000000	35.952397
1937.000000	36.061074
1936.000000	36.167782
1935.000000	36.258668
1934.000000	36.312552
1933.000000	36.361028
1932.000000	36.444206
1931.000000	36.608474
1930.000000	36.819966
1929.000000	36.922547
1928.000000	37.132981
1927.000000	37.303243
1926.000000	37.477362
1925.000000	37.686463
1924.000000	37.920872
1923.000000	38.224168
1922.000000	38.419006
1921.000000	38.667284
1920.000000	38.893923
1919.000000	39.141286
1918.000000	39.403298
1917.000000	39.806035
1916.000000	40.062392
1915.000000	40.449450
1914.000000	40.820620
1913.000000	41.202766
1912.000000	41.459653
1911.000000	41.797031
1910.000000	42.242207
1909.000000	42.661699
1908.000000	43.044570
1907.000000	43.429332
1906.000000	43.831384
1905.000000	44.362028
1904.000000	44.741591
1903.000000	45.241282
1902.000000	45.686090
1901.000000	46.191397
1900.000000	46.654094
1899.000000	47.207419
1898.000000	47.671572
1897.000000	48.117715
1896.000000	48.585708
1895.000000	49.144384
1894.000000	49.597012
1893.000000	50.042891
1892.000000	50.612869
1891.000000	51.007941
1890.000000	51.467890
1889.000000	51.939907
1888.000000	52.358814
1887.000000	52.758164
1886.000000	53.206131
1885.000000	53.526298
1884.000000	53.970204
1883.000000	54.382256
1882.000000	54.695874
1881.000000	54.995505
1880.000000	55.369987
1879.000000	55.621683
1878.000000	55.875343
1877.000000	56.163665
1876.000000	56.445575
1875.000000	56.674302
1874.000000	56.853245
1873.000000	57.072901
1872.000000	57.251424
1871.000000	57.460701
1870.000000	57.632947
1869.000000	57.824725
1868.000000	57.972558
1867.000000	58.067133
1866.000000	58.223417
1865.000000	58.315676
1864.000000	58.410607
1863.000000	58.543928
1862.000000	58.577271
1861.000000	58.658159
1860.000000	58.717159
1859.000000	58.731501
1858.000000	58.801283
1857.000000	58.869725
1856.000000	58.936169
1855.000000	58.986350
1854.000000	59.046455
1853.000000	59.058646
1852.000000	59.026439
1851.000000	59.055724
1850.000000	59.033563
1849.000000	59.024360
1848.000000	59.098363
1847.000000	59.078502
1846.000000	59.066774
1845.000000	59.057522
1844.000000	59.029818
1843.000000	59.037453
1842.000000	59.027603
1841.000000	58.978460
1840.000000	59.029077
1839.000000	58.984587
1838.000000	58.956265
1837.000000	58.876803
1836.000000	58.816597
1835.000000	58.807569
1834.000000	58.781492
1833.000000	58.758909
1832.000000	58.729558
1831.000000	58.661395
1830.000000	58.605417
1829.000000	58.589219
1828.000000	58.557044
1827.000000	58.521763
1826.000000	58.500314
1825.000000	58.477662
1824.000000	58.441904
1823.000000	58.453248
1822.000000	58.421074
1821.000000	58.368794
1820.000000	58.334247
1819.000000	58.301125
1818.000000	58.279676
1817.000000	58.253696
1816.000000	58.217947
1815.000000	58.188721
1814.000000	58.152552
1813.000000	58.089049
1812.000000	58.074436
1811.000000	58.079602
1810.000000	58.040550
1809.000000	58.021483
1808.000000	57.998907
1807.000000	57.968787
1806.000000	57.969096
1805.000000	57.939291
1804.000000	57.883439
1803.000000	57.874129
1802.000000	57.845618
1801.000000	57.809189
1800.000000	57.796303
1799.000000	57.790687
1798.000000	57.752879
1797.000000	57.726448
1796.000000	57.724460
1795.000000	57.689205
1794.000000	57.679491
1793.000000	57.678657
1792.000000	57.661380
1791.000000	57.634017
1790.000000	57.622401
1789.000000	57.614221
1788.000000	57.589140
1787.000000	57.542783
1786.000000	57.526909
1785.000000	57.511028
1784.000000	57.482625
1783.000000	57.460327
1782.000000	57.447496
1781.000000	57.415031
1780.000000	57.384524
1779.000000	57.375586
1778.000000	57.344784
1777.000000	57.288405
1776.000000	57.220558
1775.000000	57.182668
1774.000000	57.145703
1773.000000	57.100067
1772.000000	57.021101
1771.000000	57.001662
1770.000000	56.944610
1769.000000	56.886509
1768.000000	56.865692
1767.000000	56.824742
1766.000000	56.767189
1765.000000	56.718235
1764.000000	56.706841
1763.000000	56.639567
1762.000000	56.591478
1761.000000	56.569931
1760.000000	56.502022
1759.000000	56.456472
1758.000000	56.430713
1757.000000	56.349500
1756.000000	56.309397
1755.000000	56.263509
1754.000000	56.266579
1753.000000	56.208367
1752.000000	56.157559
1751.000000	56.120062
1750.000000	56.100619
1749.000000	56.061905
1748.000000	56.014135
1747.000000	55.946576
1746.000000	55.895387
1745.000000	55.804229
1744.000000	55.807111
1743.000000	55.745038
1742.000000	55.711610
1741.000000	55.628270
1740.000000	55.623137
1739.000000	55.582730
1738.000000	55.528161
1737.000000	55.498594
1736.000000	55.498494
1735.000000	55.493333
1734.000000	55.506369
1733.000000	55.485342
1732.000000	55.448753
1731.000000	55.482120
1730.000000	55.509042
1729.000000	55.531580
1728.000000	55.583608
1727.000000	55.646045
1726.000000	55.712926
1725.000000	55.760107
1724.000000	55.835267
1723.000000	55.900123
1722.000000	55.973827
1721.000000	56.068948
1720.000000	56.168451
1719.000000	56.324332
1718.000000	56.409530
1717.000000	56.476425
1716.000000	56.577157
1715.000000	56.680231
1714.000000	56.729803
1713.000000	56.821602
1712.000000	56.886977
1711.000000	57.003437
1710.000000	57.053499
1709.000000	57.074966
1708.000000	57.143002
1707.000000	57.186386
1706.000000	57.260891
1705.000000	57.270830
1704.000000	57.313594
1703.000000	57.286849
1702.000000	57.337158
1701.000000	57.355942
1700.000000	57.395636
1699.000000	57.369310
1698.000000	57.438860
1697.000000	57.469878
1696.000000	57.492616
1695.000000	57.501049
1694.000000	57.558650
1693.000000	57.619843
1692.000000	57.644031
1691.000000	57.703854
1690.000000	57.802038
1689.000000	57.892101
1688.000000	57.974455
1687.000000	58.095565
1686.000000	58.162523
1685.000000	58.278196
1684.000000	58.423369
1683.000000	58.568123
1682.000000	58.745564
1681.000000	58.901279
1680.000000	59.040790
1679.000000	59.175250
1678.000000	59.369273
1677.000000	59.503192
1676.000000	59.658034
1675.000000	59.839264
1674.000000	59.984542
1673.000000	60.165971
1672.000000	60.313297
1671.000000	60.456925
1670.000000	60.583787
1669.000000	60.786641
1668.000000	60.883132
1667.000000	61.017240
1666.000000	61.122588
1665.000000	61.204058
1664.000000	61.329055
1663.000000	61.387788
1662.000000	61.431482
1661.000000	61.540899
1660.000000	61.623061
1659.000000	61.656316
1658.000000	61.725146
1657.000000	61.761308
1656.000000	61.788256
1655.000000	61.830335
1654.000000	61.869481
1653.000000	61.892984
1652.000000	61.886442
1651.000000	61.894465
1650.000000	61.905429
1649.000000	61.906937
1648.000000	61.884386
1647.000000	61.879370
1646.000000	61.874820
1645.000000	61.878588
1644.000000	61.863561
1643.000000	61.845060
1642.000000	61.799109
1641.000000	61.785262
1640.000000	61.815573
1639.000000	61.777686
1638.000000	61.735059
1637.000000	61.728065
1636.000000	61.681317
1635.000000	61.633285
1634.000000	61.626227
1633.000000	61.588526
1632.000000	61.553478
1631.000000	61.514470
1630.000000	61.478857
1629.000000	61.438986
1628.000000	61.405349
1627.000000	61.366006
1626.000000	61.320060
1625.000000	61.283237
1624.000000	61.255269
1623.000000	61.224813
1622.000000	61.176149
1621.000000	61.125042
1620.000000	61.081602
1619.000000	61.056947
1618.000000	60.990243
1617.000000	60.952866
1616.000000	60.911603
1615.000000	60.845578
1614.000000	60.809417
1613.000000	60.767142
1612.000000	60.705313
1611.000000	60.643493
1610.000000	60.607599
1609.000000	60.552459
1608.000000	60.503616
1607.000000	60.446048
1606.000000	60.373495
1605.000000	60.324247
1604.000000	60.274032
1603.000000	60.224834
1602.000000	60.170953
1601.000000	60.101344
1600.000000	60.053864
1599.000000	60.011186
1598.000000	59.956227
1597.000000	59.902911
1596.000000	59.844280
1595.000000	59.797028
1594.000000	59.746790
1593.000000	59.706913
1592.000000	59.669044
1591.000000	59.623498
1590.000000	59.577090
1589.000000	59.525248
1588.000000	59.472474
1587.000000	59.438514
1586.000000	59.400903
1585.000000	59.372973
1584.000000	59.326044
1583.000000	59.275531
1582.000000	59.258989
1581.000000	59.219534
1580.000000	59.168854
1579.000000	59.128237
1578.000000	59.093931
1577.000000	59.045472
1576.000000	59.001983
1575.000000	58.967439
1574.000000	58.937828
1573.000000	58.904301
1572.000000	58.861931
1571.000000	58.813774
1570.000000	58.780948
1569.000000	58.735324
1568.000000	58.709283
1567.000000	58.689125
1566.000000	58.654320
1565.000000	58.635888
1564.000000	58.617782
1563.000000	58.575945
1562.000000	58.557937
1561.000000	58.537771
1560.000000	58.507309
1559.000000	58.495351
1558.000000	58.472640
1557.000000	58.452908
1556.000000	58.454231
1555.000000	58.426213
1554.000000	58.397803
1553.000000	58.388051
1552.000000	58.360308
1551.000000	58.344699
1550.000000	58.313528
1549.000000	58.267236
1548.000000	58.243150
1547.000000	58.183438
1546.000000	58.135797
1545.000000	58.071452
1544.000000	58.002129
1543.000000	57.939210
1542.000000	57.884761
1541.000000	57.819556
1540.000000	57.740419
1539.000000	57.678001
1538.000000	57.598785
1537.000000	57.514350
1536.000000	57.440638
1535.000000	57.350323
1534.000000	57.286753
1533.000000	57.209100
1532.000000	57.125435
1531.000000	57.058184
1530.000000	56.991629
1529.000000	56.899442
1528.000000	56.825441
1527.000000	56.776639
1526.000000	56.729026
1525.000000	56.679215
1524.000000	56.629504
1523.000000	56.574103
1522.000000	56.539030
1521.000000	56.516215
1520.000000	56.468075
1519.000000	56.423425
1518.000000	56.395644
1517.000000	56.360004
1516.000000	56.336949
1515.000000	56.324299
1514.000000	56.288535
1513.000000	56.265253
1512.000000	56.241945
1511.000000	56.232301
1510.000000	56.223906
1509.000000	56.207679
1508.000000	56.193891
1507.000000	56.176301
1506.000000	56.175780
1505.000000	56.168317
1504.000000	56.153723
1503.000000	56.171682
1502.000000	56.169805
1501.000000	56.161249
1500.000000	56.174950
1499.000000	56.166372
1498.000000	56.145151
1497.000000	56.175332
1496.000000	56.194275
1495.000000	56.201377
1494.000000	56.218337
1493.000000	56.242466
1492.000000	56.275117
1491.000000	56.294377
1490.000000	56.344696
1489.000000	56.358287
1488.000000	56.396883
1487.000000	56.431390
1486.000000	56.474306
1485.000000	56.527307
1484.000000	56.534697
1483.000000	56.604834
1482.000000	56.643635
1481.000000	56.705784
1480.000000	56.767307
1479.000000	56.802717
1478.000000	56.862632
1477.000000	56.897129
1476.000000	56.941466
1475.000000	56.991448
1474.000000	57.047263
1473.000000	57.081161
1472.000000	57.142814
1471.000000	57.180784
1470.000000	57.225615
