PE UV       SUBTECH     SPECTRUM    ASCII       PEDS        4.00        
   -1
RDmsopph191.Sample.asc
18/03/19
11:19:27.00
18/03/19
11:19:27.00
Administrator

200.000000
1
Lambda 750
750N8071901
PerkinElmer UV WinLab 6.0.4.0738 / 1.61.00 Lambda 900

0
0
3350/servo 860.8/2
0
0
UV/VIS
1
1
1
CommonBeamDepol,150mm sphere / downward view
0
0
0
0
Program
Program
3350/servo 860.8/2
3350/0.2 860.8/0.2
3350/0.2 860.8/0.2
0
1
 
 
 
0
 
860.8
319.2
860.8
Front
100
on
 
 
0
0
0
 
0
 
 
 
0
 
 
0
0
0
0
0
 
 
 
 
0
0


0
0
#HDR
-1
-1
#GR
nm
%R
1.0
0.0
2350.000000
-1.000000
2151
8
74.088482
18.474488
#DATA
2350.000000	37.041816
2349.000000	37.376632
2348.000000	37.228327
2347.000000	37.625470
2346.000000	37.261594
2345.000000	37.094421
2344.000000	36.779582
2343.000000	37.082094
2342.000000	37.130416
2341.000000	37.094356
2340.000000	37.273237
2339.000000	37.609978
2338.000000	37.842672
2337.000000	37.436691
2336.000000	37.719163
2335.000000	37.703038
2334.000000	37.914738
2333.000000	37.957044
2332.000000	37.934531
2331.000000	37.891387
2330.000000	37.755089
2329.000000	37.734662
2328.000000	37.706953
2327.000000	37.587305
2326.000000	37.685590
2325.000000	37.831682
2324.000000	37.887260
2323.000000	38.075172
2322.000000	37.568545
2321.000000	37.598795
2320.000000	37.492940
2319.000000	37.326437
2318.000000	37.388597
2317.000000	37.627873
2316.000000	37.531001
2315.000000	37.447981
2314.000000	37.262360
2313.000000	37.128415
2312.000000	37.044174
2311.000000	37.234038
2310.000000	37.037774
2309.000000	37.194008
2308.000000	36.707679
2307.000000	36.891713
2306.000000	37.190879
2305.000000	36.898691
2304.000000	36.717479
2303.000000	36.389776
2302.000000	36.674755
2301.000000	36.320640
2300.000000	36.374444
2299.000000	36.420104
2298.000000	36.290992
2297.000000	36.206096
2296.000000	36.117735
2295.000000	35.908649
2294.000000	36.045512
2293.000000	35.919535
2292.000000	35.845995
2291.000000	35.839057
2290.000000	35.802370
2289.000000	35.593668
2288.000000	35.566514
2287.000000	35.768835
2286.000000	35.519680
2285.000000	35.387290
2284.000000	35.437996
2283.000000	35.489300
2282.000000	35.333745
2281.000000	35.397448
2280.000000	35.407493
2279.000000	35.478566
2278.000000	35.595927
2277.000000	35.696175
2276.000000	35.785831
2275.000000	35.555832
2274.000000	35.625978
2273.000000	35.817963
2272.000000	35.982169
2271.000000	35.871019
2270.000000	35.873627
2269.000000	36.018803
2268.000000	35.953058
2267.000000	36.061957
2266.000000	36.290825
2265.000000	36.219727
2264.000000	36.432725
2263.000000	36.543780
2262.000000	36.553947
2261.000000	36.674668
2260.000000	36.886019
2259.000000	37.049957
2258.000000	37.393685
2257.000000	37.687592
2256.000000	37.590945
2255.000000	37.727788
2254.000000	37.911666
2253.000000	37.974035
2252.000000	38.190118
2251.000000	38.397380
2250.000000	38.740113
2249.000000	38.982888
2248.000000	38.992527
2247.000000	39.103327
2246.000000	39.334414
2245.000000	39.552646
2244.000000	39.758686
2243.000000	40.025280
2242.000000	40.160154
2241.000000	40.217342
2240.000000	40.300012
2239.000000	40.400300
2238.000000	40.585663
2237.000000	40.692210
2236.000000	40.867287
2235.000000	41.007222
2234.000000	40.972829
2233.000000	41.024991
2232.000000	41.094385
2231.000000	41.207083
2230.000000	41.375193
2229.000000	41.416870
2228.000000	41.438389
2227.000000	41.464406
2226.000000	41.399433
2225.000000	41.427918
2224.000000	41.486782
2223.000000	41.288466
2222.000000	41.250227
2221.000000	41.242481
2220.000000	41.225860
2219.000000	41.418152
2218.000000	41.289112
2217.000000	41.180674
2216.000000	41.383511
2215.000000	41.406301
2214.000000	41.342959
2213.000000	41.226093
2212.000000	41.100589
2211.000000	40.958051
2210.000000	40.831421
2209.000000	40.733909
2208.000000	40.843119
2207.000000	40.857638
2206.000000	40.632466
2205.000000	40.751839
2204.000000	40.686397
2203.000000	40.601784
2202.000000	40.497277
2201.000000	40.426646
2200.000000	40.397115
2199.000000	40.324052
2198.000000	40.262751
2197.000000	40.174180
2196.000000	40.117095
2195.000000	40.124657
2194.000000	40.054162
2193.000000	39.879972
2192.000000	39.964104
2191.000000	39.789611
2190.000000	39.817650
2189.000000	39.814801
2188.000000	39.716834
2187.000000	39.540156
2186.000000	39.642125
2185.000000	39.575320
2184.000000	39.496246
2183.000000	39.602493
2182.000000	39.489370
2181.000000	39.547720
2180.000000	39.647954
2179.000000	39.523028
2178.000000	39.400151
2177.000000	39.545190
2176.000000	39.553802
2175.000000	39.542296
2174.000000	39.444132
2173.000000	39.412967
2172.000000	39.733712
2171.000000	39.709015
2170.000000	39.740151
2169.000000	39.670231
2168.000000	39.896098
2167.000000	39.909065
2166.000000	40.051369
2165.000000	39.996445
2164.000000	40.118479
2163.000000	40.323727
2162.000000	40.594063
2161.000000	40.537016
2160.000000	40.618242
2159.000000	40.850643
2158.000000	40.893949
2157.000000	40.820081
2156.000000	41.168377
2155.000000	41.239046
2154.000000	41.361343
2153.000000	41.735400
2152.000000	41.846100
2151.000000	41.927672
2150.000000	42.156824
2149.000000	41.970338
2148.000000	42.215677
2147.000000	42.446034
2146.000000	42.341575
2145.000000	42.553303
2144.000000	42.754082
2143.000000	42.802131
2142.000000	42.859000
2141.000000	43.112538
2140.000000	43.344529
2139.000000	43.244676
2138.000000	43.662032
2137.000000	43.620686
2136.000000	43.614189
2135.000000	43.628889
2134.000000	43.794577
2133.000000	43.991224
2132.000000	43.943775
2131.000000	44.290151
2130.000000	44.163950
2129.000000	44.283744
2128.000000	44.172161
2127.000000	44.148159
2126.000000	44.380873
2125.000000	44.447716
2124.000000	44.583751
2123.000000	44.537970
2122.000000	44.469365
2121.000000	44.575335
2120.000000	44.645666
2119.000000	44.688505
2118.000000	44.793362
2117.000000	44.747285
2116.000000	44.794531
2115.000000	44.787251
2114.000000	44.734058
2113.000000	44.895975
2112.000000	44.845866
2111.000000	44.786315
2110.000000	44.898139
2109.000000	44.933976
2108.000000	44.992613
2107.000000	44.985800
2106.000000	44.889517
2105.000000	44.818780
2104.000000	45.054793
2103.000000	44.970253
2102.000000	44.953156
2101.000000	45.079713
2100.000000	44.984775
2099.000000	45.008953
2098.000000	45.131506
2097.000000	45.074163
2096.000000	45.174491
2095.000000	45.043642
2094.000000	45.088518
2093.000000	45.034673
2092.000000	45.090440
2091.000000	45.004447
2090.000000	44.978605
2089.000000	44.966699
2088.000000	44.980988
2087.000000	45.024935
2086.000000	45.019745
2085.000000	45.041254
2084.000000	44.846724
2083.000000	44.820882
2082.000000	44.807248
2081.000000	44.664776
2080.000000	44.677312
2079.000000	44.676562
2078.000000	44.536686
2077.000000	44.484936
2076.000000	44.426795
2075.000000	44.307672
2074.000000	44.306211
2073.000000	44.157331
2072.000000	44.036168
2071.000000	43.984500
2070.000000	43.909669
2069.000000	43.720631
2068.000000	43.640465
2067.000000	43.462674
2066.000000	43.269930
2065.000000	43.208833
2064.000000	43.150199
2063.000000	42.993853
2062.000000	42.853801
2061.000000	42.687143
2060.000000	42.483290
2059.000000	42.400647
2058.000000	42.288934
2057.000000	42.144881
2056.000000	42.002117
2055.000000	41.866861
2054.000000	41.794812
2053.000000	41.623202
2052.000000	41.459806
2051.000000	41.376388
2050.000000	41.347854
2049.000000	41.266389
2048.000000	41.096234
2047.000000	41.038023
2046.000000	40.949038
2045.000000	40.944231
2044.000000	40.950899
2043.000000	40.885204
2042.000000	40.828794
2041.000000	40.892979
2040.000000	40.915701
2039.000000	40.881598
2038.000000	40.968482
2037.000000	41.044030
2036.000000	41.057562
2035.000000	41.128682
2034.000000	41.188732
2033.000000	41.267713
2032.000000	41.377437
2031.000000	41.423849
2030.000000	41.538262
2029.000000	41.671364
2028.000000	41.755698
2027.000000	41.838713
2026.000000	41.946307
2025.000000	41.991831
2024.000000	42.042295
2023.000000	42.138554
2022.000000	42.214790
2021.000000	42.217288
2020.000000	42.241860
2019.000000	42.268175
2018.000000	42.271825
2017.000000	42.248203
2016.000000	42.256022
2015.000000	42.286254
2014.000000	42.272382
2013.000000	42.277040
2012.000000	42.237542
2011.000000	42.160961
2010.000000	42.118942
2009.000000	42.033914
2008.000000	41.965535
2007.000000	41.921735
2006.000000	41.785954
2005.000000	41.688432
2004.000000	41.637407
2003.000000	41.603785
2002.000000	41.503449
2001.000000	41.358231
2000.000000	41.289308
1999.000000	41.205845
1998.000000	41.139776
1997.000000	41.064711
1996.000000	40.986418
1995.000000	40.860704
1994.000000	40.721266
1993.000000	40.642592
1992.000000	40.539522
1991.000000	40.426390
1990.000000	40.312656
1989.000000	40.231069
1988.000000	40.157470
1987.000000	40.039307
1986.000000	39.921828
1985.000000	39.842883
1984.000000	39.753002
1983.000000	39.672059
1982.000000	39.578678
1981.000000	39.508597
1980.000000	39.399903
1979.000000	39.276006
1978.000000	39.194368
1977.000000	39.100501
1976.000000	38.992666
1975.000000	38.917425
1974.000000	38.854620
1973.000000	38.762727
1972.000000	38.643928
1971.000000	38.517353
1970.000000	38.411531
1969.000000	38.298670
1968.000000	38.230493
1967.000000	38.180393
1966.000000	38.141592
1965.000000	37.987189
1964.000000	37.898412
1963.000000	37.794694
1962.000000	37.684138
1961.000000	37.648392
1960.000000	37.650273
1959.000000	37.519850
1958.000000	37.474346
1957.000000	37.416462
1956.000000	37.322250
1955.000000	37.240408
1954.000000	37.196020
1953.000000	37.124807
1952.000000	37.127339
1951.000000	37.142674
1950.000000	36.993496
1949.000000	36.963533
1948.000000	36.989122
1947.000000	36.916462
1946.000000	36.892304
1945.000000	36.951523
1944.000000	36.922382
1943.000000	37.023372
1942.000000	37.019846
1941.000000	36.960141
1940.000000	37.041795
1939.000000	37.077470
1938.000000	37.139586
1937.000000	37.220034
1936.000000	37.397909
1935.000000	37.376658
1934.000000	37.526521
1933.000000	37.656542
1932.000000	37.694355
1931.000000	37.956098
1930.000000	38.132372
1929.000000	38.224288
1928.000000	38.457839
1927.000000	38.670349
1926.000000	38.835732
1925.000000	39.052595
1924.000000	39.211313
1923.000000	39.453346
1922.000000	39.722730
1921.000000	40.058644
1920.000000	40.230548
1919.000000	40.519571
1918.000000	40.814274
1917.000000	41.097576
1916.000000	41.361161
1915.000000	41.753761
1914.000000	42.012509
1913.000000	42.464260
1912.000000	42.714973
1911.000000	43.101148
1910.000000	43.486183
1909.000000	43.891656
1908.000000	44.316614
1907.000000	44.786060
1906.000000	45.183170
1905.000000	45.581155
1904.000000	45.981660
1903.000000	46.490068
1902.000000	46.872712
1901.000000	47.380792
1900.000000	47.910095
1899.000000	48.379009
1898.000000	48.908584
1897.000000	49.347967
1896.000000	49.825861
1895.000000	50.371305
1894.000000	50.787803
1893.000000	51.267525
1892.000000	51.744588
1891.000000	52.182752
1890.000000	52.589048
1889.000000	53.094260
1888.000000	53.451302
1887.000000	53.890737
1886.000000	54.318269
1885.000000	54.772258
1884.000000	55.104110
1883.000000	55.482784
1882.000000	55.787142
1881.000000	56.132677
1880.000000	56.427613
1879.000000	56.714552
1878.000000	57.075333
1877.000000	57.340172
1876.000000	57.562146
1875.000000	57.824092
1874.000000	58.057168
1873.000000	58.267160
1872.000000	58.461403
1871.000000	58.691965
1870.000000	58.863506
1869.000000	58.970767
1868.000000	59.127130
1867.000000	59.243314
1866.000000	59.385135
1865.000000	59.508856
1864.000000	59.581439
1863.000000	59.687510
1862.000000	59.785116
1861.000000	59.816970
1860.000000	59.893914
1859.000000	59.954785
1858.000000	60.003101
1857.000000	60.012743
1856.000000	60.037840
1855.000000	60.171569
1854.000000	60.220714
1853.000000	60.237294
1852.000000	60.265734
1851.000000	60.289901
1850.000000	60.304510
1849.000000	60.302016
1848.000000	60.310001
1847.000000	60.295156
1846.000000	60.276210
1845.000000	60.270414
1844.000000	60.261766
1843.000000	60.258252
1842.000000	60.265073
1841.000000	60.281149
1840.000000	60.224875
1839.000000	60.185726
1838.000000	60.193323
1837.000000	60.158970
1836.000000	60.145512
1835.000000	60.120246
1834.000000	60.075452
1833.000000	60.017986
1832.000000	59.968278
1831.000000	59.906274
1830.000000	59.873869
1829.000000	59.869617
1828.000000	59.864111
1827.000000	59.820704
1826.000000	59.791230
1825.000000	59.755981
1824.000000	59.722752
1823.000000	59.704299
1822.000000	59.668215
1821.000000	59.659746
1820.000000	59.624917
1819.000000	59.561369
1818.000000	59.554980
1817.000000	59.558537
1816.000000	59.502989
1815.000000	59.451272
1814.000000	59.450028
1813.000000	59.426939
1812.000000	59.373578
1811.000000	59.339758
1810.000000	59.333245
1809.000000	59.315396
1808.000000	59.253909
1807.000000	59.213386
1806.000000	59.208821
1805.000000	59.185036
1804.000000	59.136102
1803.000000	59.112054
1802.000000	59.098474
1801.000000	59.078571
1800.000000	59.046725
1799.000000	59.025211
1798.000000	58.986442
1797.000000	58.969218
1796.000000	58.970547
1795.000000	58.944772
1794.000000	58.929668
1793.000000	58.902549
1792.000000	58.873892
1791.000000	58.882590
1790.000000	58.862924
1789.000000	58.852148
1788.000000	58.837984
1787.000000	58.820234
1786.000000	58.787094
1785.000000	58.759531
1784.000000	58.759583
1783.000000	58.738442
1782.000000	58.715241
1781.000000	58.691041
1780.000000	58.647109
1779.000000	58.622702
1778.000000	58.581313
1777.000000	58.551153
1776.000000	58.519411
1775.000000	58.447862
1774.000000	58.424085
1773.000000	58.384161
1772.000000	58.344107
1771.000000	58.297279
1770.000000	58.218117
1769.000000	58.190819
1768.000000	58.174944
1767.000000	58.121943
1766.000000	58.086533
1765.000000	58.028668
1764.000000	58.020068
1763.000000	57.961775
1762.000000	57.888880
1761.000000	57.862464
1760.000000	57.827486
1759.000000	57.767963
1758.000000	57.754769
1757.000000	57.696983
1756.000000	57.642498
1755.000000	57.640917
1754.000000	57.601855
1753.000000	57.556241
1752.000000	57.502307
1751.000000	57.467487
1750.000000	57.421548
1749.000000	57.389781
1748.000000	57.343159
1747.000000	57.289868
1746.000000	57.274080
1745.000000	57.193414
1744.000000	57.165141
1743.000000	57.116291
1742.000000	57.074176
1741.000000	57.044890
1740.000000	57.023406
1739.000000	56.985382
1738.000000	56.930769
1737.000000	56.928867
1736.000000	56.936216
1735.000000	56.908792
1734.000000	56.906630
1733.000000	56.852887
1732.000000	56.868858
1731.000000	56.887126
1730.000000	56.889065
1729.000000	56.955524
1728.000000	57.013494
1727.000000	57.061826
1726.000000	57.099088
1725.000000	57.183890
1724.000000	57.247104
1723.000000	57.337481
1722.000000	57.433640
1721.000000	57.489190
1720.000000	57.578649
1719.000000	57.683128
1718.000000	57.752477
1717.000000	57.867148
1716.000000	57.999758
1715.000000	58.076700
1714.000000	58.137831
1713.000000	58.167059
1712.000000	58.293392
1711.000000	58.387152
1710.000000	58.452474
1709.000000	58.507886
1708.000000	58.542624
1707.000000	58.584687
1706.000000	58.630106
1705.000000	58.631304
1704.000000	58.683285
1703.000000	58.682286
1702.000000	58.693826
1701.000000	58.733490
1700.000000	58.773110
1699.000000	58.783953
1698.000000	58.787681
1697.000000	58.840965
1696.000000	58.877696
1695.000000	58.873354
1694.000000	58.943528
1693.000000	58.971503
1692.000000	58.990424
1691.000000	59.057631
1690.000000	59.153052
1689.000000	59.224648
1688.000000	59.302454
1687.000000	59.389526
1686.000000	59.492125
1685.000000	59.593434
1684.000000	59.747338
1683.000000	59.894225
1682.000000	60.017940
1681.000000	60.168198
1680.000000	60.309979
1679.000000	60.473619
1678.000000	60.657758
1677.000000	60.758740
1676.000000	60.925323
1675.000000	61.125386
1674.000000	61.276472
1673.000000	61.411493
1672.000000	61.562042
1671.000000	61.678918
1670.000000	61.837729
1669.000000	61.988200
1668.000000	62.105673
1667.000000	62.225479
1666.000000	62.315240
1665.000000	62.402929
1664.000000	62.512883
1663.000000	62.594732
1662.000000	62.642819
1661.000000	62.727485
1660.000000	62.804762
1659.000000	62.847841
1658.000000	62.883556
1657.000000	62.927086
1656.000000	62.946179
1655.000000	62.977382
1654.000000	63.013365
1653.000000	63.041147
1652.000000	63.046094
1651.000000	63.031013
1650.000000	63.043432
1649.000000	63.032543
1648.000000	63.007058
1647.000000	63.015796
1646.000000	63.012503
1645.000000	63.042200
1644.000000	63.007015
1643.000000	63.003314
1642.000000	62.979546
1641.000000	62.960489
1640.000000	62.926684
1639.000000	62.924829
1638.000000	62.891537
1637.000000	62.853486
1636.000000	62.809546
1635.000000	62.806810
1634.000000	62.775376
1633.000000	62.734019
1632.000000	62.690721
1631.000000	62.659523
1630.000000	62.628633
1629.000000	62.608363
1628.000000	62.582415
1627.000000	62.547204
1626.000000	62.489263
1625.000000	62.434737
1624.000000	62.394360
1623.000000	62.366901
1622.000000	62.343536
1621.000000	62.306665
1620.000000	62.266291
1619.000000	62.210305
1618.000000	62.154613
1617.000000	62.106183
1616.000000	62.062723
1615.000000	62.019865
1614.000000	61.964991
1613.000000	61.905710
1612.000000	61.861020
1611.000000	61.810523
1610.000000	61.759645
1609.000000	61.716893
1608.000000	61.674298
1607.000000	61.622682
1606.000000	61.544193
1605.000000	61.498536
1604.000000	61.451356
1603.000000	61.383016
1602.000000	61.333359
1601.000000	61.282915
1600.000000	61.239596
1599.000000	61.177167
1598.000000	61.112177
1597.000000	61.071847
1596.000000	61.019043
1595.000000	60.984716
1594.000000	60.936288
1593.000000	60.898985
1592.000000	60.851827
1591.000000	60.797672
1590.000000	60.762546
1589.000000	60.708089
1588.000000	60.660858
1587.000000	60.645348
1586.000000	60.620967
1585.000000	60.573183
1584.000000	60.518392
1583.000000	60.468242
1582.000000	60.434444
1581.000000	60.406498
1580.000000	60.349496
1579.000000	60.308146
1578.000000	60.306475
1577.000000	60.256029
1576.000000	60.202727
1575.000000	60.166580
1574.000000	60.127441
1573.000000	60.088290
1572.000000	60.061737
1571.000000	60.029640
1570.000000	59.988224
1569.000000	59.945692
1568.000000	59.912745
1567.000000	59.873880
1566.000000	59.843768
1565.000000	59.826292
1564.000000	59.809399
1563.000000	59.794168
1562.000000	59.764474
1561.000000	59.750397
1560.000000	59.737259
1559.000000	59.701706
1558.000000	59.684320
1557.000000	59.671139
1556.000000	59.653466
1555.000000	59.623187
1554.000000	59.596814
1553.000000	59.581884
1552.000000	59.574572
1551.000000	59.561946
1550.000000	59.545150
1549.000000	59.488989
1548.000000	59.447977
1547.000000	59.405454
1546.000000	59.366073
1545.000000	59.329028
1544.000000	59.230223
1543.000000	59.173759
1542.000000	59.128525
1541.000000	59.056786
1540.000000	58.988472
1539.000000	58.898947
1538.000000	58.851289
1537.000000	58.768306
1536.000000	58.694785
1535.000000	58.614923
1534.000000	58.523385
1533.000000	58.469872
1532.000000	58.412688
1531.000000	58.319141
1530.000000	58.252119
1529.000000	58.189638
1528.000000	58.111621
1527.000000	58.066274
1526.000000	58.033302
1525.000000	57.961997
1524.000000	57.894037
1523.000000	57.849323
1522.000000	57.810114
1521.000000	57.770897
1520.000000	57.746575
1519.000000	57.715033
1518.000000	57.681417
1517.000000	57.637841
1516.000000	57.632411
1515.000000	57.596270
1514.000000	57.573196
1513.000000	57.567459
1512.000000	57.539524
1511.000000	57.521527
1510.000000	57.526845
1509.000000	57.488197
1508.000000	57.467468
1507.000000	57.463449
1506.000000	57.483902
1505.000000	57.463997
1504.000000	57.468656
1503.000000	57.455237
1502.000000	57.453914
1501.000000	57.443688
1500.000000	57.451207
1499.000000	57.423673
1498.000000	57.455839
1497.000000	57.448128
1496.000000	57.479208
1495.000000	57.486961
1494.000000	57.488512
1493.000000	57.503232
1492.000000	57.509519
1491.000000	57.542157
1490.000000	57.562264
1489.000000	57.594987
1488.000000	57.636460
1487.000000	57.656382
1486.000000	57.687827
1485.000000	57.724160
1484.000000	57.748433
1483.000000	57.810921
1482.000000	57.849626
1481.000000	57.887625
1480.000000	57.926681
1479.000000	57.967951
1478.000000	57.998570
1477.000000	58.056332
1476.000000	58.089350
1475.000000	58.126200
1474.000000	58.161417
1473.000000	58.194743
1472.000000	58.240684
1471.000000	58.303533
1470.000000	58.336757
