PE UV       SUBTECH     SPECTRUM    ASCII       PEDS        4.00        
   -1
RTmsopph191.Sample.asc
18/03/19
11:09:46.00
18/03/19
11:09:46.00
Administrator

200.000000
1
Lambda 750
750N8071901
PerkinElmer UV WinLab 6.0.4.0738 / 1.61.00 Lambda 900

0
0
3350/servo 860.8/2
0
0
UV/VIS
1
1
1
CommonBeamDepol,150mm sphere / downward view
0
0
0
0
Program
Program
3350/servo 860.8/2
3350/0.2 860.8/0.2
3350/0.2 860.8/0.2
0
1
 
 
 
0
 
860.8
319.2
860.8
Front
100
on
 
 
0
0
0
 
0
 
 
 
0
 
 
0
0
0
0
0
 
 
 
 
0
0


0
0
#HDR
-1
-1
#GR
nm
%R
1.0
0.0
2350.000000
-1.000000
2151
8
73.504697
18.421751
#DATA
2350.000000	36.719425
2349.000000	36.715027
2348.000000	36.666660
2347.000000	37.103471
2346.000000	37.002532
2345.000000	37.059580
2344.000000	37.066966
2343.000000	36.698515
2342.000000	36.881453
2341.000000	37.128353
2340.000000	36.874637
2339.000000	37.339707
2338.000000	37.112638
2337.000000	37.514866
2336.000000	37.467045
2335.000000	37.309273
2334.000000	37.645978
2333.000000	37.406865
2332.000000	37.770874
2331.000000	37.607184
2330.000000	37.530929
2329.000000	37.349070
2328.000000	37.269391
2327.000000	37.377268
2326.000000	37.505087
2325.000000	37.265996
2324.000000	37.408584
2323.000000	37.277428
2322.000000	37.308280
2321.000000	37.467676
2320.000000	37.186954
2319.000000	37.097129
2318.000000	37.215822
2317.000000	37.277549
2316.000000	37.109677
2315.000000	37.016538
2314.000000	36.978278
2313.000000	36.811843
2312.000000	36.749287
2311.000000	36.780466
2310.000000	36.733082
2309.000000	36.771625
2308.000000	36.707072
2307.000000	36.641549
2306.000000	36.676307
2305.000000	36.644350
2304.000000	36.434442
2303.000000	36.474254
2302.000000	36.438888
2301.000000	36.255694
2300.000000	36.131721
2299.000000	35.962747
2298.000000	35.870407
2297.000000	35.803514
2296.000000	35.951242
2295.000000	35.714525
2294.000000	35.564899
2293.000000	35.435065
2292.000000	35.620832
2291.000000	35.564716
2290.000000	35.496097
2289.000000	35.488014
2288.000000	35.427730
2287.000000	35.270588
2286.000000	35.363221
2285.000000	35.252949
2284.000000	35.216431
2283.000000	35.108544
2282.000000	35.234588
2281.000000	35.191026
2280.000000	35.160653
2279.000000	35.324560
2278.000000	35.303642
2277.000000	35.176021
2276.000000	35.211272
2275.000000	35.332035
2274.000000	35.504956
2273.000000	35.477765
2272.000000	35.581416
2271.000000	35.692442
2270.000000	35.736949
2269.000000	35.667827
2268.000000	35.672980
2267.000000	35.821500
2266.000000	36.018436
2265.000000	36.098840
2264.000000	36.111609
2263.000000	36.112635
2262.000000	36.380762
2261.000000	36.694231
2260.000000	36.715862
2259.000000	36.782804
2258.000000	37.007038
2257.000000	37.288817
2256.000000	37.332297
2255.000000	37.428348
2254.000000	37.590423
2253.000000	37.754337
2252.000000	37.976859
2251.000000	38.085900
2250.000000	38.241802
2249.000000	38.630963
2248.000000	38.752489
2247.000000	38.833357
2246.000000	39.117155
2245.000000	39.340874
2244.000000	39.499708
2243.000000	39.707251
2242.000000	39.768378
2241.000000	39.842545
2240.000000	40.133755
2239.000000	40.301263
2238.000000	40.242138
2237.000000	40.310633
2236.000000	40.504158
2235.000000	40.622421
2234.000000	40.662009
2233.000000	40.755417
2232.000000	40.846472
2231.000000	40.929144
2230.000000	41.007639
2229.000000	40.997891
2228.000000	41.086651
2227.000000	41.069854
2226.000000	40.989595
2225.000000	41.117047
2224.000000	41.145105
2223.000000	41.002573
2222.000000	40.916798
2221.000000	41.003550
2220.000000	41.029871
2219.000000	40.994777
2218.000000	40.890160
2217.000000	40.870818
2216.000000	40.942956
2215.000000	40.917734
2214.000000	40.889097
2213.000000	40.729740
2212.000000	40.719470
2211.000000	40.698015
2210.000000	40.683739
2209.000000	40.571237
2208.000000	40.589883
2207.000000	40.569196
2206.000000	40.423049
2205.000000	40.405227
2204.000000	40.383596
2203.000000	40.346174
2202.000000	40.208203
2201.000000	40.172020
2200.000000	40.056155
2199.000000	40.142673
2198.000000	40.092620
2197.000000	39.997041
2196.000000	39.878853
2195.000000	39.728389
2194.000000	39.654889
2193.000000	39.694878
2192.000000	39.578624
2191.000000	39.531462
2190.000000	39.510191
2189.000000	39.371841
2188.000000	39.358548
2187.000000	39.286057
2186.000000	39.297956
2185.000000	39.233955
2184.000000	39.160161
2183.000000	39.202924
2182.000000	39.234045
2181.000000	39.227221
2180.000000	39.160374
2179.000000	39.153166
2178.000000	39.240051
2177.000000	39.221106
2176.000000	39.125422
2175.000000	39.208909
2174.000000	39.321050
2173.000000	39.444367
2172.000000	39.387772
2171.000000	39.468886
2170.000000	39.494027
2169.000000	39.591556
2168.000000	39.734541
2167.000000	39.555923
2166.000000	39.804122
2165.000000	39.837276
2164.000000	39.958980
2163.000000	40.189127
2162.000000	40.285102
2161.000000	40.108715
2160.000000	40.390983
2159.000000	40.636147
2158.000000	40.605927
2157.000000	40.728808
2156.000000	40.942651
2155.000000	41.110603
2154.000000	41.211105
2153.000000	41.339139
2152.000000	41.439108
2151.000000	41.598358
2150.000000	41.771118
2149.000000	41.574068
2148.000000	41.868068
2147.000000	42.122070
2146.000000	42.196046
2145.000000	42.388432
2144.000000	42.564738
2143.000000	42.457138
2142.000000	42.695440
2141.000000	42.858282
2140.000000	43.021293
2139.000000	42.994417
2138.000000	43.407354
2137.000000	43.270354
2136.000000	43.303836
2135.000000	43.368959
2134.000000	43.366436
2133.000000	43.528510
2132.000000	43.700168
2131.000000	43.786639
2130.000000	43.996010
2129.000000	43.841137
2128.000000	44.007344
2127.000000	43.956393
2126.000000	44.019841
2125.000000	44.002142
2124.000000	44.217844
2123.000000	44.285179
2122.000000	44.192873
2121.000000	44.172157
2120.000000	44.165527
2119.000000	44.266830
2118.000000	44.509066
2117.000000	44.486842
2116.000000	44.499906
2115.000000	44.615001
2114.000000	44.466684
2113.000000	44.388647
2112.000000	44.532479
2111.000000	44.493216
2110.000000	44.537974
2109.000000	44.635207
2108.000000	44.614342
2107.000000	44.684302
2106.000000	44.627809
2105.000000	44.625883
2104.000000	44.787575
2103.000000	44.796773
2102.000000	44.727745
2101.000000	44.733929
2100.000000	44.719368
2099.000000	44.719142
2098.000000	44.669096
2097.000000	44.772047
2096.000000	44.715487
2095.000000	44.742481
2094.000000	44.717445
2093.000000	44.704325
2092.000000	44.720894
2091.000000	44.700520
2090.000000	44.719778
2089.000000	44.746779
2088.000000	44.750646
2087.000000	44.671329
2086.000000	44.722477
2085.000000	44.686259
2084.000000	44.512392
2083.000000	44.468284
2082.000000	44.437385
2081.000000	44.487503
2080.000000	44.364358
2079.000000	44.306332
2078.000000	44.247400
2077.000000	44.089618
2076.000000	44.006864
2075.000000	43.933906
2074.000000	43.819563
2073.000000	43.734640
2072.000000	43.753352
2071.000000	43.720825
2070.000000	43.511785
2069.000000	43.321866
2068.000000	43.312213
2067.000000	43.214834
2066.000000	43.002480
2065.000000	42.848701
2064.000000	42.730985
2063.000000	42.570874
2062.000000	42.493546
2061.000000	42.345538
2060.000000	42.193573
2059.000000	42.131887
2058.000000	42.005249
2057.000000	41.829737
2056.000000	41.656834
2055.000000	41.543106
2054.000000	41.419593
2053.000000	41.324031
2052.000000	41.175339
2051.000000	41.005155
2050.000000	40.968054
2049.000000	40.908046
2048.000000	40.775993
2047.000000	40.768970
2046.000000	40.692024
2045.000000	40.662935
2044.000000	40.651528
2043.000000	40.583497
2042.000000	40.571658
2041.000000	40.609875
2040.000000	40.590105
2039.000000	40.582424
2038.000000	40.642539
2037.000000	40.705267
2036.000000	40.757330
2035.000000	40.883533
2034.000000	40.889562
2033.000000	40.894296
2032.000000	41.051252
2031.000000	41.144933
2030.000000	41.256641
2029.000000	41.407476
2028.000000	41.502897
2027.000000	41.578235
2026.000000	41.681382
2025.000000	41.756691
2024.000000	41.805227
2023.000000	41.859576
2022.000000	41.877405
2021.000000	41.894550
2020.000000	41.908557
2019.000000	41.931169
2018.000000	41.989678
2017.000000	41.991057
2016.000000	41.948074
2015.000000	41.955738
2014.000000	41.952798
2013.000000	41.921309
2012.000000	41.909390
2011.000000	41.852627
2010.000000	41.802400
2009.000000	41.732809
2008.000000	41.674286
2007.000000	41.589289
2006.000000	41.504737
2005.000000	41.429383
2004.000000	41.307401
2003.000000	41.231569
2002.000000	41.175186
2001.000000	41.054110
2000.000000	40.956341
1999.000000	40.914147
1998.000000	40.838638
1997.000000	40.739477
1996.000000	40.647944
1995.000000	40.538803
1994.000000	40.439872
1993.000000	40.365085
1992.000000	40.239483
1991.000000	40.132216
1990.000000	40.027232
1989.000000	39.937864
1988.000000	39.856371
1987.000000	39.754160
1986.000000	39.633152
1985.000000	39.540531
1984.000000	39.462435
1983.000000	39.346535
1982.000000	39.261975
1981.000000	39.177887
1980.000000	39.065037
1979.000000	38.966994
1978.000000	38.866107
1977.000000	38.761147
1976.000000	38.681640
1975.000000	38.623812
1974.000000	38.518503
1973.000000	38.394167
1972.000000	38.292821
1971.000000	38.221161
1970.000000	38.160025
1969.000000	38.102043
1968.000000	37.971051
1967.000000	37.887376
1966.000000	37.796464
1965.000000	37.713134
1964.000000	37.588172
1963.000000	37.536581
1962.000000	37.483971
1961.000000	37.378140
1960.000000	37.325870
1959.000000	37.236285
1958.000000	37.182447
1957.000000	37.084341
1956.000000	37.056843
1955.000000	37.022242
1954.000000	36.927609
1953.000000	36.878417
1952.000000	36.808930
1951.000000	36.786136
1950.000000	36.720402
1949.000000	36.711078
1948.000000	36.709150
1947.000000	36.676667
1946.000000	36.666447
1945.000000	36.698940
1944.000000	36.713271
1943.000000	36.692549
1942.000000	36.706660
1941.000000	36.740286
1940.000000	36.783016
1939.000000	36.817249
1938.000000	36.882731
1937.000000	36.916422
1936.000000	37.072191
1935.000000	37.199161
1934.000000	37.276407
1933.000000	37.371482
1932.000000	37.502105
1931.000000	37.683718
1930.000000	37.879981
1929.000000	38.028706
1928.000000	38.159201
1927.000000	38.342725
1926.000000	38.527375
1925.000000	38.762050
1924.000000	38.987168
1923.000000	39.191065
1922.000000	39.411488
1921.000000	39.702137
1920.000000	39.939322
1919.000000	40.249418
1918.000000	40.550469
1917.000000	40.895425
1916.000000	41.056112
1915.000000	41.456904
1914.000000	41.782775
1913.000000	42.172332
1912.000000	42.479540
1911.000000	42.819384
1910.000000	43.244249
1909.000000	43.525016
1908.000000	44.052860
1907.000000	44.437013
1906.000000	44.838194
1905.000000	45.328896
1904.000000	45.738672
1903.000000	46.209813
1902.000000	46.660852
1901.000000	47.155181
1900.000000	47.624375
1899.000000	48.089951
1898.000000	48.585404
1897.000000	49.106861
1896.000000	49.526599
1895.000000	50.022391
1894.000000	50.430647
1893.000000	50.968687
1892.000000	51.441053
1891.000000	51.812468
1890.000000	52.286573
1889.000000	52.720354
1888.000000	53.121588
1887.000000	53.560996
1886.000000	53.900393
1885.000000	54.353950
1884.000000	54.716003
1883.000000	55.142483
1882.000000	55.417074
1881.000000	55.738129
1880.000000	56.081194
1879.000000	56.326085
1878.000000	56.651998
1877.000000	56.918030
1876.000000	57.221366
1875.000000	57.465659
1874.000000	57.661012
1873.000000	57.903551
1872.000000	58.078891
1871.000000	58.256959
1870.000000	58.431908
1869.000000	58.573748
1868.000000	58.744811
1867.000000	58.823732
1866.000000	58.935864
1865.000000	59.074630
1864.000000	59.147945
1863.000000	59.255079
1862.000000	59.330237
1861.000000	59.373019
1860.000000	59.454961
1859.000000	59.518142
1858.000000	59.608027
1857.000000	59.615659
1856.000000	59.641916
1855.000000	59.704345
1854.000000	59.769212
1853.000000	59.785402
1852.000000	59.788025
1851.000000	59.803051
1850.000000	59.839174
1849.000000	59.832522
1848.000000	59.857980
1847.000000	59.859273
1846.000000	59.879163
1845.000000	59.834380
1844.000000	59.807626
1843.000000	59.799266
1842.000000	59.802446
1841.000000	59.797098
1840.000000	59.766349
1839.000000	59.714116
1838.000000	59.675620
1837.000000	59.663734
1836.000000	59.653780
1835.000000	59.598201
1834.000000	59.559497
1833.000000	59.540871
1832.000000	59.511106
1831.000000	59.460054
1830.000000	59.419589
1829.000000	59.414616
1828.000000	59.402691
1827.000000	59.361408
1826.000000	59.320129
1825.000000	59.305245
1824.000000	59.275486
1823.000000	59.250163
1822.000000	59.208491
1821.000000	59.190612
1820.000000	59.172513
1819.000000	59.131756
1818.000000	59.095885
1817.000000	59.059053
1816.000000	59.046574
1815.000000	59.027511
1814.000000	58.988213
1813.000000	58.961628
1812.000000	58.913628
1811.000000	58.881199
1810.000000	58.861418
1809.000000	58.840674
1808.000000	58.819221
1807.000000	58.789721
1806.000000	58.771446
1805.000000	58.737957
1804.000000	58.683733
1803.000000	58.656104
1802.000000	58.653848
1801.000000	58.639442
1800.000000	58.596418
1799.000000	58.568018
1798.000000	58.554040
1797.000000	58.539988
1796.000000	58.520887
1795.000000	58.496838
1794.000000	58.489912
1793.000000	58.472861
1792.000000	58.450842
1791.000000	58.457985
1790.000000	58.422045
1789.000000	58.392064
1788.000000	58.397053
1787.000000	58.376856
1786.000000	58.348650
1785.000000	58.328303
1784.000000	58.315437
1783.000000	58.305441
1782.000000	58.275726
1781.000000	58.229218
1780.000000	58.197955
1779.000000	58.189589
1778.000000	58.149788
1777.000000	58.112719
1776.000000	58.087561
1775.000000	58.033821
1774.000000	58.005107
1773.000000	57.943149
1772.000000	57.896395
1771.000000	57.873362
1770.000000	57.832674
1769.000000	57.776892
1768.000000	57.737634
1767.000000	57.679936
1766.000000	57.657448
1765.000000	57.614226
1764.000000	57.609158
1763.000000	57.521648
1762.000000	57.468343
1761.000000	57.452901
1760.000000	57.398614
1759.000000	57.360532
1758.000000	57.319346
1757.000000	57.285342
1756.000000	57.252624
1755.000000	57.217615
1754.000000	57.169365
1753.000000	57.132695
1752.000000	57.100378
1751.000000	57.060364
1750.000000	57.022338
1749.000000	56.974583
1748.000000	56.917993
1747.000000	56.870900
1746.000000	56.853476
1745.000000	56.792877
1744.000000	56.760701
1743.000000	56.724247
1742.000000	56.682835
1741.000000	56.659166
1740.000000	56.623111
1739.000000	56.550161
1738.000000	56.526188
1737.000000	56.512294
1736.000000	56.495176
1735.000000	56.471668
1734.000000	56.489956
1733.000000	56.455483
1732.000000	56.473065
1731.000000	56.513838
1730.000000	56.491996
1729.000000	56.548393
1728.000000	56.598639
1727.000000	56.649525
1726.000000	56.713039
1725.000000	56.768901
1724.000000	56.845562
1723.000000	56.903677
1722.000000	57.037175
1721.000000	57.096599
1720.000000	57.205105
1719.000000	57.269612
1718.000000	57.371029
1717.000000	57.455331
1716.000000	57.571446
1715.000000	57.640155
1714.000000	57.740019
1713.000000	57.828600
1712.000000	57.862250
1711.000000	57.945766
1710.000000	58.011148
1709.000000	58.075180
1708.000000	58.094782
1707.000000	58.134546
1706.000000	58.183728
1705.000000	58.212145
1704.000000	58.247300
1703.000000	58.230077
1702.000000	58.276484
1701.000000	58.331309
1700.000000	58.308489
1699.000000	58.325670
1698.000000	58.352584
1697.000000	58.414997
1696.000000	58.428251
1695.000000	58.455939
1694.000000	58.471404
1693.000000	58.519775
1692.000000	58.558956
1691.000000	58.625384
1690.000000	58.710959
1689.000000	58.786153
1688.000000	58.872445
1687.000000	58.967970
1686.000000	59.082001
1685.000000	59.187863
1684.000000	59.316044
1683.000000	59.459017
1682.000000	59.603783
1681.000000	59.762232
1680.000000	59.860681
1679.000000	60.012129
1678.000000	60.208091
1677.000000	60.330560
1676.000000	60.500419
1675.000000	60.651819
1674.000000	60.828616
1673.000000	60.954885
1672.000000	61.126973
1671.000000	61.227411
1670.000000	61.383671
1669.000000	61.567771
1668.000000	61.677007
1667.000000	61.786814
1666.000000	61.864546
1665.000000	61.942554
1664.000000	62.037463
1663.000000	62.124562
1662.000000	62.193292
1661.000000	62.275410
1660.000000	62.317204
1659.000000	62.387912
1658.000000	62.435994
1657.000000	62.452899
1656.000000	62.485394
1655.000000	62.518425
1654.000000	62.547768
1653.000000	62.569785
1652.000000	62.587113
1651.000000	62.570000
1650.000000	62.601648
1649.000000	62.596131
1648.000000	62.572031
1647.000000	62.577359
1646.000000	62.561299
1645.000000	62.559218
1644.000000	62.534764
1643.000000	62.509544
1642.000000	62.509569
1641.000000	62.497614
1640.000000	62.472042
1639.000000	62.453178
1638.000000	62.407029
1637.000000	62.376402
1636.000000	62.360506
1635.000000	62.340020
1634.000000	62.322894
1633.000000	62.268798
1632.000000	62.245215
1631.000000	62.206513
1630.000000	62.155017
1629.000000	62.114295
1628.000000	62.090948
1627.000000	62.056966
1626.000000	62.006583
1625.000000	61.958112
1624.000000	61.933273
1623.000000	61.908417
1622.000000	61.867990
1621.000000	61.814628
1620.000000	61.782220
1619.000000	61.742996
1618.000000	61.682083
1617.000000	61.647143
1616.000000	61.592552
1615.000000	61.540859
1614.000000	61.505853
1613.000000	61.455518
1612.000000	61.394166
1611.000000	61.344722
1610.000000	61.297671
1609.000000	61.242595
1608.000000	61.196914
1607.000000	61.143273
1606.000000	61.071340
1605.000000	61.016958
1604.000000	60.975929
1603.000000	60.913476
1602.000000	60.859444
1601.000000	60.805949
1600.000000	60.758166
1599.000000	60.713220
1598.000000	60.647679
1597.000000	60.593871
1596.000000	60.550204
1595.000000	60.508437
1594.000000	60.467484
1593.000000	60.441015
1592.000000	60.385166
1591.000000	60.330687
1590.000000	60.296413
1589.000000	60.250318
1588.000000	60.204058
1587.000000	60.165981
1586.000000	60.136677
1585.000000	60.094008
1584.000000	60.053236
1583.000000	60.022921
1582.000000	59.981649
1581.000000	59.938211
1580.000000	59.897757
1579.000000	59.870663
1578.000000	59.855006
1577.000000	59.802685
1576.000000	59.748230
1575.000000	59.729729
1574.000000	59.692217
1573.000000	59.659631
1572.000000	59.621297
1571.000000	59.579662
1570.000000	59.550699
1569.000000	59.496612
1568.000000	59.462260
1567.000000	59.435007
1566.000000	59.408989
1565.000000	59.377610
1564.000000	59.363953
1563.000000	59.349214
1562.000000	59.316077
1561.000000	59.291259
1560.000000	59.290122
1559.000000	59.263409
1558.000000	59.241947
1557.000000	59.233929
1556.000000	59.221897
1555.000000	59.195125
1554.000000	59.164931
1553.000000	59.132555
1552.000000	59.112856
1551.000000	59.100249
1550.000000	59.080761
1549.000000	59.026297
1548.000000	58.995433
1547.000000	58.955425
1546.000000	58.905063
1545.000000	58.864711
1544.000000	58.788915
1543.000000	58.727599
1542.000000	58.679484
1541.000000	58.600664
1540.000000	58.536001
1539.000000	58.450880
1538.000000	58.372786
1537.000000	58.298753
1536.000000	58.236537
1535.000000	58.155071
1534.000000	58.093461
1533.000000	58.018599
1532.000000	57.948029
1531.000000	57.873177
1530.000000	57.806898
1529.000000	57.734297
1528.000000	57.664409
1527.000000	57.612141
1526.000000	57.562826
1525.000000	57.496951
1524.000000	57.450911
1523.000000	57.413684
1522.000000	57.371577
1521.000000	57.331076
1520.000000	57.289115
1519.000000	57.247458
1518.000000	57.239025
1517.000000	57.217679
1516.000000	57.224742
1515.000000	57.194245
1514.000000	57.207888
1513.000000	57.168870
1512.000000	57.147555
1511.000000	57.097080
1510.000000	57.071383
1509.000000	57.052604
1508.000000	57.031034
1507.000000	57.029420
1506.000000	57.002481
1505.000000	56.974684
1504.000000	56.991224
1503.000000	56.961780
1502.000000	56.956661
1501.000000	56.974127
1500.000000	56.961808
1499.000000	56.955942
1498.000000	56.973737
1497.000000	57.000023
1496.000000	57.001619
1495.000000	56.995635
1494.000000	56.990813
1493.000000	57.016121
1492.000000	57.011756
1491.000000	57.027113
1490.000000	57.047265
1489.000000	57.081961
1488.000000	57.138102
1487.000000	57.148917
1486.000000	57.194248
1485.000000	57.242396
1484.000000	57.280012
1483.000000	57.289185
1482.000000	57.328945
1481.000000	57.372617
1480.000000	57.419261
1479.000000	57.450572
1478.000000	57.503157
1477.000000	57.540302
1476.000000	57.592084
1475.000000	57.653935
1474.000000	57.671920
1473.000000	57.732692
1472.000000	57.779734
1471.000000	57.835054
1470.000000	57.873511
