PE UV       SUBTECH     SPECTRUM    ASCII       PEDS        4.00        
   -1
RTmsopph201.Sample.asc
18/03/19
13:50:57.00
18/03/19
13:50:57.00
Administrator

200.000000
1
Lambda 750
750N8071901
PerkinElmer UV WinLab 6.0.4.0738 / 1.61.00 Lambda 900

0
0
3350/servo 860.8/2
0
0
UV/VIS
1
1
1
CommonBeamDepol,150mm sphere / downward view
0
0
0
0
Program
Program
3350/servo 860.8/2
3350/0.2 860.8/0.2
3350/0.2 860.8/0.2
0
1
 
 
 
0
 
860.8
319.2
860.8
Front
100
on
 
 
0
0
0
 
0
 
 
 
0
 
 
0
0
0
0
0
 
 
 
 
0
0


0
0
#HDR
-1
-1
#GR
nm
%R
1.0
0.0
2350.000000
-1.000000
2151
8
72.584027
18.410066
#DATA
2350.000000	35.374429
2349.000000	35.580035
2348.000000	35.604949
2347.000000	35.934474
2346.000000	35.329363
2345.000000	35.528269
2344.000000	35.345924
2343.000000	35.438401
2342.000000	35.575698
2341.000000	35.493235
2340.000000	35.723125
2339.000000	35.932135
2338.000000	36.094368
2337.000000	36.062945
2336.000000	36.083227
2335.000000	36.080522
2334.000000	35.956229
2333.000000	36.063720
2332.000000	36.279862
2331.000000	36.278567
2330.000000	36.021859
2329.000000	36.448808
2328.000000	36.010488
2327.000000	35.702791
2326.000000	35.835445
2325.000000	35.790897
2324.000000	35.874946
2323.000000	35.723857
2322.000000	35.904261
2321.000000	35.788623
2320.000000	35.664576
2319.000000	35.894928
2318.000000	35.937058
2317.000000	35.708659
2316.000000	35.557173
2315.000000	35.621544
2314.000000	35.573634
2313.000000	35.628852
2312.000000	35.436802
2311.000000	35.569884
2310.000000	35.513807
2309.000000	35.478440
2308.000000	35.364218
2307.000000	34.953788
2306.000000	35.099169
2305.000000	35.003091
2304.000000	35.078214
2303.000000	34.909851
2302.000000	34.924895
2301.000000	34.689644
2300.000000	34.609312
2299.000000	34.715569
2298.000000	34.550029
2297.000000	34.419618
2296.000000	34.556218
2295.000000	34.377325
2294.000000	34.093347
2293.000000	34.012472
2292.000000	33.952810
2291.000000	33.934986
2290.000000	34.035311
2289.000000	33.919197
2288.000000	33.919453
2287.000000	34.041201
2286.000000	33.961597
2285.000000	33.851842
2284.000000	33.734981
2283.000000	33.861547
2282.000000	33.942587
2281.000000	33.816504
2280.000000	33.737365
2279.000000	33.782620
2278.000000	33.754081
2277.000000	33.758689
2276.000000	33.697715
2275.000000	33.863259
2274.000000	33.925599
2273.000000	34.008293
2272.000000	34.071965
2271.000000	33.992701
2270.000000	34.071434
2269.000000	34.201322
2268.000000	34.401912
2267.000000	34.461884
2266.000000	34.396312
2265.000000	34.570755
2264.000000	34.698400
2263.000000	34.784296
2262.000000	34.810510
2261.000000	34.972883
2260.000000	35.133663
2259.000000	35.184547
2258.000000	35.470458
2257.000000	35.731703
2256.000000	35.826758
2255.000000	35.927785
2254.000000	36.097221
2253.000000	36.184170
2252.000000	36.386638
2251.000000	36.749404
2250.000000	36.989390
2249.000000	37.099164
2248.000000	37.228256
2247.000000	37.409953
2246.000000	37.585234
2245.000000	37.708749
2244.000000	37.907300
2243.000000	38.326500
2242.000000	38.534004
2241.000000	38.476929
2240.000000	38.584866
2239.000000	38.652245
2238.000000	38.746668
2237.000000	38.940955
2236.000000	39.095916
2235.000000	39.164031
2234.000000	39.210969
2233.000000	39.270871
2232.000000	39.292171
2231.000000	39.415620
2230.000000	39.535475
2229.000000	39.605129
2228.000000	39.522960
2227.000000	39.575852
2226.000000	39.570584
2225.000000	39.654390
2224.000000	39.639652
2223.000000	39.478589
2222.000000	39.511105
2221.000000	39.655349
2220.000000	39.658825
2219.000000	39.643538
2218.000000	39.571394
2217.000000	39.446365
2216.000000	39.470876
2215.000000	39.366326
2214.000000	39.282710
2213.000000	39.365866
2212.000000	39.312098
2211.000000	39.273363
2210.000000	39.228483
2209.000000	39.195087
2208.000000	39.101751
2207.000000	39.068797
2206.000000	38.984476
2205.000000	38.908504
2204.000000	38.847313
2203.000000	38.757266
2202.000000	38.676516
2201.000000	38.751729
2200.000000	38.735929
2199.000000	38.738233
2198.000000	38.652299
2197.000000	38.422703
2196.000000	38.399454
2195.000000	38.315760
2194.000000	38.197489
2193.000000	38.121536
2192.000000	38.029737
2191.000000	37.973541
2190.000000	38.127071
2189.000000	38.053636
2188.000000	37.791628
2187.000000	37.725750
2186.000000	37.858956
2185.000000	37.874228
2184.000000	37.704194
2183.000000	37.759796
2182.000000	37.830687
2181.000000	37.745007
2180.000000	37.799937
2179.000000	37.700319
2178.000000	37.652233
2177.000000	37.788973
2176.000000	37.798802
2175.000000	37.787896
2174.000000	37.784777
2173.000000	37.891044
2172.000000	37.870104
2171.000000	37.873222
2170.000000	37.871893
2169.000000	38.157592
2168.000000	38.153924
2167.000000	38.158143
2166.000000	38.285150
2165.000000	38.415279
2164.000000	38.453767
2163.000000	38.492214
2162.000000	38.598482
2161.000000	38.796265
2160.000000	38.760298
2159.000000	38.954193
2158.000000	38.968661
2157.000000	39.110346
2156.000000	39.392715
2155.000000	39.517543
2154.000000	39.703986
2153.000000	39.897218
2152.000000	39.814477
2151.000000	40.155189
2150.000000	40.213818
2149.000000	40.418729
2148.000000	40.287793
2147.000000	40.537758
2146.000000	40.921743
2145.000000	41.103855
2144.000000	41.019618
2143.000000	41.094000
2142.000000	41.191867
2141.000000	41.274614
2140.000000	41.473086
2139.000000	41.590188
2138.000000	41.710772
2137.000000	41.853279
2136.000000	41.848057
2135.000000	41.956418
2134.000000	42.253143
2133.000000	42.062612
2132.000000	42.296332
2131.000000	42.361351
2130.000000	42.530559
2129.000000	42.564269
2128.000000	42.612740
2127.000000	42.647157
2126.000000	42.692985
2125.000000	42.554300
2124.000000	42.740809
2123.000000	42.724953
2122.000000	42.951095
2121.000000	42.913365
2120.000000	42.885851
2119.000000	42.989850
2118.000000	43.011633
2117.000000	42.963383
2116.000000	43.040869
2115.000000	43.122597
2114.000000	43.004127
2113.000000	43.196548
2112.000000	43.116539
2111.000000	43.155035
2110.000000	43.192302
2109.000000	43.187600
2108.000000	43.191889
2107.000000	43.361463
2106.000000	43.346326
2105.000000	43.254325
2104.000000	43.371033
2103.000000	43.440035
2102.000000	43.354636
2101.000000	43.392644
2100.000000	43.431807
2099.000000	43.375752
2098.000000	43.320126
2097.000000	43.509385
2096.000000	43.476683
2095.000000	43.522561
2094.000000	43.464189
2093.000000	43.410378
2092.000000	43.418514
2091.000000	43.471323
2090.000000	43.392682
2089.000000	43.358768
2088.000000	43.467040
2087.000000	43.391413
2086.000000	43.335859
2085.000000	43.335212
2084.000000	43.278747
2083.000000	43.221113
2082.000000	43.140679
2081.000000	43.040399
2080.000000	43.048154
2079.000000	43.027788
2078.000000	42.957604
2077.000000	42.833690
2076.000000	42.828088
2075.000000	42.708467
2074.000000	42.632540
2073.000000	42.553764
2072.000000	42.348441
2071.000000	42.317734
2070.000000	42.219487
2069.000000	42.051397
2068.000000	41.881647
2067.000000	41.816464
2066.000000	41.658259
2065.000000	41.512054
2064.000000	41.435657
2063.000000	41.324633
2062.000000	41.213987
2061.000000	41.081420
2060.000000	40.817787
2059.000000	40.724400
2058.000000	40.598507
2057.000000	40.509363
2056.000000	40.418074
2055.000000	40.259443
2054.000000	40.102339
2053.000000	39.972540
2052.000000	39.889882
2051.000000	39.736522
2050.000000	39.608333
2049.000000	39.591326
2048.000000	39.493812
2047.000000	39.385792
2046.000000	39.305535
2045.000000	39.239986
2044.000000	39.210456
2043.000000	39.199477
2042.000000	39.197293
2041.000000	39.197862
2040.000000	39.213223
2039.000000	39.248781
2038.000000	39.318171
2037.000000	39.331935
2036.000000	39.348404
2035.000000	39.431127
2034.000000	39.528084
2033.000000	39.638034
2032.000000	39.730830
2031.000000	39.820808
2030.000000	39.953155
2029.000000	40.043945
2028.000000	40.080460
2027.000000	40.169808
2026.000000	40.292383
2025.000000	40.394132
2024.000000	40.484599
2023.000000	40.540902
2022.000000	40.588463
2021.000000	40.625143
2020.000000	40.692793
2019.000000	40.729882
2018.000000	40.731527
2017.000000	40.745133
2016.000000	40.750454
2015.000000	40.747390
2014.000000	40.757749
2013.000000	40.757310
2012.000000	40.711569
2011.000000	40.656196
2010.000000	40.618012
2009.000000	40.529160
2008.000000	40.438652
2007.000000	40.392498
2006.000000	40.342323
2005.000000	40.287372
2004.000000	40.195008
2003.000000	40.148936
2002.000000	40.072239
2001.000000	39.966254
2000.000000	39.885244
1999.000000	39.815330
1998.000000	39.735735
1997.000000	39.646718
1996.000000	39.552648
1995.000000	39.443490
1994.000000	39.356686
1993.000000	39.250021
1992.000000	39.159926
1991.000000	39.066999
1990.000000	38.971164
1989.000000	38.879732
1988.000000	38.763314
1987.000000	38.683711
1986.000000	38.579184
1985.000000	38.491947
1984.000000	38.408234
1983.000000	38.298413
1982.000000	38.236779
1981.000000	38.147324
1980.000000	38.042724
1979.000000	37.981097
1978.000000	37.895902
1977.000000	37.792657
1976.000000	37.666390
1975.000000	37.571901
1974.000000	37.448260
1973.000000	37.382683
1972.000000	37.290737
1971.000000	37.202314
1970.000000	37.144464
1969.000000	37.052410
1968.000000	36.962806
1967.000000	36.890656
1966.000000	36.805411
1965.000000	36.699983
1964.000000	36.622832
1963.000000	36.539821
1962.000000	36.449958
1961.000000	36.337312
1960.000000	36.303950
1959.000000	36.207394
1958.000000	36.148724
1957.000000	36.076455
1956.000000	35.965531
1955.000000	35.957232
1954.000000	35.888384
1953.000000	35.831229
1952.000000	35.871106
1951.000000	35.795216
1950.000000	35.746153
1949.000000	35.690418
1948.000000	35.650963
1947.000000	35.602628
1946.000000	35.607783
1945.000000	35.588828
1944.000000	35.577188
1943.000000	35.648140
1942.000000	35.626602
1941.000000	35.609168
1940.000000	35.658215
1939.000000	35.805800
1938.000000	35.853148
1937.000000	35.906534
1936.000000	36.004351
1935.000000	36.037557
1934.000000	36.133858
1933.000000	36.275342
1932.000000	36.354910
1931.000000	36.484783
1930.000000	36.627040
1929.000000	36.808582
1928.000000	36.961776
1927.000000	37.177926
1926.000000	37.320374
1925.000000	37.526406
1924.000000	37.768049
1923.000000	37.996453
1922.000000	38.285187
1921.000000	38.499425
1920.000000	38.764489
1919.000000	39.000991
1918.000000	39.296904
1917.000000	39.668329
1916.000000	39.839043
1915.000000	40.262973
1914.000000	40.633073
1913.000000	40.988685
1912.000000	41.327349
1911.000000	41.653635
1910.000000	42.069854
1909.000000	42.412584
1908.000000	42.795986
1907.000000	43.208319
1906.000000	43.670290
1905.000000	44.212563
1904.000000	44.608641
1903.000000	45.008974
1902.000000	45.533482
1901.000000	45.925725
1900.000000	46.408318
1899.000000	46.946436
1898.000000	47.434141
1897.000000	47.888291
1896.000000	48.345649
1895.000000	48.775866
1894.000000	49.270969
1893.000000	49.773477
1892.000000	50.256686
1891.000000	50.699968
1890.000000	51.190529
1889.000000	51.648756
1888.000000	52.045935
1887.000000	52.436717
1886.000000	52.859527
1885.000000	53.261727
1884.000000	53.611635
1883.000000	54.011321
1882.000000	54.349000
1881.000000	54.666137
1880.000000	54.991802
1879.000000	55.243549
1878.000000	55.545094
1877.000000	55.867592
1876.000000	56.113380
1875.000000	56.365535
1874.000000	56.568117
1873.000000	56.741243
1872.000000	56.958467
1871.000000	57.146833
1870.000000	57.304673
1869.000000	57.464946
1868.000000	57.622468
1867.000000	57.731935
1866.000000	57.840409
1865.000000	57.943156
1864.000000	58.007729
1863.000000	58.117286
1862.000000	58.209364
1861.000000	58.284440
1860.000000	58.354932
1859.000000	58.407666
1858.000000	58.479315
1857.000000	58.551724
1856.000000	58.566022
1855.000000	58.600975
1854.000000	58.646037
1853.000000	58.677508
1852.000000	58.707795
1851.000000	58.675324
1850.000000	58.668992
1849.000000	58.663151
1848.000000	58.702035
1847.000000	58.723885
1846.000000	58.694958
1845.000000	58.680592
1844.000000	58.674955
1843.000000	58.649590
1842.000000	58.640881
1841.000000	58.603300
1840.000000	58.631499
1839.000000	58.584273
1838.000000	58.550901
1837.000000	58.475698
1836.000000	58.434478
1835.000000	58.419977
1834.000000	58.377303
1833.000000	58.347915
1832.000000	58.337812
1831.000000	58.307824
1830.000000	58.272123
1829.000000	58.234303
1828.000000	58.202095
1827.000000	58.171709
1826.000000	58.129475
1825.000000	58.113886
1824.000000	58.098334
1823.000000	58.084800
1822.000000	58.031950
1821.000000	58.016051
1820.000000	57.989355
1819.000000	57.930967
1818.000000	57.911903
1817.000000	57.905532
1816.000000	57.886918
1815.000000	57.858854
1814.000000	57.793579
1813.000000	57.741125
1812.000000	57.732601
1811.000000	57.705667
1810.000000	57.690398
1809.000000	57.658627
1808.000000	57.623148
1807.000000	57.603818
1806.000000	57.584243
1805.000000	57.559304
1804.000000	57.515884
1803.000000	57.497005
1802.000000	57.490158
1801.000000	57.470572
1800.000000	57.434755
1799.000000	57.414565
1798.000000	57.387667
1797.000000	57.365029
1796.000000	57.340881
1795.000000	57.311384
1794.000000	57.311193
1793.000000	57.318355
1792.000000	57.292610
1791.000000	57.286891
1790.000000	57.276758
1789.000000	57.229477
1788.000000	57.211652
1787.000000	57.197816
1786.000000	57.189466
1785.000000	57.177329
1784.000000	57.160338
1783.000000	57.123838
1782.000000	57.069372
1781.000000	57.050003
1780.000000	57.017393
1779.000000	57.008199
1778.000000	56.972407
1777.000000	56.913762
1776.000000	56.892547
1775.000000	56.849926
1774.000000	56.799566
1773.000000	56.774417
1772.000000	56.702584
1771.000000	56.650829
1770.000000	56.594120
1769.000000	56.530609
1768.000000	56.493186
1767.000000	56.463518
1766.000000	56.431787
1765.000000	56.394557
1764.000000	56.345210
1763.000000	56.283891
1762.000000	56.242975
1761.000000	56.219638
1760.000000	56.166535
1759.000000	56.119755
1758.000000	56.083049
1757.000000	56.022746
1756.000000	55.995154
1755.000000	55.949808
1754.000000	55.901615
1753.000000	55.861326
1752.000000	55.808753
1751.000000	55.766788
1750.000000	55.724628
1749.000000	55.692676
1748.000000	55.657509
1747.000000	55.599109
1746.000000	55.523772
1745.000000	55.466859
1744.000000	55.438296
1743.000000	55.389297
1742.000000	55.331422
1741.000000	55.295620
1740.000000	55.263337
1739.000000	55.246708
1738.000000	55.180124
1737.000000	55.161156
1736.000000	55.140275
1735.000000	55.128195
1734.000000	55.141639
1733.000000	55.131878
1732.000000	55.126281
1731.000000	55.149220
1730.000000	55.171808
1729.000000	55.206797
1728.000000	55.241424
1727.000000	55.281162
1726.000000	55.353203
1725.000000	55.398253
1724.000000	55.464320
1723.000000	55.564857
1722.000000	55.656568
1721.000000	55.760026
1720.000000	55.840069
1719.000000	55.981029
1718.000000	56.017138
1717.000000	56.095698
1716.000000	56.203358
1715.000000	56.292210
1714.000000	56.375049
1713.000000	56.465060
1712.000000	56.522141
1711.000000	56.583884
1710.000000	56.662711
1709.000000	56.702436
1708.000000	56.776442
1707.000000	56.794844
1706.000000	56.869313
1705.000000	56.899726
1704.000000	56.927906
1703.000000	56.938610
1702.000000	56.995200
1701.000000	56.975296
1700.000000	57.017360
1699.000000	56.991352
1698.000000	57.023136
1697.000000	57.104183
1696.000000	57.121478
1695.000000	57.115640
1694.000000	57.186120
1693.000000	57.216412
1692.000000	57.273269
1691.000000	57.332033
1690.000000	57.401972
1689.000000	57.470745
1688.000000	57.579996
1687.000000	57.703811
1686.000000	57.776347
1685.000000	57.913763
1684.000000	58.046941
1683.000000	58.168021
1682.000000	58.325665
1681.000000	58.478304
1680.000000	58.651345
1679.000000	58.815934
1678.000000	58.982027
1677.000000	59.126142
1676.000000	59.291286
1675.000000	59.464648
1674.000000	59.612410
1673.000000	59.772224
1672.000000	59.921092
1671.000000	60.071059
1670.000000	60.212979
1669.000000	60.384639
1668.000000	60.504981
1667.000000	60.624752
1666.000000	60.738276
1665.000000	60.816848
1664.000000	60.911929
1663.000000	60.976665
1662.000000	61.056134
1661.000000	61.152892
1660.000000	61.192931
1659.000000	61.248770
1658.000000	61.302013
1657.000000	61.348625
1656.000000	61.406426
1655.000000	61.434339
1654.000000	61.452477
1653.000000	61.488476
1652.000000	61.497050
1651.000000	61.476705
1650.000000	61.485132
1649.000000	61.488254
1648.000000	61.482488
1647.000000	61.486557
1646.000000	61.478644
1645.000000	61.490088
1644.000000	61.479436
1643.000000	61.448167
1642.000000	61.423250
1641.000000	61.408853
1640.000000	61.395942
1639.000000	61.370265
1638.000000	61.354968
1637.000000	61.321741
1636.000000	61.275719
1635.000000	61.246003
1634.000000	61.228482
1633.000000	61.195851
1632.000000	61.157556
1631.000000	61.132319
1630.000000	61.091426
1629.000000	61.064415
1628.000000	61.026644
1627.000000	60.978021
1626.000000	60.949931
1625.000000	60.909898
1624.000000	60.864698
1623.000000	60.833697
1622.000000	60.802435
1621.000000	60.748289
1620.000000	60.704039
1619.000000	60.658622
1618.000000	60.622479
1617.000000	60.575671
1616.000000	60.526497
1615.000000	60.473472
1614.000000	60.417420
1613.000000	60.369052
1612.000000	60.312965
1611.000000	60.263439
1610.000000	60.232952
1609.000000	60.177716
1608.000000	60.113595
1607.000000	60.047001
1606.000000	59.990072
1605.000000	59.945813
1604.000000	59.896799
1603.000000	59.842293
1602.000000	59.788598
1601.000000	59.742752
1600.000000	59.679782
1599.000000	59.626074
1598.000000	59.592907
1597.000000	59.547811
1596.000000	59.487509
1595.000000	59.436107
1594.000000	59.392977
1593.000000	59.347405
1592.000000	59.305016
1591.000000	59.258447
1590.000000	59.209404
1589.000000	59.163864
1588.000000	59.116392
1587.000000	59.076914
1586.000000	59.035033
1585.000000	58.988047
1584.000000	58.963680
1583.000000	58.931890
1582.000000	58.888310
1581.000000	58.856324
1580.000000	58.824616
1579.000000	58.787571
1578.000000	58.739431
1577.000000	58.686426
1576.000000	58.649094
1575.000000	58.619612
1574.000000	58.586646
1573.000000	58.544577
1572.000000	58.492786
1571.000000	58.454979
1570.000000	58.426821
1569.000000	58.395618
1568.000000	58.376839
1567.000000	58.332048
1566.000000	58.296883
1565.000000	58.268215
1564.000000	58.248485
1563.000000	58.233632
1562.000000	58.207001
1561.000000	58.191874
1560.000000	58.160339
1559.000000	58.138416
1558.000000	58.118635
1557.000000	58.116867
1556.000000	58.091816
1555.000000	58.075093
1554.000000	58.058068
1553.000000	58.035951
1552.000000	58.007895
1551.000000	57.973790
1550.000000	57.944953
1549.000000	57.912002
1548.000000	57.886576
1547.000000	57.827464
1546.000000	57.779489
1545.000000	57.734353
1544.000000	57.663018
1543.000000	57.608232
1542.000000	57.551027
1541.000000	57.471298
1540.000000	57.408446
1539.000000	57.345185
1538.000000	57.247241
1537.000000	57.163944
1536.000000	57.093802
1535.000000	57.010566
1534.000000	56.930839
1533.000000	56.875176
1532.000000	56.796200
1531.000000	56.715300
1530.000000	56.661666
1529.000000	56.580518
1528.000000	56.504097
1527.000000	56.457885
1526.000000	56.405388
1525.000000	56.352402
1524.000000	56.290831
1523.000000	56.237417
1522.000000	56.197359
1521.000000	56.149067
1520.000000	56.117805
1519.000000	56.072313
1518.000000	56.042811
1517.000000	56.019662
1516.000000	56.012698
1515.000000	56.025124
1514.000000	55.996748
1513.000000	56.011568
1512.000000	55.998303
1511.000000	55.967077
1510.000000	55.935900
1509.000000	55.916056
1508.000000	55.892985
1507.000000	55.866357
1506.000000	55.857153
1505.000000	55.847777
1504.000000	55.813625
1503.000000	55.812514
1502.000000	55.804314
1501.000000	55.798834
1500.000000	55.819208
1499.000000	55.810012
1498.000000	55.808537
1497.000000	55.841317
1496.000000	55.868995
1495.000000	55.888000
1494.000000	55.896328
1493.000000	55.900623
1492.000000	55.942556
1491.000000	55.950471
1490.000000	55.986132
1489.000000	56.013027
1488.000000	56.041233
1487.000000	56.099108
1486.000000	56.131491
1485.000000	56.155298
1484.000000	56.179125
1483.000000	56.239055
1482.000000	56.260628
1481.000000	56.332806
1480.000000	56.386164
1479.000000	56.437574
1478.000000	56.483891
1477.000000	56.536594
1476.000000	56.598263
1475.000000	56.644584
1474.000000	56.685948
1473.000000	56.744648
1472.000000	56.805260
1471.000000	56.868629
1470.000000	56.911714
