PE UV       SUBTECH     SPECTRUM    ASCII       PEDS        4.00        
   -1
TDmsopph191.Sample.asc
18/03/19
10:45:56.00
18/03/19
10:45:56.00
Administrator

200.000000
1
Lambda 750
750N8071901
PerkinElmer UV WinLab 6.0.4.0738 / 1.61.00 Lambda 900

0
0
3350/servo 860.8/2
0
0
UV/VIS
1
1
1
CommonBeamDepol,150mm sphere / downward view
0
0
0
0
Program
Program
3350/servo 860.8/2
3350/0.2 860.8/0.2
3350/0.2 860.8/0.2
0
1
 
 
 
0
 
860.8
319.2
860.8
Front
100
on
 
 
0
0
0
 
0
 
 
 
0
 
 
0
0
0
0
0
 
 
 
 
0
0


0
0
#HDR
-1
-1
#GR
nm
%T
1.0
0.0
2350.000000
-1.000000
2151
8
6.727000
-0.013515
#DATA
2350.000000	1.444165
2349.000000	1.495385
2348.000000	1.276774
2347.000000	1.763562
2346.000000	2.035470
2345.000000	1.771931
2344.000000	1.371743
2343.000000	1.304572
2342.000000	1.357550
2341.000000	1.523721
2340.000000	1.849437
2339.000000	2.012696
2338.000000	1.883049
2337.000000	2.131556
2336.000000	2.423256
2335.000000	2.484238
2334.000000	2.412580
2333.000000	2.622809
2332.000000	2.537601
2331.000000	2.365094
2330.000000	2.011867
2329.000000	2.647573
2328.000000	2.175345
2327.000000	2.263102
2326.000000	2.215847
2325.000000	1.926650
2324.000000	2.038047
2323.000000	2.263519
2322.000000	2.304642
2321.000000	2.300261
2320.000000	1.831664
2319.000000	1.948610
2318.000000	1.862655
2317.000000	2.030766
2316.000000	2.154257
2315.000000	1.861385
2314.000000	1.851709
2313.000000	1.946756
2312.000000	1.885277
2311.000000	1.998580
2310.000000	2.108481
2309.000000	1.818263
2308.000000	1.972722
2307.000000	2.298348
2306.000000	1.968143
2305.000000	1.632439
2304.000000	1.785202
2303.000000	1.956061
2302.000000	1.952447
2301.000000	1.692037
2300.000000	1.572890
2299.000000	1.636078
2298.000000	1.977776
2297.000000	1.908037
2296.000000	1.816506
2295.000000	1.763744
2294.000000	1.574679
2293.000000	1.572550
2292.000000	1.494131
2291.000000	1.568054
2290.000000	1.415049
2289.000000	1.479970
2288.000000	1.768135
2287.000000	1.746500
2286.000000	1.593840
2285.000000	1.663766
2284.000000	1.628288
2283.000000	1.514423
2282.000000	1.507998
2281.000000	1.658057
2280.000000	1.571155
2279.000000	1.705635
2278.000000	1.642212
2277.000000	1.595887
2276.000000	1.780830
2275.000000	1.899899
2274.000000	1.910874
2273.000000	1.940171
2272.000000	1.693160
2271.000000	1.689073
2270.000000	1.887717
2269.000000	1.863416
2268.000000	1.744740
2267.000000	1.837829
2266.000000	1.756925
2265.000000	1.813111
2264.000000	1.878766
2263.000000	1.722146
2262.000000	1.714717
2261.000000	1.861350
2260.000000	1.750010
2259.000000	1.737963
2258.000000	1.812731
2257.000000	1.888449
2256.000000	1.960752
2255.000000	1.968573
2254.000000	1.991019
2253.000000	2.012419
2252.000000	2.044356
2251.000000	2.068027
2250.000000	2.022436
2249.000000	2.031831
2248.000000	2.110697
2247.000000	2.069331
2246.000000	2.185448
2245.000000	2.316539
2244.000000	2.227289
2243.000000	2.132821
2242.000000	2.291813
2241.000000	2.451882
2240.000000	2.385041
2239.000000	2.314913
2238.000000	2.311327
2237.000000	2.415133
2236.000000	2.487603
2235.000000	2.423707
2234.000000	2.299928
2233.000000	2.287533
2232.000000	2.347370
2231.000000	2.310144
2230.000000	2.316228
2229.000000	2.352537
2228.000000	2.468859
2227.000000	2.501232
2226.000000	2.519475
2225.000000	2.447616
2224.000000	2.399856
2223.000000	2.462535
2222.000000	2.465550
2221.000000	2.441717
2220.000000	2.446671
2219.000000	2.552519
2218.000000	2.480154
2217.000000	2.410323
2216.000000	2.472818
2215.000000	2.401070
2214.000000	2.426817
2213.000000	2.480148
2212.000000	2.445696
2211.000000	2.378109
2210.000000	2.252639
2209.000000	2.296049
2208.000000	2.337310
2207.000000	2.239482
2206.000000	2.256070
2205.000000	2.416047
2204.000000	2.345672
2203.000000	2.307083
2202.000000	2.268163
2201.000000	2.322833
2200.000000	2.332314
2199.000000	2.319043
2198.000000	2.399552
2197.000000	2.285687
2196.000000	2.111362
2195.000000	2.167923
2194.000000	2.149950
2193.000000	2.202093
2192.000000	2.250220
2191.000000	2.114418
2190.000000	2.142395
2189.000000	2.125946
2188.000000	2.042476
2187.000000	1.980714
2186.000000	2.047225
2185.000000	2.101059
2184.000000	2.263750
2183.000000	2.238237
2182.000000	2.189064
2181.000000	2.093917
2180.000000	2.084033
2179.000000	2.172095
2178.000000	2.087566
2177.000000	2.063795
2176.000000	2.069894
2175.000000	2.205830
2174.000000	2.222644
2173.000000	2.140366
2172.000000	2.096750
2171.000000	2.023107
2170.000000	2.063695
2169.000000	2.219441
2168.000000	2.228079
2167.000000	2.309905
2166.000000	2.307873
2165.000000	2.032434
2164.000000	2.115242
2163.000000	2.159561
2162.000000	2.332376
2161.000000	2.295641
2160.000000	2.242419
2159.000000	2.467505
2158.000000	2.398910
2157.000000	2.392020
2156.000000	2.345900
2155.000000	2.279952
2154.000000	2.491764
2153.000000	2.428415
2152.000000	2.463005
2151.000000	2.437630
2150.000000	2.522685
2149.000000	2.252177
2148.000000	2.325830
2147.000000	2.262605
2146.000000	2.438695
2145.000000	2.526948
2144.000000	2.478438
2143.000000	2.541870
2142.000000	2.629351
2141.000000	2.517235
2140.000000	2.503590
2139.000000	2.542399
2138.000000	2.824886
2137.000000	2.626429
2136.000000	2.516141
2135.000000	2.558535
2134.000000	2.681169
2133.000000	2.568582
2132.000000	2.686629
2131.000000	2.860289
2130.000000	2.757044
2129.000000	2.673877
2128.000000	2.555622
2127.000000	2.422043
2126.000000	2.516325
2125.000000	2.643498
2124.000000	2.517116
2123.000000	2.584893
2122.000000	2.644542
2121.000000	2.641011
2120.000000	2.747244
2119.000000	2.741192
2118.000000	2.790329
2117.000000	2.702850
2116.000000	2.568596
2115.000000	2.520451
2114.000000	2.721086
2113.000000	2.650323
2112.000000	2.747572
2111.000000	2.598883
2110.000000	2.655520
2109.000000	2.544492
2108.000000	2.680180
2107.000000	2.635732
2106.000000	2.620517
2105.000000	2.605926
2104.000000	2.699471
2103.000000	2.712793
2102.000000	2.685739
2101.000000	2.651926
2100.000000	2.805464
2099.000000	2.709951
2098.000000	2.726652
2097.000000	2.769740
2096.000000	2.655282
2095.000000	2.529570
2094.000000	2.511286
2093.000000	2.529733
2092.000000	2.570143
2091.000000	2.523601
2090.000000	2.674574
2089.000000	2.719390
2088.000000	2.713872
2087.000000	2.709939
2086.000000	2.738551
2085.000000	2.745113
2084.000000	2.713086
2083.000000	2.640136
2082.000000	2.620504
2081.000000	2.533519
2080.000000	2.508082
2079.000000	2.474478
2078.000000	2.493573
2077.000000	2.502773
2076.000000	2.457632
2075.000000	2.512278
2074.000000	2.506940
2073.000000	2.557199
2072.000000	2.493843
2071.000000	2.486275
2070.000000	2.554596
2069.000000	2.477993
2068.000000	2.447253
2067.000000	2.375763
2066.000000	2.337906
2065.000000	2.334841
2064.000000	2.350654
2063.000000	2.233706
2062.000000	2.257036
2061.000000	2.252486
2060.000000	2.201466
2059.000000	2.147854
2058.000000	2.067572
2057.000000	2.112294
2056.000000	2.154856
2055.000000	2.128114
2054.000000	2.047449
2053.000000	2.043865
2052.000000	2.086262
2051.000000	2.017538
2050.000000	2.018307
2049.000000	2.050671
2048.000000	1.976038
2047.000000	1.912649
2046.000000	1.869507
2045.000000	1.908296
2044.000000	1.928900
2043.000000	1.939012
2042.000000	1.886378
2041.000000	1.845397
2040.000000	1.866018
2039.000000	1.850569
2038.000000	1.815752
2037.000000	1.828264
2036.000000	1.865755
2035.000000	1.856264
2034.000000	1.824115
2033.000000	1.869923
2032.000000	1.895886
2031.000000	1.879438
2030.000000	1.902028
2029.000000	1.942713
2028.000000	1.997166
2027.000000	2.015075
2026.000000	1.989981
2025.000000	1.981306
2024.000000	2.003622
2023.000000	2.058350
2022.000000	2.049364
2021.000000	2.009937
2020.000000	2.038045
2019.000000	2.010273
2018.000000	1.959820
2017.000000	1.984871
2016.000000	2.043389
2015.000000	2.078736
2014.000000	2.056351
2013.000000	2.044106
2012.000000	2.066627
2011.000000	2.043352
2010.000000	2.032141
2009.000000	2.022284
2008.000000	2.021999
2007.000000	2.024107
2006.000000	2.017319
2005.000000	1.985226
2004.000000	1.946347
2003.000000	1.932739
2002.000000	1.916169
2001.000000	1.952628
2000.000000	1.938945
1999.000000	1.872587
1998.000000	1.882367
1997.000000	1.913019
1996.000000	1.911723
1995.000000	1.844888
1994.000000	1.810425
1993.000000	1.818215
1992.000000	1.794750
1991.000000	1.782923
1990.000000	1.765585
1989.000000	1.775892
1988.000000	1.774687
1987.000000	1.738626
1986.000000	1.746583
1985.000000	1.724735
1984.000000	1.719741
1983.000000	1.705115
1982.000000	1.705501
1981.000000	1.739406
1980.000000	1.747278
1979.000000	1.704035
1978.000000	1.665696
1977.000000	1.649006
1976.000000	1.637434
1975.000000	1.611769
1974.000000	1.614623
1973.000000	1.656844
1972.000000	1.634701
1971.000000	1.637235
1970.000000	1.635601
1969.000000	1.608156
1968.000000	1.588548
1967.000000	1.585803
1966.000000	1.600812
1965.000000	1.585517
1964.000000	1.585422
1963.000000	1.573666
1962.000000	1.568517
1961.000000	1.568801
1960.000000	1.542338
1959.000000	1.504183
1958.000000	1.506029
1957.000000	1.543704
1956.000000	1.513923
1955.000000	1.553770
1954.000000	1.558162
1953.000000	1.533868
1952.000000	1.550935
1951.000000	1.615190
1950.000000	1.628307
1949.000000	1.569060
1948.000000	1.519123
1947.000000	1.505373
1946.000000	1.497663
1945.000000	1.545751
1944.000000	1.562601
1943.000000	1.567373
1942.000000	1.592514
1941.000000	1.597320
1940.000000	1.634979
1939.000000	1.590737
1938.000000	1.574393
1937.000000	1.528904
1936.000000	1.621893
1935.000000	1.614218
1934.000000	1.655419
1933.000000	1.650508
1932.000000	1.665324
1931.000000	1.685008
1930.000000	1.682806
1929.000000	1.711337
1928.000000	1.719579
1927.000000	1.674442
1926.000000	1.669227
1925.000000	1.708398
1924.000000	1.789510
1923.000000	1.738267
1922.000000	1.819109
1921.000000	1.878074
1920.000000	1.856933
1919.000000	1.903451
1918.000000	1.935653
1917.000000	2.018257
1916.000000	1.907674
1915.000000	2.077597
1914.000000	2.090107
1913.000000	2.154358
1912.000000	2.131372
1911.000000	2.247820
1910.000000	2.221109
1909.000000	2.168896
1908.000000	2.270007
1907.000000	2.311183
1906.000000	2.498972
1905.000000	2.532534
1904.000000	2.551077
1903.000000	2.729316
1902.000000	2.707727
1901.000000	2.826364
1900.000000	2.875863
1899.000000	2.889964
1898.000000	3.037646
1897.000000	3.141791
1896.000000	3.218012
1895.000000	3.326357
1894.000000	3.377820
1893.000000	3.431870
1892.000000	3.523602
1891.000000	3.556559
1890.000000	3.648471
1889.000000	3.881856
1888.000000	3.903442
1887.000000	3.981234
1886.000000	4.045073
1885.000000	4.170807
1884.000000	4.276277
1883.000000	4.375337
1882.000000	4.466361
1881.000000	4.525295
1880.000000	4.550593
1879.000000	4.661907
1878.000000	4.722123
1877.000000	4.807473
1876.000000	4.869994
1875.000000	4.911693
1874.000000	4.960704
1873.000000	4.994681
1872.000000	5.081024
1871.000000	5.145341
1870.000000	5.181910
1869.000000	5.158823
1868.000000	5.216820
1867.000000	5.250955
1866.000000	5.244031
1865.000000	5.246783
1864.000000	5.242449
1863.000000	5.254935
1862.000000	5.266118
1861.000000	5.246488
1860.000000	5.274829
1859.000000	5.326864
1858.000000	5.336751
1857.000000	5.340474
1856.000000	5.320118
1855.000000	5.306857
1854.000000	5.369780
1853.000000	5.420280
1852.000000	5.415592
1851.000000	5.391314
1850.000000	5.397207
1849.000000	5.420903
1848.000000	5.393246
1847.000000	5.359414
1846.000000	5.366828
1845.000000	5.361988
1844.000000	5.388699
1843.000000	5.393871
1842.000000	5.394980
1841.000000	5.382119
1840.000000	5.368351
1839.000000	5.360050
1838.000000	5.334567
1837.000000	5.325253
1836.000000	5.312235
1835.000000	5.285431
1834.000000	5.253323
1833.000000	5.233356
1832.000000	5.244290
1831.000000	5.208699
1830.000000	5.174775
1829.000000	5.160737
1828.000000	5.169055
1827.000000	5.174184
1826.000000	5.153204
1825.000000	5.127255
1824.000000	5.121943
1823.000000	5.094643
1822.000000	5.075846
1821.000000	5.064415
1820.000000	5.065596
1819.000000	5.057989
1818.000000	5.068727
1817.000000	5.061961
1816.000000	5.038849
1815.000000	5.028784
1814.000000	5.020034
1813.000000	5.030254
1812.000000	5.025227
1811.000000	5.013163
1810.000000	5.019858
1809.000000	5.010032
1808.000000	4.985859
1807.000000	4.981057
1806.000000	5.002586
1805.000000	4.995194
1804.000000	4.962032
1803.000000	4.962934
1802.000000	4.960486
1801.000000	4.958064
1800.000000	4.969832
1799.000000	4.979427
1798.000000	4.969524
1797.000000	4.966121
1796.000000	4.994228
1795.000000	5.003292
1794.000000	4.991585
1793.000000	4.991814
1792.000000	4.996220
1791.000000	4.995837
1790.000000	5.009576
1789.000000	5.021383
1788.000000	5.030698
1787.000000	5.037897
1786.000000	5.046335
1785.000000	5.057555
1784.000000	5.052693
1783.000000	5.026880
1782.000000	5.036435
1781.000000	5.043972
1780.000000	5.039696
1779.000000	5.035119
1778.000000	5.043132
1777.000000	5.013949
1776.000000	4.985741
1775.000000	4.962707
1774.000000	4.963093
1773.000000	4.929803
1772.000000	4.924728
1771.000000	4.933333
1770.000000	4.924771
1769.000000	4.907865
1768.000000	4.876368
1767.000000	4.856284
1766.000000	4.845475
1765.000000	4.827946
1764.000000	4.819197
1763.000000	4.827878
1762.000000	4.804569
1761.000000	4.763599
1760.000000	4.753773
1759.000000	4.739672
1758.000000	4.724700
1757.000000	4.719240
1756.000000	4.713662
1755.000000	4.708552
1754.000000	4.710442
1753.000000	4.698021
1752.000000	4.668375
1751.000000	4.678860
1750.000000	4.664015
1749.000000	4.649993
1748.000000	4.650203
1747.000000	4.610679
1746.000000	4.590871
1745.000000	4.588499
1744.000000	4.550355
1743.000000	4.541635
1742.000000	4.532692
1741.000000	4.534579
1740.000000	4.555173
1739.000000	4.498231
1738.000000	4.523753
1737.000000	4.489938
1736.000000	4.519033
1735.000000	4.502728
1734.000000	4.474167
1733.000000	4.461452
1732.000000	4.456555
1731.000000	4.490939
1730.000000	4.471902
1729.000000	4.487789
1728.000000	4.460323
1727.000000	4.453686
1726.000000	4.461370
1725.000000	4.486819
1724.000000	4.497225
1723.000000	4.502822
1722.000000	4.519049
1721.000000	4.519869
1720.000000	4.551325
1719.000000	4.574896
1718.000000	4.584481
1717.000000	4.606904
1716.000000	4.622096
1715.000000	4.616651
1714.000000	4.616860
1713.000000	4.645147
1712.000000	4.628277
1711.000000	4.675504
1710.000000	4.668477
1709.000000	4.682838
1708.000000	4.696549
1707.000000	4.708394
1706.000000	4.683614
1705.000000	4.678098
1704.000000	4.730407
1703.000000	4.676312
1702.000000	4.721713
1701.000000	4.702074
1700.000000	4.735606
1699.000000	4.689836
1698.000000	4.715262
1697.000000	4.744684
1696.000000	4.738030
1695.000000	4.755021
1694.000000	4.751513
1693.000000	4.754883
1692.000000	4.752244
1691.000000	4.762843
1690.000000	4.790560
1689.000000	4.794590
1688.000000	4.824394
1687.000000	4.861608
1686.000000	4.879731
1685.000000	4.867156
1684.000000	4.896600
1683.000000	4.935608
1682.000000	4.981466
1681.000000	5.024286
1680.000000	5.040583
1679.000000	5.077604
1678.000000	5.100464
1677.000000	5.132882
1676.000000	5.157061
1675.000000	5.190143
1674.000000	5.224517
1673.000000	5.224937
1672.000000	5.275591
1671.000000	5.329926
1670.000000	5.358808
1669.000000	5.385951
1668.000000	5.386607
1667.000000	5.442123
1666.000000	5.457770
1665.000000	5.442667
1664.000000	5.475557
1663.000000	5.473273
1662.000000	5.488662
1661.000000	5.526372
1660.000000	5.551008
1659.000000	5.572661
1658.000000	5.591541
1657.000000	5.605360
1656.000000	5.611745
1655.000000	5.636509
1654.000000	5.638637
1653.000000	5.630652
1652.000000	5.632679
1651.000000	5.642414
1650.000000	5.632182
1649.000000	5.617810
1648.000000	5.613525
1647.000000	5.612772
1646.000000	5.605317
1645.000000	5.592583
1644.000000	5.589238
1643.000000	5.572399
1642.000000	5.572409
1641.000000	5.575410
1640.000000	5.555505
1639.000000	5.552289
1638.000000	5.536161
1637.000000	5.521477
1636.000000	5.517811
1635.000000	5.500035
1634.000000	5.495898
1633.000000	5.471165
1632.000000	5.445364
1631.000000	5.455823
1630.000000	5.432417
1629.000000	5.418901
1628.000000	5.407252
1627.000000	5.390377
1626.000000	5.383900
1625.000000	5.377184
1624.000000	5.362793
1623.000000	5.369427
1622.000000	5.348878
1621.000000	5.326713
1620.000000	5.319810
1619.000000	5.296881
1618.000000	5.290230
1617.000000	5.268454
1616.000000	5.251787
1615.000000	5.257488
1614.000000	5.244037
1613.000000	5.227360
1612.000000	5.233249
1611.000000	5.226531
1610.000000	5.193586
1609.000000	5.183268
1608.000000	5.191431
1607.000000	5.184159
1606.000000	5.151946
1605.000000	5.134733
1604.000000	5.115176
1603.000000	5.105954
1602.000000	5.102915
1601.000000	5.085606
1600.000000	5.095118
1599.000000	5.098038
1598.000000	5.078420
1597.000000	5.060714
1596.000000	5.052482
1595.000000	5.047217
1594.000000	5.039084
1593.000000	5.034619
1592.000000	5.022622
1591.000000	5.013497
1590.000000	4.993852
1589.000000	4.981680
1588.000000	4.974049
1587.000000	4.956398
1586.000000	4.958739
1585.000000	4.955813
1584.000000	4.938348
1583.000000	4.923198
1582.000000	4.923504
1581.000000	4.920262
1580.000000	4.905288
1579.000000	4.900211
1578.000000	4.893569
1577.000000	4.886801
1576.000000	4.884062
1575.000000	4.864129
1574.000000	4.840145
1573.000000	4.831161
1572.000000	4.832041
1571.000000	4.822668
1570.000000	4.801515
1569.000000	4.789240
1568.000000	4.783888
1567.000000	4.763355
1566.000000	4.750799
1565.000000	4.736073
1564.000000	4.737112
1563.000000	4.741441
1562.000000	4.722081
1561.000000	4.703123
1560.000000	4.687532
1559.000000	4.676661
1558.000000	4.676536
1557.000000	4.654743
1556.000000	4.631045
1555.000000	4.638867
1554.000000	4.628434
1553.000000	4.618512
1552.000000	4.603360
1551.000000	4.582266
1550.000000	4.566868
1549.000000	4.562081
1548.000000	4.553143
1547.000000	4.522513
1546.000000	4.500403
1545.000000	4.487693
1544.000000	4.470004
1543.000000	4.430135
1542.000000	4.418971
1541.000000	4.411445
1540.000000	4.402022
1539.000000	4.375252
1538.000000	4.365172
1537.000000	4.332815
1536.000000	4.307590
1535.000000	4.289857
1534.000000	4.266664
1533.000000	4.264314
1532.000000	4.249735
1531.000000	4.219401
1530.000000	4.195045
1529.000000	4.179961
1528.000000	4.152468
1527.000000	4.129824
1526.000000	4.113690
1525.000000	4.125545
1524.000000	4.099759
1523.000000	4.093164
1522.000000	4.083003
1521.000000	4.074483
1520.000000	4.062644
1519.000000	4.036891
1518.000000	4.050741
1517.000000	4.036637
1516.000000	4.029910
1515.000000	4.038417
1514.000000	4.035946
1513.000000	4.017458
1512.000000	4.028191
1511.000000	4.020424
1510.000000	4.022944
1509.000000	4.012183
1508.000000	4.015980
1507.000000	4.012838
1506.000000	4.020877
1505.000000	4.023993
1504.000000	4.007121
1503.000000	4.047624
1502.000000	4.044096
1501.000000	4.066274
1500.000000	4.074029
1499.000000	4.046195
1498.000000	4.043367
1497.000000	4.051718
1496.000000	4.056162
1495.000000	4.039002
1494.000000	4.041058
1493.000000	4.032567
1492.000000	4.047345
1491.000000	4.059776
1490.000000	4.058597
1489.000000	4.072043
1488.000000	4.081235
1487.000000	4.052116
1486.000000	4.074163
1485.000000	4.076124
1484.000000	4.084275
1483.000000	4.095455
1482.000000	4.078090
1481.000000	4.112050
1480.000000	4.099122
1479.000000	4.102823
1478.000000	4.104702
1477.000000	4.090907
1476.000000	4.100062
1475.000000	4.106623
1474.000000	4.108633
1473.000000	4.110787
1472.000000	4.106647
1471.000000	4.113141
1470.000000	4.108152
1469.000000	4.101907
1468.000000	4.133474
1467.000000	4.163280
1466.000000	4.159039
1465.000000	4.135573
1464.000000	4.152606
1463.000000	4.162165
1462.000000	4.176315
1461.000000	4.166599
1460.000000	4.159191
1459.000000	4.198174
1458.000000	4.213752
1457.000000	4.199132
1456.000000	4.195541
1455.000000	4.243499
1454.000000	4.225302
1453.000000	4.227473
1452.000000	4.239832
1451.000000	4.264022
1450.000000	4.292024
1449.000000	4.305040
1448.000000	4.301413
1447.000000	4.283301
1446.000000	4.288005
1445.000000	4.315212
1444.000000	4.375110
1443.000000	4.378990
1442.000000	4.387017
1441.000000	4.397739
1440.000000	4.407437
1439.000000	4.403537
1438.000000	4.440742
1437.000000	4.454230
1436.000000	4.483405
1435.000000	4.543344
1434.000000	4.563515
1433.000000	4.571702
1432.000000	4.605164
1431.000000	4.621663
1430.000000	4.647678
1429.000000	4.677800
1428.000000	4.691464
