PE UV       SUBTECH     SPECTRUM    ASCII       PEDS        4.00        
   -1
TDmsopph201.Sample.asc
18/03/19
12:26:46.00
18/03/19
12:26:46.00
Administrator

200.000000
1
Lambda 750
750N8071901
PerkinElmer UV WinLab 6.0.4.0738 / 1.61.00 Lambda 900

0
0
3350/servo 860.8/2
0
0
UV/VIS
1
1
1
CommonBeamDepol,150mm sphere / downward view
0
0
0
0
Program
Program
3350/servo 860.8/2
3350/0.2 860.8/0.2
3350/0.2 860.8/0.2
0
1
 
 
 
0
 
860.8
319.2
860.8
Front
100
on
 
 
0
0
0
 
0
 
 
 
0
 
 
0
0
0
0
0
 
 
 
 
0
0


0
0
#HDR
-1
-1
#GR
nm
%T
1.0
0.0
2350.000000
-1.000000
2151
8
8.382141
-0.021419
#DATA
2350.000000	1.675071
2349.000000	1.468300
2348.000000	1.616150
2347.000000	2.381544
2346.000000	1.808727
2345.000000	1.496790
2344.000000	1.506582
2343.000000	1.574900
2342.000000	1.729659
2341.000000	1.499924
2340.000000	1.534914
2339.000000	2.079788
2338.000000	2.074619
2337.000000	2.283870
2336.000000	2.187900
2335.000000	2.716336
2334.000000	2.320395
2333.000000	2.596108
2332.000000	2.555441
2331.000000	2.439654
2330.000000	2.440850
2329.000000	2.592145
2328.000000	2.704409
2327.000000	2.473813
2326.000000	2.140730
2325.000000	2.443132
2324.000000	2.409183
2323.000000	2.205251
2322.000000	2.311490
2321.000000	2.222085
2320.000000	2.209913
2319.000000	2.233504
2318.000000	2.512959
2317.000000	2.385324
2316.000000	2.447010
2315.000000	2.217721
2314.000000	1.999198
2313.000000	1.958687
2312.000000	1.778765
2311.000000	1.909545
2310.000000	1.904701
2309.000000	2.033333
2308.000000	1.853105
2307.000000	1.743990
2306.000000	1.866344
2305.000000	2.011518
2304.000000	1.924124
2303.000000	2.115528
2302.000000	2.285616
2301.000000	2.218746
2300.000000	2.188361
2299.000000	1.831315
2298.000000	1.583353
2297.000000	1.689180
2296.000000	1.904081
2295.000000	2.173622
2294.000000	1.918014
2293.000000	1.902175
2292.000000	1.677861
2291.000000	1.672994
2290.000000	1.736743
2289.000000	1.910180
2288.000000	2.004303
2287.000000	1.870810
2286.000000	1.975132
2285.000000	1.919995
2284.000000	1.813644
2283.000000	1.848513
2282.000000	1.830294
2281.000000	2.011003
2280.000000	1.914235
2279.000000	1.724051
2278.000000	1.655378
2277.000000	1.769968
2276.000000	1.700974
2275.000000	1.675590
2274.000000	1.719990
2273.000000	1.808492
2272.000000	1.862765
2271.000000	1.742764
2270.000000	1.654058
2269.000000	1.671109
2268.000000	1.709780
2267.000000	1.748412
2266.000000	1.839759
2265.000000	1.902306
2264.000000	1.924555
2263.000000	1.823885
2262.000000	1.884883
2261.000000	1.959485
2260.000000	1.938601
2259.000000	1.963201
2258.000000	2.009967
2257.000000	2.071823
2256.000000	2.137858
2255.000000	2.066927
2254.000000	2.056671
2253.000000	1.980314
2252.000000	1.979479
2251.000000	2.048771
2250.000000	2.128409
2249.000000	2.307207
2248.000000	2.421172
2247.000000	2.418843
2246.000000	2.450501
2245.000000	2.494052
2244.000000	2.602372
2243.000000	2.613141
2242.000000	2.535210
2241.000000	2.525362
2240.000000	2.427986
2239.000000	2.466729
2238.000000	2.627589
2237.000000	2.652276
2236.000000	2.604422
2235.000000	2.532128
2234.000000	2.683132
2233.000000	2.636158
2232.000000	2.636272
2231.000000	2.750709
2230.000000	2.735926
2229.000000	2.691502
2228.000000	2.742065
2227.000000	2.744532
2226.000000	2.721866
2225.000000	2.707533
2224.000000	2.658622
2223.000000	2.628023
2222.000000	2.678989
2221.000000	2.695350
2220.000000	2.610227
2219.000000	2.537837
2218.000000	2.584396
2217.000000	2.532163
2216.000000	2.626973
2215.000000	2.690726
2214.000000	2.637228
2213.000000	2.746427
2212.000000	2.657206
2211.000000	2.542804
2210.000000	2.508523
2209.000000	2.623660
2208.000000	2.577053
2207.000000	2.569203
2206.000000	2.645465
2205.000000	2.463787
2204.000000	2.521452
2203.000000	2.516000
2202.000000	2.594484
2201.000000	2.533990
2200.000000	2.426501
2199.000000	2.526028
2198.000000	2.431241
2197.000000	2.438291
2196.000000	2.396079
2195.000000	2.352935
2194.000000	2.394257
2193.000000	2.182886
2192.000000	2.156422
2191.000000	2.227733
2190.000000	2.359331
2189.000000	2.245049
2188.000000	2.134402
2187.000000	2.219512
2186.000000	2.384713
2185.000000	2.395123
2184.000000	2.177026
2183.000000	2.236200
2182.000000	2.192808
2181.000000	2.213056
2180.000000	2.249285
2179.000000	2.281746
2178.000000	2.369388
2177.000000	2.343765
2176.000000	2.092639
2175.000000	2.162008
2174.000000	2.300847
2173.000000	2.268073
2172.000000	2.446995
2171.000000	2.396742
2170.000000	2.395036
2169.000000	2.391343
2168.000000	2.451483
2167.000000	2.401119
2166.000000	2.501441
2165.000000	2.338327
2164.000000	2.448032
2163.000000	2.301022
2162.000000	2.248090
2161.000000	2.315635
2160.000000	2.348018
2159.000000	2.533999
2158.000000	2.595520
2157.000000	2.448753
2156.000000	2.504821
2155.000000	2.483176
2154.000000	2.531922
2153.000000	2.650732
2152.000000	2.403048
2151.000000	2.496389
2150.000000	2.527696
2149.000000	2.495892
2148.000000	2.472768
2147.000000	2.875620
2146.000000	2.639462
2145.000000	2.692360
2144.000000	2.636268
2143.000000	2.890890
2142.000000	2.771053
2141.000000	2.871640
2140.000000	2.683077
2139.000000	2.800144
2138.000000	2.924500
2137.000000	2.980431
2136.000000	2.941503
2135.000000	2.734762
2134.000000	3.047314
2133.000000	2.747230
2132.000000	2.916999
2131.000000	2.935374
2130.000000	2.942478
2129.000000	3.125605
2128.000000	2.940859
2127.000000	3.029380
2126.000000	2.886428
2125.000000	2.718312
2124.000000	2.786996
2123.000000	2.897109
2122.000000	3.039936
2121.000000	2.999070
2120.000000	2.990193
2119.000000	2.889626
2118.000000	2.960055
2117.000000	2.963846
2116.000000	2.956333
2115.000000	3.055523
2114.000000	2.877251
2113.000000	3.006679
2112.000000	3.033487
2111.000000	2.921688
2110.000000	2.918269
2109.000000	2.928671
2108.000000	2.929865
2107.000000	2.984574
2106.000000	3.001464
2105.000000	2.995328
2104.000000	3.056706
2103.000000	3.013363
2102.000000	3.040467
2101.000000	3.000035
2100.000000	3.138428
2099.000000	3.035438
2098.000000	2.951708
2097.000000	2.905021
2096.000000	2.839421
2095.000000	2.960232
2094.000000	2.969386
2093.000000	2.922237
2092.000000	3.077824
2091.000000	3.043298
2090.000000	3.043869
2089.000000	2.936590
2088.000000	2.931506
2087.000000	3.003329
2086.000000	2.870581
2085.000000	2.981665
2084.000000	2.952847
2083.000000	2.983558
2082.000000	2.866697
2081.000000	2.911453
2080.000000	2.911697
2079.000000	2.874226
2078.000000	2.856808
2077.000000	2.842329
2076.000000	2.842180
2075.000000	2.889950
2074.000000	2.839440
2073.000000	2.879834
2072.000000	2.795041
2071.000000	2.801598
2070.000000	2.731596
2069.000000	2.674473
2068.000000	2.655119
2067.000000	2.601684
2066.000000	2.555729
2065.000000	2.495999
2064.000000	2.458845
2063.000000	2.432623
2062.000000	2.462398
2061.000000	2.406327
2060.000000	2.403874
2059.000000	2.393214
2058.000000	2.409441
2057.000000	2.373810
2056.000000	2.298585
2055.000000	2.293860
2054.000000	2.300708
2053.000000	2.212484
2052.000000	2.153121
2051.000000	2.090480
2050.000000	2.116201
2049.000000	2.147412
2048.000000	2.121666
2047.000000	2.077383
2046.000000	2.097010
2045.000000	2.083099
2044.000000	2.066355
2043.000000	2.071684
2042.000000	2.021197
2041.000000	2.091429
2040.000000	2.174763
2039.000000	2.144864
2038.000000	2.122029
2037.000000	2.135092
2036.000000	2.110537
2035.000000	2.116501
2034.000000	2.135508
2033.000000	2.136311
2032.000000	2.158347
2031.000000	2.157009
2030.000000	2.154231
2029.000000	2.178798
2028.000000	2.211693
2027.000000	2.247567
2026.000000	2.274628
2025.000000	2.282204
2024.000000	2.263549
2023.000000	2.259116
2022.000000	2.266725
2021.000000	2.298244
2020.000000	2.309580
2019.000000	2.322472
2018.000000	2.353941
2017.000000	2.362438
2016.000000	2.343279
2015.000000	2.298883
2014.000000	2.295930
2013.000000	2.303804
2012.000000	2.312996
2011.000000	2.333619
2010.000000	2.345231
2009.000000	2.309004
2008.000000	2.263256
2007.000000	2.262397
2006.000000	2.277825
2005.000000	2.226569
2004.000000	2.199396
2003.000000	2.222975
2002.000000	2.242479
2001.000000	2.207197
2000.000000	2.187668
1999.000000	2.126813
1998.000000	2.128087
1997.000000	2.106695
1996.000000	2.137065
1995.000000	2.117089
1994.000000	2.091334
1993.000000	2.081244
1992.000000	2.081100
1991.000000	2.019384
1990.000000	1.982726
1989.000000	1.943316
1988.000000	1.977581
1987.000000	1.976424
1986.000000	1.982480
1985.000000	1.962037
1984.000000	1.904916
1983.000000	1.882495
1982.000000	1.927904
1981.000000	1.934648
1980.000000	1.909163
1979.000000	1.885876
1978.000000	1.850234
1977.000000	1.813831
1976.000000	1.800227
1975.000000	1.815063
1974.000000	1.787918
1973.000000	1.814712
1972.000000	1.745408
1971.000000	1.763342
1970.000000	1.781601
1969.000000	1.759087
1968.000000	1.748751
1967.000000	1.737885
1966.000000	1.758012
1965.000000	1.745002
1964.000000	1.752459
1963.000000	1.751984
1962.000000	1.709291
1961.000000	1.731741
1960.000000	1.660669
1959.000000	1.698053
1958.000000	1.705720
1957.000000	1.663013
1956.000000	1.702508
1955.000000	1.672193
1954.000000	1.600206
1953.000000	1.665422
1952.000000	1.703251
1951.000000	1.621559
1950.000000	1.635018
1949.000000	1.638371
1948.000000	1.610112
1947.000000	1.599443
1946.000000	1.610054
1945.000000	1.630288
1944.000000	1.632174
1943.000000	1.729280
1942.000000	1.718302
1941.000000	1.676772
1940.000000	1.698015
1939.000000	1.714868
1938.000000	1.769225
1937.000000	1.729145
1936.000000	1.862416
1935.000000	1.905009
1934.000000	1.850495
1933.000000	1.811567
1932.000000	1.810027
1931.000000	1.799197
1930.000000	1.876617
1929.000000	1.796567
1928.000000	1.854352
1927.000000	1.818001
1926.000000	1.911210
1925.000000	1.940855
1924.000000	1.977381
1923.000000	1.957882
1922.000000	2.000801
1921.000000	2.133817
1920.000000	2.030805
1919.000000	2.089411
1918.000000	2.170996
1917.000000	2.307239
1916.000000	2.255084
1915.000000	2.342869
1914.000000	2.445711
1913.000000	2.502543
1912.000000	2.571114
1911.000000	2.581225
1910.000000	2.589955
1909.000000	2.582035
1908.000000	2.747405
1907.000000	2.891130
1906.000000	2.940258
1905.000000	3.058708
1904.000000	3.094579
1903.000000	3.214492
1902.000000	3.325350
1901.000000	3.332806
1900.000000	3.457387
1899.000000	3.570356
1898.000000	3.774046
1897.000000	3.765482
1896.000000	3.923201
1895.000000	4.047107
1894.000000	4.069952
1893.000000	4.214805
1892.000000	4.324535
1891.000000	4.417874
1890.000000	4.577819
1889.000000	4.680835
1888.000000	4.791766
1887.000000	4.895446
1886.000000	4.990559
1885.000000	5.130248
1884.000000	5.172697
1883.000000	5.335489
1882.000000	5.387343
1881.000000	5.457483
1880.000000	5.540130
1879.000000	5.656823
1878.000000	5.765598
1877.000000	5.827315
1876.000000	5.868541
1875.000000	5.990436
1874.000000	6.041147
1873.000000	6.092352
1872.000000	6.147648
1871.000000	6.213480
1870.000000	6.175555
1869.000000	6.248729
1868.000000	6.318514
1867.000000	6.298583
1866.000000	6.323827
1865.000000	6.365666
1864.000000	6.424373
1863.000000	6.425558
1862.000000	6.384419
1861.000000	6.405104
1860.000000	6.470845
1859.000000	6.470022
1858.000000	6.480591
1857.000000	6.462230
1856.000000	6.475801
1855.000000	6.472138
1854.000000	6.507128
1853.000000	6.475382
1852.000000	6.463356
1851.000000	6.482705
1850.000000	6.517112
1849.000000	6.508857
1848.000000	6.527299
1847.000000	6.497497
1846.000000	6.497651
1845.000000	6.526436
1844.000000	6.512204
1843.000000	6.478420
1842.000000	6.485345
1841.000000	6.504118
1840.000000	6.457591
1839.000000	6.459932
1838.000000	6.447737
1837.000000	6.419411
1836.000000	6.399450
1835.000000	6.373365
1834.000000	6.366592
1833.000000	6.333195
1832.000000	6.333245
1831.000000	6.292910
1830.000000	6.272358
1829.000000	6.290632
1828.000000	6.274675
1827.000000	6.241647
1826.000000	6.218894
1825.000000	6.228817
1824.000000	6.227982
1823.000000	6.216828
1822.000000	6.190259
1821.000000	6.160672
1820.000000	6.167152
1819.000000	6.168298
1818.000000	6.152467
1817.000000	6.141763
1816.000000	6.120990
1815.000000	6.116341
1814.000000	6.100921
1813.000000	6.073995
1812.000000	6.068454
1811.000000	6.069461
1810.000000	6.069269
1809.000000	6.058575
1808.000000	6.049121
1807.000000	6.043784
1806.000000	6.033806
1805.000000	6.028586
1804.000000	6.021281
1803.000000	6.001363
1802.000000	5.988855
1801.000000	5.991965
1800.000000	5.989121
1799.000000	5.989091
1798.000000	5.995309
1797.000000	5.991599
1796.000000	5.976713
1795.000000	5.968031
1794.000000	5.990706
1793.000000	6.004598
1792.000000	5.999018
1791.000000	5.976048
1790.000000	5.960721
1789.000000	5.968970
1788.000000	5.985427
1787.000000	5.969034
1786.000000	5.985547
1785.000000	5.981480
1784.000000	5.955752
1783.000000	5.946534
1782.000000	5.939726
1781.000000	5.910562
1780.000000	5.890954
1779.000000	5.890286
1778.000000	5.904365
1777.000000	5.876787
1776.000000	5.856116
1775.000000	5.861913
1774.000000	5.840423
1773.000000	5.802955
1772.000000	5.797543
1771.000000	5.781116
1770.000000	5.775717
1769.000000	5.764606
1768.000000	5.745483
1767.000000	5.727958
1766.000000	5.722777
1765.000000	5.667576
1764.000000	5.662807
1763.000000	5.670908
1762.000000	5.638963
1761.000000	5.584566
1760.000000	5.557249
1759.000000	5.564115
1758.000000	5.555403
1757.000000	5.550756
1756.000000	5.535020
1755.000000	5.513400
1754.000000	5.497726
1753.000000	5.483850
1752.000000	5.472393
1751.000000	5.456899
1750.000000	5.469563
1749.000000	5.422307
1748.000000	5.402942
1747.000000	5.387824
1746.000000	5.384099
1745.000000	5.364002
1744.000000	5.309820
1743.000000	5.309685
1742.000000	5.265618
1741.000000	5.249949
1740.000000	5.282592
1739.000000	5.272313
1738.000000	5.239451
1737.000000	5.240538
1736.000000	5.225258
1735.000000	5.221054
1734.000000	5.230408
1733.000000	5.255916
1732.000000	5.213910
1731.000000	5.219591
1730.000000	5.222510
1729.000000	5.222340
1728.000000	5.224000
1727.000000	5.235996
1726.000000	5.233652
1725.000000	5.250240
1724.000000	5.282553
1723.000000	5.319961
1722.000000	5.321074
1721.000000	5.372881
1720.000000	5.377410
1719.000000	5.399579
1718.000000	5.407723
1717.000000	5.448319
1716.000000	5.493199
1715.000000	5.480962
1714.000000	5.515094
1713.000000	5.495466
1712.000000	5.525471
1711.000000	5.568068
1710.000000	5.531598
1709.000000	5.561837
1708.000000	5.576106
1707.000000	5.581624
1706.000000	5.585105
1705.000000	5.590243
1704.000000	5.620254
1703.000000	5.597618
1702.000000	5.592156
1701.000000	5.625353
1700.000000	5.615615
1699.000000	5.614311
1698.000000	5.620662
1697.000000	5.646127
1696.000000	5.622650
1695.000000	5.636513
1694.000000	5.652772
1693.000000	5.683604
1692.000000	5.668787
1691.000000	5.679919
1690.000000	5.674976
1689.000000	5.686380
1688.000000	5.731689
1687.000000	5.766581
1686.000000	5.790819
1685.000000	5.840583
1684.000000	5.880447
1683.000000	5.930941
1682.000000	5.976809
1681.000000	6.002515
1680.000000	6.048186
1679.000000	6.099428
1678.000000	6.112427
1677.000000	6.121475
1676.000000	6.206175
1675.000000	6.268830
1674.000000	6.315274
1673.000000	6.358881
1672.000000	6.384894
1671.000000	6.427170
1670.000000	6.481889
1669.000000	6.513271
1668.000000	6.569015
1667.000000	6.616041
1666.000000	6.605506
1665.000000	6.617198
1664.000000	6.638574
1663.000000	6.663979
1662.000000	6.694242
1661.000000	6.709952
1660.000000	6.741347
1659.000000	6.746734
1658.000000	6.741382
1657.000000	6.781196
1656.000000	6.797206
1655.000000	6.800777
1654.000000	6.821826
1653.000000	6.834704
1652.000000	6.859078
1651.000000	6.851354
1650.000000	6.828106
1649.000000	6.808982
1648.000000	6.788323
1647.000000	6.802803
1646.000000	6.806570
1645.000000	6.823522
1644.000000	6.801139
1643.000000	6.795918
1642.000000	6.776423
1641.000000	6.768558
1640.000000	6.756137
1639.000000	6.723609
1638.000000	6.727024
1637.000000	6.743539
1636.000000	6.730385
1635.000000	6.689169
1634.000000	6.673347
1633.000000	6.658620
1632.000000	6.649165
1631.000000	6.644791
1630.000000	6.630184
1629.000000	6.605304
1628.000000	6.584990
1627.000000	6.577869
1626.000000	6.560101
1625.000000	6.535149
1624.000000	6.521265
1623.000000	6.505436
1622.000000	6.501675
1621.000000	6.487857
1620.000000	6.471967
1619.000000	6.460725
1618.000000	6.446746
1617.000000	6.427442
1616.000000	6.396026
1615.000000	6.375541
1614.000000	6.362315
1613.000000	6.348006
1612.000000	6.337155
1611.000000	6.324591
1610.000000	6.298037
1609.000000	6.275604
1608.000000	6.278608
1607.000000	6.253915
1606.000000	6.211925
1605.000000	6.205075
1604.000000	6.189433
1603.000000	6.154352
1602.000000	6.130482
1601.000000	6.119519
1600.000000	6.111083
1599.000000	6.095610
1598.000000	6.072489
1597.000000	6.059646
1596.000000	6.040232
1595.000000	6.013653
1594.000000	6.005270
1593.000000	6.009220
1592.000000	5.991044
1591.000000	5.976034
1590.000000	5.953730
1589.000000	5.932070
1588.000000	5.915050
1587.000000	5.898900
1586.000000	5.895443
1585.000000	5.891334
1584.000000	5.865115
1583.000000	5.846372
1582.000000	5.835137
1581.000000	5.832176
1580.000000	5.817837
1579.000000	5.796189
1578.000000	5.793473
1577.000000	5.781479
1576.000000	5.766299
1575.000000	5.747118
1574.000000	5.727205
1573.000000	5.707990
1572.000000	5.713181
1571.000000	5.708547
1570.000000	5.687542
1569.000000	5.660513
1568.000000	5.652063
1567.000000	5.645135
1566.000000	5.629596
1565.000000	5.630675
1564.000000	5.628043
1563.000000	5.613205
1562.000000	5.603096
1561.000000	5.609974
1560.000000	5.583689
1559.000000	5.556700
1558.000000	5.538950
1557.000000	5.537332
1556.000000	5.535884
1555.000000	5.522422
1554.000000	5.525779
1553.000000	5.521174
1552.000000	5.520908
1551.000000	5.495446
1550.000000	5.484678
1549.000000	5.467015
1548.000000	5.462861
1547.000000	5.447575
1546.000000	5.429547
1545.000000	5.403327
1544.000000	5.373311
1543.000000	5.341814
1542.000000	5.325946
1541.000000	5.297531
1540.000000	5.276550
1539.000000	5.252402
1538.000000	5.238365
1537.000000	5.205059
1536.000000	5.147758
1535.000000	5.135816
1534.000000	5.122302
1533.000000	5.109619
1532.000000	5.070834
1531.000000	5.044923
1530.000000	5.022613
1529.000000	4.995535
1528.000000	4.972766
1527.000000	4.957276
1526.000000	4.934653
1525.000000	4.919652
1524.000000	4.894272
1523.000000	4.888340
1522.000000	4.885271
1521.000000	4.868413
1520.000000	4.858020
1519.000000	4.859251
1518.000000	4.850668
1517.000000	4.827602
1516.000000	4.816978
1515.000000	4.798679
1514.000000	4.791695
1513.000000	4.774246
1512.000000	4.767814
1511.000000	4.771286
1510.000000	4.762765
1509.000000	4.758951
1508.000000	4.764461
1507.000000	4.742632
1506.000000	4.748453
1505.000000	4.742431
1504.000000	4.734874
1503.000000	4.747339
1502.000000	4.754631
1501.000000	4.770758
1500.000000	4.786438
1499.000000	4.784118
1498.000000	4.765867
1497.000000	4.765331
1496.000000	4.780855
1495.000000	4.755357
1494.000000	4.771478
1493.000000	4.766118
1492.000000	4.774078
1491.000000	4.789623
1490.000000	4.783933
1489.000000	4.783515
1488.000000	4.804372
1487.000000	4.796165
1486.000000	4.804683
1485.000000	4.821302
1484.000000	4.824168
1483.000000	4.833568
1482.000000	4.816867
1481.000000	4.868291
1480.000000	4.877465
1479.000000	4.882701
1478.000000	4.887915
1477.000000	4.875537
1476.000000	4.890770
1475.000000	4.894439
1474.000000	4.905704
1473.000000	4.912245
1472.000000	4.901382
1471.000000	4.935743
1470.000000	4.937402
1469.000000	4.945336
1468.000000	4.961164
1467.000000	4.982634
1466.000000	5.018236
1465.000000	5.013974
1464.000000	5.022253
1463.000000	5.056933
1462.000000	5.068784
1461.000000	5.061470
1460.000000	5.059341
1459.000000	5.079550
1458.000000	5.111385
1457.000000	5.117954
1456.000000	5.109485
1455.000000	5.126832
1454.000000	5.165252
1453.000000	5.183405
1452.000000	5.179647
1451.000000	5.180601
1450.000000	5.177202
1449.000000	5.207371
1448.000000	5.251124
1447.000000	5.265176
1446.000000	5.255775
1445.000000	5.275878
1444.000000	5.281478
1443.000000	5.299900
1442.000000	5.352434
1441.000000	5.391768
1440.000000	5.394985
1439.000000	5.397040
1438.000000	5.409320
1437.000000	5.433970
1436.000000	5.448073
1435.000000	5.475066
1434.000000	5.493473
1433.000000	5.507570
1432.000000	5.528549
1431.000000	5.569763
1430.000000	5.611514
1429.000000	5.634800
1428.000000	5.669468
