PE UV       SUBTECH     SPECTRUM    ASCII       PEDS        4.00        
   -1
TTmsopph201.Sample.asc
18/03/19
12:36:22.00
18/03/19
12:36:22.00
Administrator

200.000000
1
Lambda 750
750N8071901
PerkinElmer UV WinLab 6.0.4.0738 / 1.61.00 Lambda 900

0
0
3350/servo 860.8/2
0
0
UV/VIS
1
1
1
CommonBeamDepol,150mm sphere / downward view
0
0
0
0
Program
Program
3350/servo 860.8/2
3350/0.2 860.8/0.2
3350/0.2 860.8/0.2
0
1
 
 
 
0
 
860.8
319.2
860.8
Front
100
on
 
 
0
0
0
 
0
 
 
 
0
 
 
0
0
0
0
0
 
 
 
 
0
0


0
0
#HDR
-1
-1
#GR
nm
%T
1.0
0.0
2350.000000
-1.000000
2151
8
8.467720
0.002824
#DATA
2350.000000	1.523606
2349.000000	2.101663
2348.000000	2.067710
2347.000000	2.432531
2346.000000	2.148962
2345.000000	1.507180
2344.000000	1.286885
2343.000000	1.708016
2342.000000	1.534066
2341.000000	1.629250
2340.000000	1.867394
2339.000000	2.166997
2338.000000	1.986938
2337.000000	2.513712
2336.000000	2.406519
2335.000000	2.632770
2334.000000	2.450831
2333.000000	2.188334
2332.000000	2.498869
2331.000000	2.820736
2330.000000	2.417624
2329.000000	2.756192
2328.000000	2.241953
2327.000000	2.243031
2326.000000	2.284405
2325.000000	2.366860
2324.000000	2.059688
2323.000000	2.128741
2322.000000	2.256091
2321.000000	2.150203
2320.000000	2.018265
2319.000000	2.078992
2318.000000	2.337448
2317.000000	2.155154
2316.000000	2.102384
2315.000000	1.970891
2314.000000	1.965984
2313.000000	1.997954
2312.000000	2.105093
2311.000000	2.220945
2310.000000	2.169544
2309.000000	2.314965
2308.000000	1.940745
2307.000000	2.095849
2306.000000	2.028243
2305.000000	2.097810
2304.000000	1.995910
2303.000000	2.049088
2302.000000	2.034845
2301.000000	1.886313
2300.000000	1.699165
2299.000000	1.858326
2298.000000	1.853002
2297.000000	1.845348
2296.000000	1.906008
2295.000000	1.745931
2294.000000	1.787040
2293.000000	1.830964
2292.000000	1.875809
2291.000000	1.942176
2290.000000	1.918760
2289.000000	1.780359
2288.000000	1.782660
2287.000000	1.808676
2286.000000	1.794958
2285.000000	1.668980
2284.000000	1.594877
2283.000000	1.729594
2282.000000	1.742119
2281.000000	1.592090
2280.000000	1.561594
2279.000000	1.750892
2278.000000	1.767384
2277.000000	1.832744
2276.000000	1.837136
2275.000000	1.759178
2274.000000	1.784998
2273.000000	1.792485
2272.000000	1.821649
2271.000000	1.687777
2270.000000	1.645438
2269.000000	1.744873
2268.000000	1.825009
2267.000000	1.872668
2266.000000	1.789373
2265.000000	1.785122
2264.000000	1.905212
2263.000000	1.790655
2262.000000	1.661494
2261.000000	1.921230
2260.000000	2.080855
2259.000000	2.046711
2258.000000	2.053726
2257.000000	2.003486
2256.000000	1.989976
2255.000000	1.957197
2254.000000	2.075424
2253.000000	2.132958
2252.000000	2.142214
2251.000000	2.104192
2250.000000	2.046648
2249.000000	2.232732
2248.000000	2.330186
2247.000000	2.321388
2246.000000	2.378341
2245.000000	2.487977
2244.000000	2.636357
2243.000000	2.689405
2242.000000	2.620851
2241.000000	2.601468
2240.000000	2.592589
2239.000000	2.557512
2238.000000	2.522477
2237.000000	2.557969
2236.000000	2.640297
2235.000000	2.686348
2234.000000	2.712396
2233.000000	2.715814
2232.000000	2.745306
2231.000000	2.741491
2230.000000	2.713528
2229.000000	2.709635
2228.000000	2.843882
2227.000000	2.799915
2226.000000	2.736243
2225.000000	2.655454
2224.000000	2.652643
2223.000000	2.694567
2222.000000	2.646443
2221.000000	2.628907
2220.000000	2.626047
2219.000000	2.675086
2218.000000	2.720396
2217.000000	2.649662
2216.000000	2.709766
2215.000000	2.752786
2214.000000	2.742191
2213.000000	2.691294
2212.000000	2.733917
2211.000000	2.691612
2210.000000	2.567468
2209.000000	2.581022
2208.000000	2.534281
2207.000000	2.527128
2206.000000	2.540988
2205.000000	2.528101
2204.000000	2.503029
2203.000000	2.513367
2202.000000	2.485811
2201.000000	2.424724
2200.000000	2.490457
2199.000000	2.437445
2198.000000	2.385640
2197.000000	2.456119
2196.000000	2.380381
2195.000000	2.330561
2194.000000	2.294572
2193.000000	2.193718
2192.000000	2.287400
2191.000000	2.254974
2190.000000	2.245454
2189.000000	2.279651
2188.000000	2.249431
2187.000000	2.275483
2186.000000	2.189475
2185.000000	2.118370
2184.000000	2.321332
2183.000000	2.369972
2182.000000	2.343872
2181.000000	2.253131
2180.000000	2.302391
2179.000000	2.117255
2178.000000	2.179473
2177.000000	2.329597
2176.000000	2.270235
2175.000000	2.321756
2174.000000	2.321662
2173.000000	2.135358
2172.000000	2.199612
2171.000000	2.333032
2170.000000	2.337500
2169.000000	2.386997
2168.000000	2.440778
2167.000000	2.445926
2166.000000	2.434532
2165.000000	2.410342
2164.000000	2.435026
2163.000000	2.236427
2162.000000	2.354830
2161.000000	2.466440
2160.000000	2.468450
2159.000000	2.419735
2158.000000	2.335455
2157.000000	2.541623
2156.000000	2.488391
2155.000000	2.605120
2154.000000	2.611199
2153.000000	2.675439
2152.000000	2.785067
2151.000000	2.771624
2150.000000	2.676906
2149.000000	2.734437
2148.000000	2.285042
2147.000000	2.464255
2146.000000	2.508205
2145.000000	2.538744
2144.000000	2.665090
2143.000000	2.676795
2142.000000	2.682129
2141.000000	2.769175
2140.000000	2.668858
2139.000000	2.770689
2138.000000	2.879907
2137.000000	2.994233
2136.000000	3.040104
2135.000000	2.842672
2134.000000	2.989152
2133.000000	2.772803
2132.000000	2.924557
2131.000000	2.866690
2130.000000	3.001848
2129.000000	3.031689
2128.000000	2.946610
2127.000000	2.914588
2126.000000	2.771084
2125.000000	2.892887
2124.000000	2.900144
2123.000000	2.808313
2122.000000	2.928961
2121.000000	2.908413
2120.000000	2.889058
2119.000000	2.905879
2118.000000	2.992859
2117.000000	2.918234
2116.000000	2.965002
2115.000000	3.124962
2114.000000	3.206797
2113.000000	3.115167
2112.000000	2.988469
2111.000000	2.865764
2110.000000	2.956399
2109.000000	2.903333
2108.000000	2.797056
2107.000000	2.975776
2106.000000	2.944293
2105.000000	2.999571
2104.000000	3.019473
2103.000000	3.050214
2102.000000	2.967728
2101.000000	2.997108
2100.000000	3.039900
2099.000000	3.081085
2098.000000	3.026046
2097.000000	3.054889
2096.000000	3.036777
2095.000000	2.920535
2094.000000	2.926859
2093.000000	2.990607
2092.000000	2.993101
2091.000000	3.006087
2090.000000	2.952268
2089.000000	3.095041
2088.000000	3.047812
2087.000000	2.926137
2086.000000	3.006679
2085.000000	3.022538
2084.000000	2.921989
2083.000000	2.955020
2082.000000	2.963622
2081.000000	2.897404
2080.000000	2.799296
2079.000000	2.848019
2078.000000	2.858830
2077.000000	2.863874
2076.000000	2.801079
2075.000000	2.821269
2074.000000	2.838833
2073.000000	2.839290
2072.000000	2.768148
2071.000000	2.787537
2070.000000	2.815402
2069.000000	2.730623
2068.000000	2.630943
2067.000000	2.553621
2066.000000	2.541561
2065.000000	2.569893
2064.000000	2.534073
2063.000000	2.469769
2062.000000	2.511505
2061.000000	2.440229
2060.000000	2.454372
2059.000000	2.448870
2058.000000	2.405294
2057.000000	2.399811
2056.000000	2.352436
2055.000000	2.312077
2054.000000	2.293219
2053.000000	2.277995
2052.000000	2.163657
2051.000000	2.200676
2050.000000	2.218611
2049.000000	2.130494
2048.000000	2.107581
2047.000000	2.162890
2046.000000	2.141172
2045.000000	2.142417
2044.000000	2.068582
2043.000000	2.050723
2042.000000	2.046615
2041.000000	2.019423
2040.000000	2.103328
2039.000000	2.143648
2038.000000	2.063565
2037.000000	2.051913
2036.000000	2.080757
2035.000000	2.130689
2034.000000	2.185065
2033.000000	2.203188
2032.000000	2.219748
2031.000000	2.209497
2030.000000	2.195076
2029.000000	2.175960
2028.000000	2.221925
2027.000000	2.246554
2026.000000	2.237424
2025.000000	2.274195
2024.000000	2.371704
2023.000000	2.406939
2022.000000	2.314779
2021.000000	2.315373
2020.000000	2.345062
2019.000000	2.344876
2018.000000	2.342794
2017.000000	2.329188
2016.000000	2.306568
2015.000000	2.309832
2014.000000	2.343261
2013.000000	2.331886
2012.000000	2.296167
2011.000000	2.318407
2010.000000	2.327178
2009.000000	2.333647
2008.000000	2.324324
2007.000000	2.246164
2006.000000	2.221620
2005.000000	2.227381
2004.000000	2.193307
2003.000000	2.207246
2002.000000	2.183413
2001.000000	2.161844
2000.000000	2.166361
1999.000000	2.152490
1998.000000	2.135499
1997.000000	2.102533
1996.000000	2.114526
1995.000000	2.106328
1994.000000	2.056421
1993.000000	2.052715
1992.000000	2.030852
1991.000000	2.014208
1990.000000	2.031776
1989.000000	1.998056
1988.000000	1.989461
1987.000000	1.939854
1986.000000	1.946525
1985.000000	1.944774
1984.000000	1.946448
1983.000000	1.960792
1982.000000	1.977069
1981.000000	1.943787
1980.000000	1.889159
1979.000000	1.867891
1978.000000	1.879091
1977.000000	1.832425
1976.000000	1.829693
1975.000000	1.814860
1974.000000	1.798990
1973.000000	1.828017
1972.000000	1.799749
1971.000000	1.801119
1970.000000	1.774697
1969.000000	1.744466
1968.000000	1.786626
1967.000000	1.770994
1966.000000	1.742980
1965.000000	1.735456
1964.000000	1.723928
1963.000000	1.699279
1962.000000	1.688170
1961.000000	1.668993
1960.000000	1.727604
1959.000000	1.672868
1958.000000	1.685621
1957.000000	1.674588
1956.000000	1.670924
1955.000000	1.700622
1954.000000	1.687324
1953.000000	1.671410
1952.000000	1.653815
1951.000000	1.686129
1950.000000	1.644153
1949.000000	1.670649
1948.000000	1.674471
1947.000000	1.647763
1946.000000	1.688385
1945.000000	1.710138
1944.000000	1.713057
1943.000000	1.694979
1942.000000	1.615184
1941.000000	1.663483
1940.000000	1.707139
1939.000000	1.697116
1938.000000	1.729445
1937.000000	1.677632
1936.000000	1.823384
1935.000000	1.697184
1934.000000	1.792518
1933.000000	1.810350
1932.000000	1.769282
1931.000000	1.800920
1930.000000	1.817887
1929.000000	1.825565
1928.000000	1.930623
1927.000000	1.882586
1926.000000	1.896007
1925.000000	1.956060
1924.000000	1.979813
1923.000000	1.981302
1922.000000	2.008506
1921.000000	2.116180
1920.000000	2.094660
1919.000000	2.172635
1918.000000	2.245746
1917.000000	2.337863
1916.000000	2.205609
1915.000000	2.333743
1914.000000	2.337789
1913.000000	2.474452
1912.000000	2.486699
1911.000000	2.567839
1910.000000	2.614200
1909.000000	2.693914
1908.000000	2.817284
1907.000000	2.843864
1906.000000	2.919360
1905.000000	3.013047
1904.000000	3.107874
1903.000000	3.231832
1902.000000	3.244127
1901.000000	3.357235
1900.000000	3.456880
1899.000000	3.623222
1898.000000	3.726398
1897.000000	3.842126
1896.000000	3.893080
1895.000000	4.062424
1894.000000	4.165716
1893.000000	4.250295
1892.000000	4.349600
1891.000000	4.436647
1890.000000	4.599943
1889.000000	4.688646
1888.000000	4.817222
1887.000000	4.930238
1886.000000	5.037307
1885.000000	5.140588
1884.000000	5.246681
1883.000000	5.330624
1882.000000	5.426053
1881.000000	5.545247
1880.000000	5.609950
1879.000000	5.688014
1878.000000	5.783113
1877.000000	5.877978
1876.000000	5.957721
1875.000000	6.004209
1874.000000	6.060284
1873.000000	6.090530
1872.000000	6.163435
1871.000000	6.209229
1870.000000	6.263115
1869.000000	6.273625
1868.000000	6.338047
1867.000000	6.336255
1866.000000	6.329601
1865.000000	6.397874
1864.000000	6.432475
1863.000000	6.417759
1862.000000	6.405190
1861.000000	6.430843
1860.000000	6.449060
1859.000000	6.492611
1858.000000	6.548571
1857.000000	6.556749
1856.000000	6.507516
1855.000000	6.497573
1854.000000	6.517972
1853.000000	6.548428
1852.000000	6.531948
1851.000000	6.522508
1850.000000	6.500301
1849.000000	6.485768
1848.000000	6.527198
1847.000000	6.538430
1846.000000	6.517812
1845.000000	6.540922
1844.000000	6.520002
1843.000000	6.497256
1842.000000	6.531027
1841.000000	6.505536
1840.000000	6.484542
1839.000000	6.499234
1838.000000	6.493025
1837.000000	6.452035
1836.000000	6.423162
1835.000000	6.433774
1834.000000	6.416457
1833.000000	6.367461
1832.000000	6.353324
1831.000000	6.344825
1830.000000	6.321333
1829.000000	6.294789
1828.000000	6.287149
1827.000000	6.291944
1826.000000	6.292818
1825.000000	6.264627
1824.000000	6.255479
1823.000000	6.257429
1822.000000	6.226695
1821.000000	6.205032
1820.000000	6.192425
1819.000000	6.176923
1818.000000	6.170942
1817.000000	6.166030
1816.000000	6.145563
1815.000000	6.132997
1814.000000	6.118996
1813.000000	6.120798
1812.000000	6.115359
1811.000000	6.100630
1810.000000	6.094961
1809.000000	6.096760
1808.000000	6.098071
1807.000000	6.075172
1806.000000	6.071499
1805.000000	6.068008
1804.000000	6.054400
1803.000000	6.057647
1802.000000	6.039054
1801.000000	6.037697
1800.000000	6.048160
1799.000000	6.042242
1798.000000	6.029961
1797.000000	6.027873
1796.000000	6.018881
1795.000000	6.000744
1794.000000	5.990096
1793.000000	5.989556
1792.000000	6.013960
1791.000000	6.026262
1790.000000	6.008501
1789.000000	6.003125
1788.000000	5.998945
1787.000000	6.005625
1786.000000	5.999573
1785.000000	5.978431
1784.000000	5.976181
1783.000000	5.986677
1782.000000	5.977325
1781.000000	5.965540
1780.000000	5.936680
1779.000000	5.938356
1778.000000	5.954774
1777.000000	5.945088
1776.000000	5.908769
1775.000000	5.871873
1774.000000	5.879753
1773.000000	5.864650
1772.000000	5.832810
1771.000000	5.802357
1770.000000	5.794009
1769.000000	5.794578
1768.000000	5.775357
1767.000000	5.752656
1766.000000	5.713328
1765.000000	5.708937
1764.000000	5.735377
1763.000000	5.702309
1762.000000	5.661526
1761.000000	5.641898
1760.000000	5.615993
1759.000000	5.579157
1758.000000	5.559368
1757.000000	5.555025
1756.000000	5.536748
1755.000000	5.527424
1754.000000	5.531367
1753.000000	5.496654
1752.000000	5.478286
1751.000000	5.466653
1750.000000	5.450357
1749.000000	5.475446
1748.000000	5.437487
1747.000000	5.415365
1746.000000	5.393854
1745.000000	5.398338
1744.000000	5.384091
1743.000000	5.380406
1742.000000	5.332997
1741.000000	5.315179
1740.000000	5.303829
1739.000000	5.288774
1738.000000	5.279374
1737.000000	5.267456
1736.000000	5.243647
1735.000000	5.256918
1734.000000	5.255916
1733.000000	5.242297
1732.000000	5.229556
1731.000000	5.258307
1730.000000	5.260409
1729.000000	5.245706
1728.000000	5.258035
1727.000000	5.275929
1726.000000	5.287000
1725.000000	5.295548
1724.000000	5.344412
1723.000000	5.336724
1722.000000	5.377150
1721.000000	5.360793
1720.000000	5.399756
1719.000000	5.420711
1718.000000	5.440134
1717.000000	5.450046
1716.000000	5.493707
1715.000000	5.506464
1714.000000	5.498733
1713.000000	5.568623
1712.000000	5.540305
1711.000000	5.543585
1710.000000	5.569702
1709.000000	5.591197
1708.000000	5.597842
1707.000000	5.676590
1706.000000	5.654297
1705.000000	5.645202
1704.000000	5.625232
1703.000000	5.630532
1702.000000	5.632805
1701.000000	5.603608
1700.000000	5.665300
1699.000000	5.601208
1698.000000	5.637421
1697.000000	5.656387
1696.000000	5.689806
1695.000000	5.661395
1694.000000	5.666181
1693.000000	5.677204
1692.000000	5.702714
1691.000000	5.706739
1690.000000	5.715104
1689.000000	5.712385
1688.000000	5.763079
1687.000000	5.804883
1686.000000	5.835002
1685.000000	5.878662
1684.000000	5.913052
1683.000000	5.944146
1682.000000	5.984833
1681.000000	6.039185
1680.000000	6.082214
1679.000000	6.111822
1678.000000	6.161900
1677.000000	6.204056
1676.000000	6.261832
1675.000000	6.301741
1674.000000	6.345439
1673.000000	6.389560
1672.000000	6.410187
1671.000000	6.463330
1670.000000	6.519569
1669.000000	6.585467
1668.000000	6.595416
1667.000000	6.644779
1666.000000	6.667154
1665.000000	6.683510
1664.000000	6.706200
1663.000000	6.701040
1662.000000	6.714649
1661.000000	6.742549
1660.000000	6.782065
1659.000000	6.813440
1658.000000	6.830335
1657.000000	6.840180
1656.000000	6.849287
1655.000000	6.843220
1654.000000	6.843249
1653.000000	6.866992
1652.000000	6.884462
1651.000000	6.883841
1650.000000	6.861100
1649.000000	6.869287
1648.000000	6.865271
1647.000000	6.846358
1646.000000	6.834695
1645.000000	6.826568
1644.000000	6.815253
1643.000000	6.835516
1642.000000	6.824129
1641.000000	6.778100
1640.000000	6.775123
1639.000000	6.757620
1638.000000	6.746617
1637.000000	6.745671
1636.000000	6.732009
1635.000000	6.733938
1634.000000	6.708268
1633.000000	6.688872
1632.000000	6.686524
1631.000000	6.675757
1630.000000	6.646327
1629.000000	6.623276
1628.000000	6.629866
1627.000000	6.610455
1626.000000	6.603043
1625.000000	6.596763
1624.000000	6.571203
1623.000000	6.555683
1622.000000	6.553859
1621.000000	6.539025
1620.000000	6.517753
1619.000000	6.490272
1618.000000	6.476800
1617.000000	6.451403
1616.000000	6.442223
1615.000000	6.434022
1614.000000	6.407697
1613.000000	6.379276
1612.000000	6.359894
1611.000000	6.341137
1610.000000	6.331136
1609.000000	6.310124
1608.000000	6.288861
1607.000000	6.269142
1606.000000	6.249791
1605.000000	6.238066
1604.000000	6.215218
1603.000000	6.194251
1602.000000	6.183886
1601.000000	6.166932
1600.000000	6.148948
1599.000000	6.118753
1598.000000	6.096954
1597.000000	6.087664
1596.000000	6.073118
1595.000000	6.061560
1594.000000	6.055205
1593.000000	6.045557
1592.000000	6.030635
1591.000000	6.011159
1590.000000	5.988245
1589.000000	5.959681
1588.000000	5.948445
1587.000000	5.951079
1586.000000	5.934121
1585.000000	5.910620
1584.000000	5.900641
1583.000000	5.896711
1582.000000	5.882234
1581.000000	5.873085
1580.000000	5.860270
1579.000000	5.842376
1578.000000	5.824427
1577.000000	5.811010
1576.000000	5.791571
1575.000000	5.778785
1574.000000	5.772473
1573.000000	5.759248
1572.000000	5.741702
1571.000000	5.724786
1570.000000	5.717078
1569.000000	5.701924
1568.000000	5.695408
1567.000000	5.682995
1566.000000	5.678005
1565.000000	5.661222
1564.000000	5.646310
1563.000000	5.637461
1562.000000	5.620957
1561.000000	5.598099
1560.000000	5.586835
1559.000000	5.586132
1558.000000	5.595888
1557.000000	5.598025
1556.000000	5.580742
1555.000000	5.569103
1554.000000	5.557438
1553.000000	5.556587
1552.000000	5.549625
1551.000000	5.537255
1550.000000	5.515933
1549.000000	5.500194
1548.000000	5.485489
1547.000000	5.462086
1546.000000	5.444770
1545.000000	5.435190
1544.000000	5.401824
1543.000000	5.386763
1542.000000	5.365215
1541.000000	5.330307
1540.000000	5.313583
1539.000000	5.281625
1538.000000	5.258048
1537.000000	5.238741
1536.000000	5.210146
1535.000000	5.167368
1534.000000	5.146449
1533.000000	5.149292
1532.000000	5.116795
1531.000000	5.109664
1530.000000	5.104926
1529.000000	5.133333
1528.000000	5.169713
1527.000000	5.175259
1526.000000	5.121996
1525.000000	5.070270
1524.000000	5.026210
1523.000000	5.029792
1522.000000	5.020640
1521.000000	5.004901
1520.000000	4.991756
1519.000000	4.995738
1518.000000	4.979339
1517.000000	4.936889
1516.000000	4.949622
1515.000000	4.952175
1514.000000	4.924749
1513.000000	4.907786
1512.000000	4.900037
1511.000000	4.905472
1510.000000	4.897026
1509.000000	4.894663
1508.000000	4.868484
1507.000000	4.870202
1506.000000	4.835849
1505.000000	4.835304
1504.000000	4.816067
1503.000000	4.845884
1502.000000	4.874093
1501.000000	4.843525
1500.000000	4.839013
1499.000000	4.843089
1498.000000	4.827365
1497.000000	4.824908
1496.000000	4.818609
1495.000000	4.817565
1494.000000	4.813087
1493.000000	4.808836
1492.000000	4.813149
1491.000000	4.823922
1490.000000	4.815801
1489.000000	4.811822
1488.000000	4.850541
1487.000000	4.844780
1486.000000	4.854410
1485.000000	4.868691
1484.000000	4.877747
1483.000000	4.900027
1482.000000	4.886670
1481.000000	4.897614
1480.000000	4.918653
1479.000000	4.921457
1478.000000	4.936310
1477.000000	4.941274
1476.000000	4.962900
1475.000000	4.974992
1474.000000	4.962423
1473.000000	4.987014
1472.000000	4.983564
1471.000000	4.967496
1470.000000	4.979506
1469.000000	5.011789
1468.000000	4.990784
1467.000000	5.026062
1466.000000	5.013265
1465.000000	5.038624
1464.000000	5.081398
1463.000000	5.088701
1462.000000	5.094146
1461.000000	5.089771
1460.000000	5.152350
1459.000000	5.146522
1458.000000	5.125791
1457.000000	5.154879
1456.000000	5.142048
1455.000000	5.202707
1454.000000	5.206953
1453.000000	5.200651
1452.000000	5.227526
1451.000000	5.229997
1450.000000	5.266665
1449.000000	5.300198
1448.000000	5.298091
1447.000000	5.311018
1446.000000	5.319270
1445.000000	5.319591
1444.000000	5.362210
1443.000000	5.379011
1442.000000	5.399203
1441.000000	5.412864
1440.000000	5.420032
1439.000000	5.427059
1438.000000	5.443297
1437.000000	5.471093
1436.000000	5.498273
1435.000000	5.566846
1434.000000	5.595201
1433.000000	5.611823
1432.000000	5.629950
1431.000000	5.671671
1430.000000	5.682390
1429.000000	5.717333
1428.000000	5.740944
